    T[sec] Fp1 Fp2  F7  F3  F4  F8  T3  C3  C4  T4  T5  P3  P4  T6  O1  O2
41 231.1 231.1 231.1 231.1 231.1 231.1 231.1 231.1 231.1 231.1 231.1 231.1 231.1 231.1 231.1 231.1
0 13.99 22.91 13.99 7.899 -2.031 -17.04 23.92 29.9 0.9028 -17.04 51.91 79.9 25.96 -5.078 83.96 53.94
0.005 9.931 26.97 23.92 5.981 -3.047 -19.07 31.94 23.92 -1.016 -17.04 39.95 77.98 25.96 -3.047 79.9 53.94
0.01 11.96 32.95 33.97 9.931 -2.031 -9.028 37.92 23.92 1.918 -7.109 36 75.95 29.9 3.95 73.92 51.91
0.015 17.94 36.9 37.92 13.99 9.931 1.918 37.92 25.96 15.91 7.899 36 65.9 36 19.97 57.89 43.9
0.02 23.92 36.9 33.97 15.91 25.96 17.94 27.99 21.89 29.9 25.96 33.97 45.93 37.92 33.97 31.94 25.96
0.025 27.99 32.95 23.92 11.96 36 27.99 9.931 11.96 33.97 39.95 19.97 15.91 31.94 39.95 0.9028 1.918
0.03 27.99 22.91 9.931 5.981 36 31.94 -5.078 1.918 33.97 45.93 -2.031 -9.028 19.97 39.95 -33.06 -19.07
0.035 25.96 12.98 0 0 29.9 29.9 -17.04 -3.047 27.99 39.95 -21.1 -31.03 7.899 36 -57.1 -39.05
0.04 19.97 6.997 -3.047 -2.031 23.92 25.96 -21.1 -5.078 23.92 29.9 -37.01 -38.03 -1.016 27.99 -64.1 -46.04
0.045 15.91 4.965 -7.109 0.9028 17.94 21.89 -17.04 -3.047 17.94 17.94 -41.08 -37.01 -3.047 21.89 -61.05 -43.11
0.05 11.96 4.965 -8.012 -1.016 15.91 13.99 -10.04 0 11.96 10.95 -33.06 -30.02 -4.063 20.99 -48.07 -32.05
0.055 9.931 4.965 -8.012 -1.016 16.93 6.997 -6.094 0 5.981 6.997 -18.06 -24.04 -6.094 20.99 -38.03 -22.01
0.06 5.981 0.9028 -7.109 0.9028 11.96 -2.031 -3.047 -1.016 0.9028 1.918 -3.047 -21.1 -9.028 21.89 -29 -15.01
0.065 -1.016 0.9028 -4.063 -2.031 2.934 -2.031 0 -4.063 -5.078 -1.016 6.997 -20.09 -12.07 22.91 -20.09 -10.04
0.07 -6.094 -9.028 -2.031 -8.012 -4.063 -6.094 1.918 -6.094 -9.028 -2.031 16.93 -20.09 -16.02 16.93 -10.04 -3.047
0.075 -19.07 -19.07 -1.016 -17.04 -17.04 -9.028 0 -11.06 -15.01 -9.028 15.91 -15.01 -19.07 7.899 -2.031 0.9028
0.08 -24.04 -17.04 0.9028 -19.07 -24.04 -10.04 3.95 -12.07 -15.01 -11.06 14.9 0.9028 -13.09 4.965 19.97 9.931
0.085 -30.02 -13.09 -1.016 -25.05 -27.08 -16.02 9.931 -13.09 -17.04 -9.028 10.95 11.96 0 3.95 39.95 24.94
0.09 -31.03 -7.109 -1.016 -23.02 -27.08 -23.02 9.931 -13.09 -19.07 -3.047 11.96 27.99 9.931 7.899 53.94 39.95
0.095 -29 -1.016 1.918 -20.09 -23.02 -25.05 6.997 -14.11 -16.02 -1.016 17.94 41.98 23.92 12.98 63.98 49.99
0.1 -29 0.9028 1.918 -15.01 -18.06 -24.04 0.9028 -14.11 -14.11 3.95 28.89 46.94 28.89 12.98 62.97 46.94
0.105 -23.02 -5.078 0.9028 -9.028 -13.09 -21.1 -1.016 -15.01 -9.028 3.95 33.97 41.98 27.99 7.899 55.97 41.98
0.11 -12.07 -5.078 -2.031 -2.031 -7.109 -13.09 0 -8.012 0.9028 11.96 36 41.98 29.9 6.997 50.89 39.95
0.115 -3.047 -3.047 7.899 3.95 -1.016 -3.047 4.965 1.918 7.899 17.94 26.97 44.91 37.92 7.899 48.98 43
0.12 0 0.9028 21.89 15.91 11.96 0 23.92 24.94 23.92 29.9 17.94 50.89 52.93 16.93 48.98 40.96
0.125 5.981 12.98 31.94 25.96 22.91 7.899 36.9 41.98 36 29.9 4.965 54.96 59.92 17.94 44.91 34.98
0.13 10.95 24.94 37.92 30.92 25.96 13.99 43 50.89 39.95 23.92 1.918 51.91 53.94 14.9 32.95 15.91
0.135 9.931 32.95 33.97 25.96 27.99 7.899 33.97 41.98 31.94 7.899 1.918 29.9 33.97 0 7.899 -5.078
0.14 7.899 32.95 23.92 19.97 22.91 2.934 20.99 28.89 16.93 -3.047 8.915 4.965 2.934 -12.07 -16.02 -34.08
0.145 9.931 26.97 10.95 10.95 13.99 -1.016 2.934 14.9 0.9028 -16.02 11.96 -17.04 -21.1 -26.07 -39.05 -51.01
0.15 7.899 16.93 3.95 5.981 9.931 -7.109 -1.016 3.95 -7.109 -23.02 11.96 -41.08 -41.08 -29 -59.02 -61.05
0.155 12.98 10.95 9.931 7.899 13.99 -4.063 0 5.981 -9.028 -19.07 0.9028 -49.09 -42.09 -21.1 -65 -60.04
0.16 16.93 10.95 19.97 15.91 22.91 0.9028 5.981 12.98 -3.047 -5.078 -12.07 -47.06 -39.05 -12.07 -67.03 -55.07
0.165 21.89 12.98 23.92 19.97 27.99 9.931 7.899 15.91 3.95 -2.031 -31.03 -49.09 -35.1 -3.047 -75.04 -55.07
0.17 22.91 10.95 22.91 24.94 34.98 18.96 8.915 14.9 13.99 8.915 -42.09 -50.1 -32.05 -1.016 -82.04 -53.04
0.175 18.96 6.997 12.98 16.93 32.95 18.96 1.918 6.997 19.97 16.93 -42.09 -56.09 -36.11 6.997 -90.05 -56.09
0.18 3.95 -1.016 0.9028 1.918 23.92 11.96 -11.06 -3.047 19.97 19.97 -35.1 -69.06 -41.08 15.91 -95.02 -55.07
0.185 -7.109 -17.04 -16.02 -10.04 12.98 6.997 -24.04 -16.02 15.91 22.91 -22.01 -76.06 -42.09 24.94 -92.08 -46.04
0.19 -21.1 -33.06 -28.1 -24.04 1.918 1.918 -32.05 -26.07 11.96 24.94 -15.01 -78.09 -36.11 32.95 -80.01 -32.05
0.195 -29 -43.11 -33.06 -35.1 -1.016 0 -37.01 -31.03 5.981 23.92 -15.01 -71.09 -27.08 31.94 -67.03 -19.07
0.2 -35.1 -51.01 -35.1 -41.08 -11.06 -2.031 -39.05 -33.06 0 19.97 -23.02 -58 -16.02 27.99 -54.05 -8.012
0.205 -43.11 -55.07 -37.01 -45.03 -21.1 -3.047 -39.05 -31.03 -3.047 11.96 -37.01 -47.06 -11.06 17.94 -43.11 -3.047
0.21 -51.01 -57.1 -39.05 -45.03 -27.08 -9.028 -37.01 -29 -13.09 0 -51.01 -35.1 -11.06 5.981 -31.03 -1.016
0.215 -53.04 -51.01 -33.06 -43.11 -27.08 -13.09 -29 -25.05 -23.02 -7.109 -53.04 -25.05 -13.09 -2.031 -15.01 0.9028
0.22 -49.09 -39.05 -23.02 -33.06 -15.01 -9.028 -15.01 -13.09 -27.08 -13.09 -37.01 -13.09 -17.04 -3.047 0 -2.031
0.225 -33.06 -25.05 -7.109 -17.04 -2.031 0.9028 -2.031 -2.031 -21.1 -15.01 -9.028 0 -17.04 -7.109 21.89 0.9028
0.23 -11.06 -13.09 3.95 0.9028 13.99 3.95 11.96 15.91 -7.109 -15.01 17.94 17.94 -13.09 -17.04 33.97 -7.109
0.235 0 -5.078 13.99 11.96 19.97 5.981 19.97 29.9 3.95 -15.01 41.98 31.94 -9.028 -33.06 33.97 -21.1
0.24 7.899 -1.016 17.94 21.89 15.91 1.918 21.89 37.92 17.94 -19.07 43.9 37.92 -3.047 -51.01 19.97 -33.06
0.245 11.96 -1.016 15.91 25.96 9.931 0.9028 21.89 37.92 23.92 -25.05 25.96 31.94 0.9028 -65 0 -41.08
0.25 13.99 4.965 13.99 25.96 3.95 -1.016 19.97 36 23.92 -25.05 1.918 21.89 0 -69.06 -15.01 -41.08
0.255 17.94 8.915 13.99 21.89 5.981 -2.031 17.94 29.9 21.89 -19.07 -15.01 7.899 0 -59.02 -27.08 -35.1
0.26 21.89 10.95 11.96 13.99 7.899 1.918 13.99 21.89 19.97 -9.028 -21.1 -2.031 1.918 -41.08 -33.06 -25.05
0.265 17.94 2.934 7.899 3.95 3.95 1.918 5.981 11.96 15.91 -3.047 -17.04 -7.109 3.95 -21.1 -35.1 -13.09
0.27 5.981 -5.078 0 -3.047 -3.047 0.9028 -1.016 0 11.96 -3.047 -7.109 -19.07 1.918 -11.06 -37.01 -5.078
0.275 -7.109 -17.04 -5.078 -13.09 -23.02 -7.109 -13.09 -11.06 3.95 -13.09 -3.047 -31.03 -2.031 -11.06 -43.11 -1.016
0.28 -23.02 -25.05 -13.09 -21.1 -39.05 -15.01 -23.02 -27.08 -3.047 -29 -9.028 -45.03 -7.109 -17.04 -53.04 0.9028
0.285 -37.01 -25.05 -17.04 -25.05 -47.06 -21.1 -29 -39.05 -19.07 -41.08 -25.05 -59.02 -19.07 -23.02 -61.05 0.9028
0.29 -43.11 -25.05 -17.04 -27.08 -45.03 -25.05 -29 -45.03 -35.1 -49.09 -41.08 -65 -33.06 -25.05 -63.08 -3.047
0.295 -44.01 -29 -15.01 -29 -39.05 -29 -25.05 -45.03 -49.09 -49.09 -51.01 -64.1 -41.08 -23.02 -56.09 -3.047
0.3 -46.04 -35.1 -13.09 -31.03 -34.08 -31.03 -21.1 -41.08 -59.02 -47.06 -49.09 -56.09 -43.11 -21.1 -44.01 -1.016
0.305 -45.03 -43.11 -15.01 -35.1 -41.08 -33.06 -17.04 -37.01 -63.08 -47.06 -37.01 -47.06 -41.08 -27.08 -33.06 -1.016
0.31 -40.06 -45.03 -19.07 -37.01 -52.02 -30.02 -17.04 -35.1 -63.08 -49.09 -25.05 -38.03 -35.1 -33.06 -20.09 0.9028
0.315 -28.1 -43.11 -19.07 -35.1 -62.07 -26.07 -21.1 -35.1 -61.05 -48.07 -15.01 -30.02 -27.08 -41.08 -12.07 4.965
0.32 -21.1 -31.03 -15.01 -29 -67.03 -23.02 -21.1 -35.1 -57.1 -43.11 -15.01 -19.07 -17.04 -45.03 -7.109 11.96
0.325 -16.02 -15.01 -6.094 -19.07 -58 -24.04 -13.09 -29 -51.01 -38.03 -22.01 -1.016 -7.109 -41.08 0.9028 18.96
0.33 -13.09 -7.109 -1.016 -11.06 -48.07 -26.07 0.9028 -19.07 -43.11 -32.05 -28.1 11.96 -2.031 -39.05 1.918 20.99
0.335 -21.1 -3.047 5.981 -3.047 -37.01 -29 11.96 -3.047 -35.1 -33.06 -29 23.92 5.981 -33.06 3.95 17.94
0.34 -20.09 -3.047 10.95 1.918 -29 -21.1 22.91 5.981 -25.05 -36.11 -20.09 28.89 8.915 -30.02 4.965 7.899
0.345 -18.06 -9.028 8.915 -2.031 -24.04 -13.09 18.96 9.931 -21.1 -35.1 -7.109 19.97 0.9028 -34.08 -1.016 -9.028
0.35 -13.09 -13.09 1.918 -9.028 -23.02 -1.016 1.918 1.918 -19.07 -33.06 -1.016 -1.016 -11.06 -39.05 -23.02 -33.06
0.355 -2.031 -9.028 1.918 -8.012 -15.01 3.95 -5.078 -2.031 -21.1 -23.02 0 -30.02 -25.05 -39.05 -46.04 -52.02
0.36 0.9028 -1.016 4.965 -4.063 -7.109 12.98 -9.028 -9.028 -23.02 -14.11 -11.06 -52.02 -37.01 -41.08 -64.1 -67.03
0.365 7.899 -1.016 11.96 0 1.918 16.93 -3.047 -13.09 -19.07 -6.094 -23.02 -59.02 -46.04 -43.11 -71.09 -68.05
0.37 14.9 6.997 14.9 6.997 1.918 14.9 9.931 -1.016 -11.06 -6.094 -39.05 -54.05 -45.03 -39.05 -70.08 -65
0.375 16.93 8.915 15.91 11.96 0 11.96 23.92 0.9028 -1.016 -5.078 -42.09 -42.09 -41.08 -37.01 -60.04 -54.05
0.38 13.99 4.965 13.99 7.899 0.9028 5.981 25.96 3.95 1.918 -5.078 -35.1 -31.03 -35.1 -35.1 -49.09 -41.08
0.385 4.965 -1.016 6.997 0.9028 0 0 20.99 -2.031 3.95 1.918 -11.06 -21.1 -26.07 -26.07 -31.03 -21.1
0.39 -4.063 -3.047 1.918 -6.094 -5.078 -1.016 6.997 -5.078 0 -1.016 6.997 -18.06 -14.11 -16.02 -18.06 1.918
0.395 -17.04 -13.09 -9.028 -17.04 -13.09 -9.028 -3.047 -17.04 -3.047 -1.016 19.97 -21.1 -5.078 -15.01 -7.109 15.91
0.4 -25.05 -17.04 -14.11 -27.08 -22.01 -14.11 -13.09 -29 -13.09 -8.012 16.93 -23.02 -2.031 -15.01 1.918 28.89
0.405 -26.07 -19.07 -12.07 -29 -34.08 -18.06 -15.01 -35.1 -23.02 -20.09 1.918 -27.08 1.918 -19.07 0.9028 34.98
0.41 -25.05 -19.07 -9.028 -25.05 -43.11 -17.04 -9.028 -37.01 -29 -27.08 -27.08 -29 1.918 -23.02 -3.047 29.9
0.415 -18.06 -17.04 -3.047 -13.09 -44.01 -10.04 -3.047 -31.03 -29 -20.09 -45.03 -24.04 3.95 -21.1 -4.063 28.89
0.42 -14.11 -13.09 0.9028 -7.109 -36.11 -4.063 -2.031 -19.07 -27.08 -13.09 -45.03 -16.02 3.95 -13.09 -6.094 22.91
0.425 -13.09 -13.09 0.9028 -1.016 -29 -1.016 0 -11.06 -17.04 -3.047 -29 -11.06 1.918 -5.078 -5.078 13.99
0.43 -14.11 -17.04 -3.047 -3.047 -24.04 -1.016 0.9028 -5.078 -11.06 -3.047 -9.028 -4.063 0 0.9028 -4.063 5.981
0.435 -14.11 -17.04 0.9028 -5.078 -19.07 -1.016 -1.016 -5.078 -9.028 -9.028 -2.031 0 -3.047 -1.016 1.918 -1.016
0.44 -9.028 -11.06 5.981 -5.078 -17.04 0.9028 1.918 -1.016 -7.109 -11.06 3.95 1.918 -11.06 -3.047 0 -11.06
0.445 0.9028 -3.047 19.97 -2.031 -7.109 0 17.94 3.95 -3.047 -5.078 1.918 11.96 -15.01 -3.047 3.95 -19.07
0.45 5.981 4.965 29.9 9.931 -2.031 7.899 33.97 17.94 0 1.918 0 21.89 -17.04 -1.016 5.981 -21.1
0.455 15.91 10.95 31.94 17.94 7.899 15.91 39.95 29.9 7.899 11.96 0 23.92 -17.04 -2.031 -2.031 -25.05
0.46 15.91 12.98 23.92 17.94 7.899 15.91 33.97 29.9 9.931 11.96 0.9028 11.96 -25.05 0 -11.06 -31.03
0.465 7.899 8.915 7.899 7.899 0 9.931 17.94 15.91 1.918 3.95 -7.109 -7.109 -39.05 -2.031 -33.06 -43.11
0.47 0.9028 0.9028 -2.031 -1.016 -7.109 0 1.918 -1.016 -9.028 -3.047 -17.04 -35.1 -55.07 0.9028 -53.04 -53.04
0.475 -11.06 -1.016 -1.016 -13.09 -17.04 0.9028 -3.047 -23.02 -25.05 -9.028 -25.05 -55.07 -67.03 -1.016 -63.08 -55.07
0.48 -15.01 -3.047 0.9028 -17.04 -19.07 0 -3.047 -33.06 -29 -7.109 -23.02 -61.05 -67.03 0.9028 -67.03 -47.06
0.485 -9.028 -1.016 1.918 -15.01 -13.09 7.899 0.9028 -33.06 -25.05 -2.031 -17.04 -53.04 -55.07 -2.031 -63.08 -35.1
0.49 -1.016 -1.016 1.918 -9.028 -5.078 13.99 0.9028 -27.08 -13.09 1.918 -9.028 -41.08 -37.01 -1.016 -57.1 -25.05
0.495 -2.031 0.9028 0.9028 -5.078 -2.031 11.96 -3.047 -17.04 -3.047 0 -7.109 -29 -17.04 -9.028 -49.09 -19.07
0.5 0.9028 -1.016 -5.078 -1.016 0 5.981 -5.078 -9.028 -2.031 0.9028 -5.078 -19.07 -2.031 -17.04 -33.06 -15.01
0.505 -7.109 -1.016 -11.06 -2.031 1.918 0 -5.078 -1.016 1.918 -2.031 -3.047 -3.047 19.97 -19.07 -9.028 -7.109
0.51 -13.09 -7.109 -11.06 0 1.918 0 -1.016 1.918 11.96 7.899 -2.031 11.96 41.98 -13.09 15.91 5.981
0.515 -15.01 -13.09 -7.109 0 -2.031 3.95 0 9.931 21.89 23.92 9.931 33.97 65.9 0.9028 41.98 27.99
0.52 -17.04 -19.07 -5.078 0.9028 -5.078 5.981 1.918 15.91 29.9 29.9 19.97 49.99 79.9 7.899 59.92 47.96
0.525 -19.07 -21.1 -5.078 -5.078 -15.01 5.981 1.918 15.91 25.96 25.96 21.89 57.89 79.9 13.99 65.9 57.89
0.53 -27.08 -21.1 -3.047 -9.028 -25.05 1.918 0 11.96 13.99 9.931 15.91 55.97 65.9 13.99 63.98 57.89
0.535 -35.1 -19.07 -1.016 -9.028 -31.03 -2.031 1.918 9.931 -2.031 0.9028 7.899 51.91 45.93 9.931 59.92 49.99
0.54 -39.05 -19.07 -2.031 -9.028 -29 0.9028 3.95 7.899 -5.078 -5.078 3.95 47.96 23.92 5.981 53.94 33.97
0.545 -35.1 -19.07 0 -5.078 -21.1 1.918 3.95 7.899 -3.047 -2.031 5.981 43.9 5.981 1.918 45.93 15.91
0.55 -25.05 -15.01 1.918 -5.078 -13.09 0.9028 0 5.981 0.9028 -1.016 15.91 36 -7.109 0 29.9 -1.016
0.555 -10.04 -9.028 0 -3.047 -4.063 1.918 -1.016 0 0.9028 0 17.94 19.97 -25.05 0.9028 3.95 -25.05
0.56 -1.016 0.9028 0.9028 0.9028 1.918 1.918 -5.078 -1.016 -1.016 -2.031 11.96 0 -39.05 -2.031 -19.07 -47.06
0.565 7.899 14.9 3.95 5.981 5.981 1.918 -1.016 -5.078 -3.047 -5.078 0 -17.04 -53.04 -3.047 -47.06 -59.02
0.57 16.93 26.97 8.915 15.91 14.9 12.98 1.918 0.9028 0.9028 -2.031 -13.09 -28.1 -57.1 -2.031 -64.1 -60.04
0.575 16.93 30.92 14.9 25.96 22.91 22.91 13.99 7.899 7.899 1.918 -23.02 -38.03 -53.04 0 -72.11 -52.02
0.58 13.99 26.97 9.931 27.99 21.89 25.96 17.94 15.91 17.94 3.95 -27.08 -39.05 -47.06 -1.016 -73.01 -43.11
0.585 11.96 16.93 4.965 24.94 15.91 23.92 17.94 19.97 19.97 3.95 -25.05 -34.08 -43.11 -2.031 -64.1 -34.08
0.59 3.95 6.997 0 16.93 6.997 16.93 13.99 15.91 13.99 1.918 -17.04 -26.07 -39.05 -9.028 -52.02 -26.07
0.595 -2.031 2.934 -2.031 9.931 -2.031 5.981 13.99 13.99 0 -7.109 -3.047 -13.09 -33.06 -17.04 -35.1 -19.07
0.6 -1.016 -1.016 -1.016 13.99 0 1.918 17.94 12.98 -7.109 -13.09 10.95 0.9028 -17.04 -13.09 -6.094 0
0.605 -4.063 0.9028 0.9028 12.98 -4.063 -1.016 21.89 14.9 -11.06 -15.01 28.89 17.94 -1.016 -10.04 14.9 14.9
0.61 -8.012 -5.078 0.9028 7.899 -4.063 0.9028 17.94 14.9 -13.09 -8.012 39.95 28.89 20.99 0 32.95 38.93
0.615 -6.094 -9.028 -6.094 -1.016 -8.012 0 9.931 8.915 -11.06 -3.047 34.98 31.94 36.9 4.965 38.93 54.96
0.62 -1.016 -15.01 -16.02 -7.109 -6.094 7.899 -2.031 1.918 -11.06 0 20.99 30.92 49.99 11.96 36.9 62.97
0.625 1.918 -15.01 -21.1 -15.01 -3.047 11.96 -3.047 -5.078 -9.028 3.95 0.9028 27.99 53.94 13.99 27.99 63.98
0.63 5.981 -9.028 -21.1 -10.04 1.918 14.9 -3.047 -3.047 -3.047 8.915 -19.07 28.89 59.92 17.94 30.92 60.94
0.635 7.899 -5.078 -18.06 -6.094 1.918 13.99 -3.047 0.9028 1.918 9.931 -19.07 36.9 63.98 14.9 38.93 60.94
0.64 1.918 -5.078 -17.04 -1.016 1.918 7.899 -3.047 3.95 11.96 11.96 -3.047 45.93 63.98 11.96 51.91 59.92
0.645 -2.031 -11.06 -20.09 0.9028 1.918 2.934 -7.109 3.95 13.99 13.99 15.91 48.98 61.95 14.9 60.94 60.94
0.65 -12.07 -17.04 -24.04 -3.047 -6.094 -1.016 -17.04 -2.031 11.96 14.9 33.97 43 55.97 16.93 58.91 64.89
0.655 -21.1 -25.05 -27.08 -9.028 -13.09 -1.016 -25.05 -5.078 3.95 15.91 29.9 31.94 45.93 17.94 43.9 59.92
0.66 -26.07 -25.05 -26.07 -11.06 -12.07 -4.063 -25.05 -13.09 -2.031 12.98 7.899 13.99 31.94 20.99 25.96 51.91
0.665 -30.02 -23.02 -21.1 -11.06 -12.07 -10.04 -23.02 -19.07 -3.047 2.934 -15.01 0 19.97 17.94 9.931 36
0.67 -31.03 -19.07 -13.09 -9.028 -15.01 -15.01 -17.04 -23.02 -9.028 -9.028 -33.06 -7.109 3.95 11.96 -2.031 15.91
0.675 -27.08 -13.09 -3.047 -3.047 -15.01 -14.11 -11.06 -21.1 -17.04 -20.09 -27.08 -15.01 -11.06 3.95 -7.109 -2.031
0.68 -17.04 -3.047 1.918 1.918 -15.01 -11.06 -5.078 -15.01 -27.08 -29 -3.047 -17.04 -31.03 -2.031 -15.01 -13.09
0.685 -5.078 4.965 11.96 11.96 -11.06 -5.078 0 -3.047 -31.03 -25.05 21.89 -17.04 -47.06 -3.047 -25.05 -25.05
0.69 1.918 18.96 21.89 23.92 -1.016 0 9.931 5.981 -27.08 -15.01 37.92 -13.09 -57.1 -5.078 -27.08 -31.03
0.695 11.96 30.92 27.99 31.94 5.981 7.899 17.94 17.94 -15.01 -3.047 31.94 -9.028 -59.02 -5.078 -23.02 -35.1
0.7 17.94 36.9 27.99 36 15.91 13.99 21.89 23.92 -2.031 0 7.899 -5.078 -53.04 -1.016 -9.028 -33.06
0.705 19.97 34.98 23.92 37.92 25.96 17.94 19.97 23.92 17.94 3.95 -9.028 -2.031 -37.01 -1.016 0 -23.02
0.71 21.89 28.89 17.94 37.92 33.97 19.97 19.97 21.89 31.94 7.899 -17.04 13.99 -11.06 -3.047 3.95 -5.078
0.715 21.89 18.96 15.91 37.92 41.98 21.89 23.92 25.96 43.9 15.91 -3.047 41.98 13.99 -13.09 0 11.96
0.72 21.89 14.9 15.91 39.95 49.99 23.92 33.97 36 51.91 25.96 17.94 73.92 45.93 -23.02 -1.016 33.97
0.725 17.94 12.98 17.94 39.95 51.91 25.96 39.95 47.96 59.92 39.95 37.92 101.9 73.92 -31.03 3.95 51.91
0.73 11.96 14.9 15.91 37.92 45.93 25.96 37.92 55.97 63.98 47.96 43.9 117.9 95.92 -29 36 65.9
0.735 3.95 10.95 5.981 29.9 29.9 17.94 25.96 51.91 63.98 49.99 36 114 106 -13.09 83.96 77.98
0.74 0.9028 0.9028 -5.078 15.91 9.931 5.981 3.95 39.95 57.89 41.98 21.89 97.95 108 7.899 123.9 87.91
0.745 -9.028 -11.06 -23.02 -2.031 -5.078 -5.078 -11.06 21.89 41.98 23.92 11.96 72 99.98 36 139.9 91.97
0.75 -19.07 -29 -33.06 -13.09 -21.1 -19.07 -21.1 3.95 19.97 -2.031 11.96 49.99 83.96 51.91 123.9 87.91
0.755 -29 -39.05 -33.06 -25.05 -29 -25.05 -25.05 -3.047 0.9028 -23.02 13.99 29.9 59.92 53.94 85.99 72
0.76 -33.06 -35.1 -25.05 -29 -31.03 -21.1 -23.02 -11.06 -21.1 -39.05 11.96 15.91 33.97 39.95 43.9 47.96
0.765 -33.06 -23.02 -17.04 -27.08 -29 -13.09 -23.02 -19.07 -35.1 -45.03 3.95 1.918 3.95 23.92 11.96 17.94
0.77 -29 -7.109 -11.06 -23.02 -25.05 -5.078 -27.08 -27.08 -45.03 -39.05 -7.109 -9.028 -19.07 9.931 -3.047 -7.109
0.775 -21.1 0.9028 -13.09 -19.07 -23.02 0.9028 -29 -39.05 -49.09 -29 -17.04 -27.08 -43.11 5.981 -19.07 -31.03
0.78 -15.01 0.9028 -15.01 -19.07 -21.1 0 -31.03 -47.06 -49.09 -21.1 -21.1 -41.08 -63.08 7.899 -33.06 -49.09
0.785 -7.109 -3.047 -13.09 -17.04 -15.01 1.918 -27.08 -49.09 -43.11 -15.01 -13.09 -51.01 -75.04 11.96 -47.06 -59.02
0.79 -1.016 -1.016 -5.078 -9.028 -3.047 5.981 -19.07 -41.08 -32.05 -13.09 -5.078 -53.04 -77.08 13.99 -54.05 -63.08
0.795 3.95 4.965 1.918 0.9028 5.981 5.981 -9.028 -29 -21.1 -9.028 -1.016 -45.03 -71.09 11.96 -49.09 -57.1
0.8 8.915 14.9 11.96 5.981 15.91 1.918 0.9028 -15.01 -10.04 -3.047 -5.078 -31.03 -61.05 9.931 -38.03 -52.02
0.805 4.965 14.9 10.95 3.95 13.99 -1.016 0 -8.012 -2.031 -2.031 -11.06 -17.04 -51.01 8.915 -28.1 -48.07
0.81 -3.047 4.965 3.95 0.9028 1.918 -11.06 0.9028 -9.028 -5.078 0 -17.04 -9.028 -41.08 9.931 -25.05 -45.03
0.815 -18.06 -5.078 1.918 -13.09 -8.012 -17.04 -5.078 -12.07 -6.094 1.918 -15.01 -8.012 -35.1 10.95 -26.07 -42.09
0.82 -28.1 -17.04 -4.063 -26.07 -22.01 -13.09 -11.06 -18.06 -9.028 0 -15.01 -14.11 -31.03 8.915 -32.05 -38.03
0.825 -27.08 -15.01 -1.016 -27.08 -25.05 -7.109 -15.01 -21.1 -13.09 -5.078 -17.04 -21.1 -25.05 5.981 -35.1 -29
0.83 -13.09 0.9028 2.934 -14.11 -18.06 0.9028 -13.09 -16.02 -17.04 -2.031 -21.1 -18.06 -17.04 6.997 -27.08 -17.04
0.835 0.9028 14.9 15.91 1.918 -4.063 0.9028 -3.047 -5.078 -16.02 0 -22.01 -7.109 -7.109 11.96 -12.07 -2.031
0.84 9.931 22.91 21.89 9.931 1.918 0 0 0 -17.04 -1.016 -19.07 3.95 1.918 19.97 1.918 7.899
0.845 11.96 24.94 27.99 15.91 10.95 2.934 8.915 8.915 -13.09 0 -10.04 22.91 15.91 31.94 25.96 22.91
0.85 4.965 14.9 24.94 7.899 11.96 3.95 8.915 10.95 -8.012 0.9028 -5.078 36.9 28.89 38.93 37.92 36.9
0.855 -3.047 4.965 14.9 1.918 8.915 6.997 6.997 5.981 -2.031 -2.031 -6.094 41.98 32.95 34.98 43 44.91
0.86 -12.07 -5.078 4.965 -9.028 0 7.899 0.9028 0 0 0.9028 -17.04 34.98 30.92 26.97 39.95 48.98
0.865 -19.07 -11.06 -1.016 -15.01 -2.031 10.95 1.918 -16.02 -3.047 1.918 -24.04 22.91 21.89 17.94 31.94 46.94
0.87 -17.04 -15.01 -9.028 -11.06 -5.078 7.899 -2.031 -27.08 -9.028 0 -21.1 9.931 11.96 13.99 21.89 41.98
0.875 -13.09 -7.109 -3.047 -4.063 1.918 10.95 1.918 -29 -10.04 4.965 1.918 7.899 5.981 21.89 22.91 40.96
0.88 -3.047 -3.047 0 -1.016 6.997 7.899 5.981 -22.01 -9.028 10.95 29.9 2.934 1.918 34.98 27.99 37.92
0.885 -3.047 -1.016 1.918 0 11.96 1.918 5.981 -11.06 -5.078 13.99 51.91 0.9028 -1.016 39.95 29.9 33.97
0.89 -4.063 -3.047 2.934 1.918 8.915 -1.016 0 -6.094 0.9028 12.98 53.94 -6.094 -15.01 36.9 20.99 24.94
0.895 -8.012 -9.028 -1.016 -5.078 0.9028 -5.078 -3.047 -6.094 -4.063 10.95 36 -18.06 -37.01 22.91 1.918 0.9028
0.9 -7.109 -17.04 -1.016 -7.109 -3.047 -5.078 -11.06 -15.01 -11.06 3.95 11.96 -33.06 -61.05 1.918 -33.06 -25.05
0.905 0 -11.06 -1.016 0.9028 -1.016 -2.031 -11.06 -18.06 -18.06 0 0.9028 -39.05 -75.04 -4.063 -60.04 -54.05
0.91 8.915 0.9028 11.96 11.96 9.931 9.931 -3.047 -11.06 -20.09 1.918 -2.031 -35.1 -73.01 -9.028 -74.03 -70.08
0.915 21.89 22.91 27.99 29.9 29.9 17.94 11.96 1.918 -15.01 7.899 9.931 -19.07 -55.07 -1.016 -69.06 -71.09
0.92 33.97 38.93 39.95 41.98 45.93 17.94 33.97 23.92 -2.031 13.99 23.92 0.9028 -27.08 3.95 -44.01 -57.1
0.925 37.92 44.91 41.98 45.93 47.96 13.99 47.96 41.98 5.981 17.94 29.9 13.99 -1.016 11.96 -17.04 -35.1
0.93 31.94 34.98 36 36 37.92 9.931 49.99 43.9 15.91 17.94 27.99 23.92 13.99 17.94 1.918 -13.09
0.935 21.89 16.93 25.96 21.89 21.89 7.899 39.95 33.97 19.97 17.94 21.89 25.96 27.99 19.97 17.94 0
0.94 9.931 2.934 15.91 5.981 9.931 9.931 21.89 19.97 21.89 15.91 17.94 25.96 39.95 23.92 25.96 15.91
0.945 0 -1.016 5.981 0.9028 3.95 11.96 0 5.981 21.89 13.99 19.97 23.92 49.99 27.99 29.9 25.96
0.95 -5.078 -7.109 -2.031 -7.109 1.918 9.931 -13.09 0.9028 19.97 9.931 21.89 21.89 55.97 29.9 31.94 33.97
0.955 -15.01 -13.09 -5.078 -13.09 0.9028 3.95 -23.02 -7.109 15.91 3.95 21.89 17.94 55.97 25.96 31.94 36
0.96 -21.1 -17.04 -9.028 -17.04 -7.109 0.9028 -27.08 -15.01 7.899 -2.031 13.99 9.931 45.93 17.94 27.99 31.94
0.965 -23.02 -19.07 -7.109 -19.07 -15.01 -3.047 -23.02 -19.07 0 0.9028 5.981 1.918 31.94 9.931 19.97 23.92
0.97 -23.02 -15.01 0.9028 -17.04 -17.04 -1.016 -15.01 -19.07 -2.031 -1.016 3.95 0.9028 15.91 5.981 11.96 11.96
0.975 -21.1 -7.109 3.95 -11.06 -15.01 -2.031 -7.109 -13.09 -2.031 -1.016 7.899 0.9028 5.981 7.899 3.95 3.95
0.98 -17.04 -3.047 9.931 -1.016 -7.109 3.95 -3.047 -3.047 0 -1.016 19.97 -2.031 -2.031 15.91 0.9028 -3.047
0.985 -13.09 -3.047 7.899 0 0.9028 5.981 -3.047 -2.031 -2.031 -5.078 29.9 -2.031 -7.109 17.94 -7.109 -13.09
0.99 -9.028 -5.078 3.95 1.918 0 5.981 -5.078 -2.031 -5.078 -13.09 29.9 -1.016 -19.07 11.96 -15.01 -27.08
0.995 -5.078 -7.109 0 -2.031 1.918 5.981 -5.078 -1.016 -17.04 -19.07 21.89 -9.028 -33.06 -2.031 -25.05 -39.05
1 0.9028 -3.047 1.918 -1.016 3.95 7.899 0.9028 -5.078 -27.08 -19.07 9.931 -15.01 -43.11 -13.09 -29 -47.06
1.005 3.95 6.997 7.899 -1.016 7.899 15.91 7.899 -3.047 -29 -13.09 3.95 -13.09 -45.03 -23.02 -27.08 -47.06
1.01 13.99 22.91 15.91 1.918 15.91 23.92 21.89 0 -19.07 -1.016 7.899 -3.047 -35.1 -21.1 -21.1 -41.08
1.015 23.92 38.93 23.92 15.91 27.99 29.9 36 11.96 -1.016 7.899 23.92 5.981 -21.1 -13.09 -9.028 -35.1
1.02 31.94 48.98 31.94 31.94 37.92 33.97 39.95 19.97 10.95 13.99 43.9 17.94 -11.06 -5.078 -3.047 -33.06
1.025 36 52.93 36 41.98 45.93 36 36 23.92 21.89 13.99 55.97 19.97 -5.078 -1.016 -5.078 -37.01
1.03 39.95 52.93 37.92 43.9 43.9 33.97 27.99 23.92 26.97 7.899 55.97 17.94 -3.047 -1.016 -11.06 -41.08
1.035 41.98 48.98 37.92 37.92 36 31.94 17.94 19.97 24.94 1.918 43.9 12.98 0 -1.016 -19.07 -41.08
1.04 41.98 43 31.94 29.9 25.96 29.9 13.99 15.91 21.89 0 23.92 9.931 3.95 -2.031 -19.07 -31.03
1.045 36 30.92 21.89 19.97 15.91 27.99 11.96 12.98 20.99 5.981 7.899 8.915 16.93 5.981 -13.09 -15.01
1.05 25.96 16.93 11.96 9.931 7.899 27.99 11.96 10.95 18.96 11.96 2.934 10.95 30.92 15.91 -1.016 -2.031
1.055 17.94 6.997 3.95 3.95 5.981 25.96 9.931 3.95 15.91 15.91 7.899 11.96 37.92 19.97 7.899 9.931
1.06 7.899 0.9028 0 0 5.981 24.94 5.981 -1.016 13.99 15.91 20.99 6.997 38.93 19.97 18.96 15.91
1.065 1.918 -1.016 -1.016 -5.078 1.918 18.96 0.9028 -6.094 6.997 7.899 30.92 0.9028 26.97 14.9 20.99 11.96
1.07 -3.047 -5.078 -9.028 -17.04 -5.078 5.981 -9.028 -21.1 0.9028 0.9028 29.9 -17.04 5.981 0 13.99 3.95
1.075 -13.09 -17.04 -19.07 -31.03 -19.07 -4.063 -21.1 -33.06 -17.04 -11.06 20.99 -35.1 -11.06 -8.012 6.997 0.9028
1.08 -27.08 -31.03 -31.03 -43.11 -31.03 -16.02 -31.03 -51.01 -38.03 -19.07 7.899 -48.07 -34.08 -20.09 0 -5.078
1.085 -37.01 -43.11 -37.01 -53.04 -33.06 -21.1 -35.1 -59.02 -55.07 -21.1 0.9028 -57.1 -49.09 -27.08 -1.016 -7.109
1.09 -34.08 -43.11 -34.08 -50.1 -26.07 -14.11 -34.08 -60.04 -65 -16.02 1.918 -59.02 -53.04 -27.08 -1.016 -10.04
1.095 -26.07 -39.05 -28.1 -41.08 -14.11 -1.016 -27.08 -53.04 -63.08 -11.06 5.981 -54.05 -51.01 -22.01 3.95 -12.07
1.1 -9.028 -33.06 -20.09 -31.03 -1.016 4.965 -21.1 -43.11 -52.02 -9.028 8.915 -51.01 -45.03 -15.01 5.981 -17.04
1.105 0 -33.06 -16.02 -19.07 -1.016 11.96 -17.04 -35.1 -39.05 -9.028 3.95 -50.1 -35.1 -20.09 -2.031 -26.07
1.11 0.9028 -37.01 -14.11 -14.11 -1.016 12.98 -16.02 -30.02 -23.02 -14.11 -9.028 -53.04 -27.08 -33.06 -8.012 -38.03
1.115 0 -35.1 -15.01 -13.09 -2.031 9.931 -15.01 -29 -9.028 -17.04 -29 -51.01 -25.05 -49.09 -23.02 -53.04
1.12 0.9028 -27.08 -11.06 -11.06 0 10.95 -11.06 -23.02 0 -17.04 -37.01 -42.09 -20.09 -60.04 -27.08 -59.02
1.125 -2.031 -9.028 0.9028 -5.078 5.981 12.98 -3.047 -7.109 5.981 -11.06 -34.08 -29 -17.04 -62.07 -24.04 -59.02
1.13 1.918 4.965 5.981 -2.031 13.99 13.99 5.981 1.918 9.931 -1.016 -19.07 -9.028 -7.109 -53.04 -9.028 -47.06
1.135 3.95 10.95 11.96 7.899 21.89 16.93 11.96 18.96 16.93 1.918 -2.031 3.95 -1.016 -36.11 -1.016 -31.03
1.14 5.981 6.997 13.99 11.96 23.92 14.9 13.99 28.89 21.89 5.981 -1.016 10.95 6.997 -25.05 6.997 -13.09
1.145 3.95 -3.047 5.981 11.96 17.94 7.899 11.96 27.99 23.92 1.918 -5.078 11.96 11.96 -23.02 5.981 0.9028
1.15 0 -17.04 -1.016 5.981 9.931 1.918 5.981 22.91 22.91 -1.016 -22.01 8.915 14.9 -27.08 1.918 5.981
1.155 -1.016 -23.02 -9.028 0 0 -1.016 3.95 16.93 16.93 -9.028 -41.08 2.934 12.98 -35.1 0 15.91
1.16 -7.109 -27.08 -15.01 -3.047 -3.047 -9.028 3.95 11.96 5.981 -17.04 -49.09 0 13.99 -35.1 3.95 29.9
1.165 -15.01 -25.05 -19.07 -5.078 -9.028 -13.09 3.95 13.99 0 -19.07 -43.11 0.9028 14.9 -29 11.96 39.95
1.17 -19.07 -27.08 -17.04 -5.078 -13.09 -13.09 0 13.99 -6.094 -13.09 -27.08 0 15.91 -19.07 19.97 45.93
1.175 -17.04 -31.03 -15.01 -3.047 -13.09 -5.078 0.9028 7.899 -11.06 -7.109 -9.028 0.9028 13.99 -11.06 23.92 45.93
1.18 -9.028 -35.1 -13.09 0.9028 -11.06 0 -5.078 -2.031 -8.012 0.9028 0.9028 -5.078 9.931 -3.047 23.92 37.92
1.185 -2.031 -37.01 -13.09 -2.031 -9.028 7.899 -11.06 -7.109 -1.016 0 -2.031 -15.01 3.95 0.9028 19.97 27.99
1.19 5.981 -35.1 -15.01 0.9028 -7.109 13.99 -15.01 -13.09 1.918 1.918 -3.047 -23.02 -2.031 -1.016 11.96 13.99
1.195 5.981 -31.03 -17.04 -1.016 -5.078 13.99 -19.07 -15.01 7.899 5.981 -13.09 -29 -1.016 -9.028 0 -2.031
1.2 -2.031 -25.05 -19.07 -1.016 -7.109 11.96 -19.07 -11.06 11.96 7.899 -21.1 -33.06 -5.078 -19.07 -11.06 -15.01
1.205 -7.109 -21.1 -17.04 -3.047 -9.028 5.981 -19.07 -5.078 9.931 11.96 -27.08 -37.01 -11.06 -31.03 -29 -37.01
1.21 -13.09 -19.07 -13.09 -5.078 -13.09 0 -19.07 -3.047 5.981 9.931 -29 -39.05 -21.1 -37.01 -41.08 -59.02
1.215 -15.01 -21.1 -9.028 -7.109 -17.04 -2.031 -17.04 -5.078 -2.031 1.918 -25.05 -41.08 -35.1 -37.01 -45.03 -75.04
1.22 -13.09 -23.02 -3.047 -7.109 -17.04 -2.031 -11.06 -5.078 -3.047 0.9028 -17.04 -37.01 -45.03 -33.06 -41.08 -81.02
1.225 -9.028 -25.05 -2.031 -5.078 -13.09 0 -1.016 -3.047 -7.109 -3.047 -5.078 -27.08 -47.06 -27.08 -29 -75.04
1.23 -5.078 -23.02 3.95 0.9028 -9.028 1.918 3.95 0 -5.078 0.9028 0 -13.09 -35.1 -21.1 -19.07 -61.05
1.235 -1.016 -19.07 5.981 3.95 -7.109 1.918 9.931 7.899 -1.016 3.95 3.95 -1.016 -15.01 -15.01 -15.01 -41.08
1.24 -3.047 -17.04 1.918 5.981 -9.028 0.9028 9.931 13.99 0 7.899 0.9028 0 0 -7.109 -17.04 -23.02
1.245 -7.109 -19.07 -3.047 1.918 -15.01 -7.109 1.918 13.99 3.95 3.95 -15.01 -2.031 17.94 0.9028 -19.07 -3.047
1.25 -15.01 -21.1 -15.01 -1.016 -21.1 -15.01 0.9028 11.96 7.899 -2.031 -31.03 -2.031 29.9 3.95 -17.04 11.96
1.255 -23.02 -25.05 -21.1 -5.078 -25.05 -17.04 -1.016 9.931 11.96 -1.016 -37.01 1.918 41.98 13.99 -3.047 33.97
1.26 -23.02 -23.02 -21.1 -5.078 -24.04 -13.09 0 13.99 17.94 0.9028 -31.03 13.99 53.94 17.94 13.99 57.89
1.265 -18.06 -19.07 -13.09 0.9028 -22.01 -7.109 5.981 18.96 19.97 3.95 -17.04 29.9 61.95 19.97 36 75.95
1.27 -13.09 -17.04 -7.109 0 -19.07 -3.047 7.899 15.91 19.97 9.931 -3.047 37.92 63.98 15.91 47.96 83.96
1.275 -10.04 -19.07 -4.063 0.9028 -16.02 -5.078 0.9028 8.915 14.9 11.96 -2.031 34.98 55.97 5.981 45.93 77.98
1.28 -14.11 -25.05 -6.094 0 -12.07 -11.06 -6.094 -2.031 6.997 8.915 0.9028 18.96 36.9 0.9028 31.94 59.92
1.285 -17.04 -31.03 -7.109 -9.028 -11.06 -17.04 -17.04 -17.04 -2.031 0 -9.028 0.9028 11.96 -11.06 11.96 36
1.29 -14.11 -23.02 -2.031 -8.012 -6.094 -18.06 -12.07 -20.09 1.918 -1.016 -19.07 -12.07 0 -19.07 0.9028 15.91
1.295 -3.047 -9.028 4.965 -2.031 -3.047 -14.11 -1.016 -11.06 0.9028 -1.016 -23.02 -16.02 -10.04 -22.01 -7.109 5.981
1.3 3.95 6.997 15.91 5.981 -1.016 -9.028 17.94 0.9028 3.95 1.918 -19.07 -13.09 -13.09 -21.1 -9.028 3.95
1.305 13.99 22.91 26.97 21.89 0.9028 -4.063 33.97 11.96 7.899 6.997 -11.06 -7.109 -8.012 -16.02 -13.09 0
1.31 16.93 22.91 31.94 25.96 2.934 0 37.92 20.99 5.981 8.915 0.9028 -9.028 -8.012 -10.04 -23.02 -5.078
1.315 11.96 12.98 29.9 27.99 7.899 0.9028 33.97 21.89 3.95 9.931 9.931 -15.01 -11.06 -11.06 -35.1 -19.07
1.32 11.96 2.934 32.95 30.92 19.97 1.918 30.92 23.92 10.95 13.99 24.94 -16.02 -15.01 -10.04 -47.06 -37.01
1.325 20.99 -1.016 38.93 31.94 32.95 10.95 31.94 28.89 21.89 18.96 34.98 -11.06 -16.02 -11.06 -53.04 -51.01
1.33 31.94 6.997 45.93 39.95 39.95 17.94 39.95 37.92 29.9 19.97 31.94 -3.047 -13.09 -15.01 -49.09 -53.04
1.335 40.96 24.94 50.89 48.98 44.91 22.91 48.98 48.98 38.93 21.89 23.92 11.96 -3.047 -11.06 -36.11 -48.07
1.34 41.98 38.93 47.96 50.89 44.91 18.96 53.94 51.91 38.93 17.94 6.997 31.94 0 -9.028 -24.04 -35.1
1.345 34.98 40.96 38.93 44.91 39.95 10.95 49.99 50.89 31.94 12.98 0 43 9.931 -7.109 -7.109 -23.02
1.35 15.91 30.92 21.89 34.98 32.95 1.918 37.92 37.92 26.97 5.981 -1.016 49.99 19.97 -3.047 0.9028 -5.078
1.355 4.965 12.98 8.915 22.91 22.91 -10.04 24.94 22.91 20.99 7.899 9.931 49.99 25.96 -3.047 12.98 0.9028
1.36 -3.047 -3.047 0.9028 9.931 9.931 -19.07 5.981 3.95 17.94 7.899 19.97 41.98 31.94 -1.016 23.92 13.99
1.365 -6.094 -17.04 -8.012 -2.031 -1.016 -22.01 -7.109 -6.094 17.94 12.98 24.94 31.94 36.9 1.918 27.99 25.96
1.37 -11.06 -23.02 -14.11 -6.094 -7.109 -27.08 -20.09 -21.1 12.98 9.931 12.98 14.9 37.92 0.9028 25.96 27.99
1.375 -13.09 -31.03 -21.1 -17.04 -13.09 -27.08 -29 -31.03 1.918 7.899 -3.047 -1.016 31.94 -2.031 15.91 25.96
1.38 -18.06 -37.01 -25.05 -23.02 -18.06 -24.04 -33.06 -36.11 -3.047 0.9028 -25.05 -19.07 14.9 1.918 0 11.96
1.385 -19.07 -41.08 -30.02 -25.05 -19.07 -22.01 -31.03 -41.08 -15.01 -6.094 -41.08 -35.1 -2.031 -2.031 -5.078 0.9028
1.39 -17.04 -43.11 -31.03 -27.08 -21.1 -15.01 -35.1 -41.08 -29 -13.09 -43.11 -47.06 -27.08 -5.078 -11.06 -15.01
1.395 -13.09 -33.06 -24.04 -24.04 -21.1 -6.094 -30.02 -35.1 -36.11 -14.11 -31.03 -50.1 -38.03 -2.031 -11.06 -25.05
1.4 -6.094 -19.07 -12.07 -22.01 -22.01 0 -26.07 -28.1 -38.03 -10.04 -15.01 -46.04 -42.09 0.9028 -7.109 -27.08
1.405 -3.047 -7.109 -5.078 -21.1 -17.04 -1.016 -21.1 -25.05 -35.1 -9.028 -1.016 -43.11 -37.01 0 -5.078 -23.02
1.41 -4.063 -1.016 0 -18.06 -10.04 -5.078 -10.04 -18.06 -24.04 -6.094 0 -42.09 -32.05 0.9028 -9.028 -25.05
1.415 -8.012 0.9028 0 -18.06 -6.094 -11.06 -6.094 -16.02 -16.02 -11.06 -1.016 -42.09 -35.1 -9.028 -17.04 -29
1.42 -11.06 -9.028 -3.047 -17.04 -7.109 -15.01 -3.047 -15.01 -11.06 -15.01 -9.028 -45.03 -43.11 -21.1 -25.05 -35.1
1.425 -10.04 -17.04 -5.078 -13.09 -10.04 -17.04 -3.047 -14.11 -9.028 -15.01 -13.09 -45.03 -49.09 -25.05 -27.08 -37.01
1.43 -7.109 -19.07 -3.047 -7.109 -14.11 -15.01 -5.078 -13.09 -9.028 -9.028 -9.028 -41.08 -49.09 -23.02 -23.02 -31.03
1.435 -1.016 -17.04 0.9028 -1.016 -15.01 -13.09 -5.078 -11.06 -7.109 0.9028 -2.031 -29 -35.1 -13.09 -13.09 -19.07
1.44 -2.031 -11.06 -2.031 0.9028 -11.06 -11.06 -1.016 -5.078 -3.047 1.918 13.99 -13.09 -15.01 -3.047 -1.016 -5.078
1.445 -1.016 -7.109 -2.031 0.9028 -5.078 -11.06 -2.031 0.9028 0 3.95 25.96 -2.031 3.95 0.9028 5.981 1.918
1.45 -7.109 -11.06 -3.047 -3.047 -3.047 -15.01 1.918 0 5.981 -2.031 29.9 13.99 21.89 0.9028 13.99 11.96
1.455 -15.01 -19.07 -13.09 -13.09 -9.028 -19.07 3.95 1.918 7.899 -5.078 25.96 21.89 31.94 0.9028 19.97 21.89
1.46 -23.02 -29 -19.07 -25.05 -21.1 -23.02 0 -2.031 5.981 -9.028 19.97 25.96 36 -2.031 27.99 33.97
1.465 -29 -35.1 -25.05 -35.1 -35.1 -25.05 -3.047 -1.016 0 -9.028 13.99 25.96 36 3.95 36 47.96
1.47 -35.1 -37.01 -27.08 -41.08 -45.03 -25.05 -11.06 -7.109 -5.078 -7.109 9.931 23.92 33.97 11.96 43.9 59.92
1.475 -41.08 -37.01 -31.03 -45.03 -49.09 -23.02 -23.02 -15.01 -17.04 -5.078 5.981 15.91 29.9 17.94 45.93 65.9
1.48 -49.09 -41.08 -35.1 -49.09 -49.09 -21.1 -33.06 -27.08 -27.08 -5.078 5.981 5.981 21.89 21.89 43.9 63.98
1.485 -53.04 -47.06 -43.11 -53.04 -47.06 -23.02 -45.03 -39.05 -35.1 -5.078 5.981 -1.016 9.931 21.89 37.92 55.97
1.49 -53.04 -53.04 -49.09 -59.02 -47.06 -27.08 -53.04 -51.01 -41.08 -7.109 3.95 -17.04 -1.016 23.92 31.94 45.93
1.495 -47.06 -55.07 -51.01 -63.08 -47.06 -29 -55.07 -59.02 -45.03 -5.078 0 -31.03 -15.01 23.92 21.89 33.97
1.5 -39.05 -53.04 -47.06 -65 -43.11 -25.05 -53.04 -63.08 -45.03 -3.047 -5.078 -41.08 -27.08 19.97 13.99 19.97
1.505 -27.08 -43.11 -37.01 -59.02 -37.01 -17.04 -43.11 -61.05 -43.11 0.9028 -19.07 -47.06 -35.1 11.96 3.95 5.981
1.51 -15.01 -29 -23.02 -45.03 -25.05 -5.078 -25.05 -49.09 -37.01 0 -27.08 -45.03 -39.05 0 0.9028 -1.016
1.515 -1.016 -15.01 -5.078 -21.1 -9.028 3.95 -3.047 -29 -27.08 3.95 -25.05 -37.01 -37.01 -3.047 -3.047 -9.028
1.52 9.931 0.9028 7.899 1.918 5.981 15.91 15.91 -7.109 -11.06 9.931 -9.028 -21.1 -29 -7.109 0.9028 -11.06
1.525 23.92 10.95 24.94 25.96 23.92 23.92 34.98 9.931 3.95 13.99 9.931 -1.016 -13.09 -3.047 3.95 -9.028
1.53 33.97 24.94 31.94 41.98 37.92 25.96 43.9 27.99 19.97 19.97 27.99 11.96 0 -2.031 13.99 -3.047
1.535 37.92 34.98 36.9 44.91 43.9 26.97 46.94 38.93 31.94 25.96 33.97 29.9 17.94 1.918 21.89 0
1.54 36 43 34.98 38.93 43.9 22.91 43 43 36 25.96 23.92 43.9 33.97 -2.031 25.96 5.981
1.545 31.94 46.94 27.99 29.9 37.92 19.97 33.97 45.93 39.95 23.92 1.918 55.97 47.96 -5.078 27.99 13.99
1.55 29.9 46.94 22.91 24.94 33.97 16.93 28.89 50.89 43.9 19.97 -11.06 67.93 59.92 -11.06 27.99 21.89
1.555 27.99 40.96 17.94 18.96 34.98 12.98 22.91 52.93 47.96 15.91 -21.1 73.92 69.97 -11.06 29.9 33.97
1.56 25.96 32.95 9.931 13.99 29.9 7.899 15.91 51.91 51.91 11.96 -17.04 77.98 72 -5.078 33.97 41.98
1.565 24.94 24.94 3.95 7.899 24.94 3.95 7.899 47.96 54.96 15.91 -4.063 72 72 -1.016 37.92 45.93
1.57 22.91 18.96 0.9028 0.9028 18.96 6.997 2.934 33.97 50.89 19.97 0.9028 57.89 63.98 6.997 37.92 43.9
1.575 19.97 16.93 -2.031 -3.047 13.99 7.899 0 21.89 41.98 21.89 13.99 43.9 49.99 9.931 37.92 36
1.58 15.91 10.95 0.9028 -12.07 9.931 4.965 0.9028 6.997 31.94 19.97 25.96 26.97 33.97 14.9 34.98 26.97
1.585 2.934 -1.016 -3.047 -20.09 3.95 1.918 -9.028 -6.094 15.91 9.931 27.99 8.915 15.91 16.93 27.99 16.93
1.59 -5.078 -11.06 -12.07 -32.05 -6.094 -16.02 -20.09 -26.07 1.918 -1.016 24.94 -8.012 -3.047 16.93 15.91 5.981
1.595 -22.01 -29 -23.02 -48.07 -27.08 -34.08 -37.01 -50.1 -21.1 -17.04 11.96 -36.11 -23.02 14.9 5.981 -2.031
1.6 -34.08 -39.05 -29 -58 -47.06 -48.07 -49.09 -70.08 -43.11 -27.08 -1.016 -60.04 -39.05 8.915 -2.031 -12.07
1.605 -37.01 -41.08 -29 -63.08 -63.08 -53.04 -55.07 -81.02 -61.05 -31.03 -21.1 -81.02 -49.09 1.918 -11.06 -15.01
1.61 -30.02 -33.06 -22.01 -58 -60.04 -44.01 -48.07 -79.11 -68.05 -31.03 -26.07 -87.01 -55.07 1.918 -9.028 -13.09
1.615 -24.04 -21.1 -15.01 -49.09 -50.1 -35.1 -33.06 -61.05 -68.05 -29 -20.09 -77.08 -53.04 -2.031 0.9028 -9.028
1.62 -19.07 -15.01 -7.109 -37.01 -37.01 -23.02 -17.04 -47.06 -61.05 -33.06 -1.016 -61.05 -53.04 -7.109 5.981 -11.06
1.625 -19.07 -9.028 -3.047 -28.1 -24.04 -14.11 -4.063 -32.05 -51.01 -37.01 13.99 -43.11 -55.07 -13.09 13.99 -15.01
1.63 -17.04 -5.078 -4.063 -22.01 -15.01 -10.04 0 -22.01 -43.11 -37.01 23.92 -27.08 -53.04 -19.07 17.94 -27.08
1.635 -7.109 -1.016 -1.016 -15.01 -9.028 -3.047 0.9028 -15.01 -33.06 -27.08 17.94 -15.01 -51.01 -25.05 13.99 -39.05
1.64 7.899 2.934 -1.016 -4.063 -2.031 2.934 0.9028 -2.031 -19.07 -7.109 3.95 -1.016 -45.03 -25.05 5.981 -47.06
1.645 33.97 12.98 6.997 4.965 15.91 20.99 6.997 8.915 -1.016 15.91 -5.078 7.899 -31.03 -19.07 0 -49.09
1.65 55.97 20.99 11.96 17.94 36 37.92 13.99 25.96 15.91 39.95 -7.109 23.92 -13.09 -9.028 3.95 -45.03
1.655 67.93 24.94 12.98 23.92 51.91 49.99 16.93 41.98 37.92 53.94 -1.016 39.95 3.95 0 13.99 -35.1
1.66 65.9 22.91 5.981 21.89 57.89 49.99 13.99 45.93 53.94 55.97 5.981 49.99 25.96 11.96 29.9 -19.07
1.665 49.99 14.9 -2.031 15.91 49.99 39.95 5.981 41.98 61.95 45.93 9.931 55.97 47.96 17.94 43.9 -3.047
1.67 27.99 4.965 -5.078 5.981 31.94 21.89 -1.016 29.9 59.92 33.97 3.95 55.97 63.98 21.89 53.94 9.931
1.675 7.899 0.9028 -9.028 -2.031 11.96 7.899 -9.028 15.91 49.99 19.97 -3.047 53.94 72 25.96 55.97 23.92
1.68 0.9028 -5.078 -11.06 -3.047 -1.016 1.918 -15.01 3.95 33.97 9.931 -13.09 45.93 73.92 27.99 55.97 31.94
1.685 -5.078 -5.078 -13.09 -9.028 -13.09 1.918 -21.1 -1.016 15.91 0 -13.09 33.97 67.93 29.9 55.97 36
1.69 -7.109 -5.078 -17.04 -11.06 -17.04 1.918 -25.05 -11.06 0 -5.078 -7.109 17.94 57.89 29.9 53.94 37.92
1.695 -11.06 -5.078 -25.05 -15.01 -17.04 0 -29 -17.04 -7.109 -13.09 -3.047 0 41.98 29.9 49.99 33.97
1.7 -15.01 -7.109 -29 -19.07 -21.1 -1.016 -31.03 -23.02 -19.07 -19.07 -3.047 -15.01 23.92 25.96 36 25.96
1.705 -15.01 -7.109 -29 -21.1 -25.05 -5.078 -29 -25.05 -29 -21.1 -11.06 -31.03 0 19.97 13.99 9.931
1.71 -9.028 -5.078 -21.1 -17.04 -27.08 -5.078 -23.02 -25.05 -35.1 -19.07 -15.01 -43.11 -21.1 11.96 -9.028 -11.06
1.715 -1.016 0.9028 -11.06 -11.06 -21.1 -2.031 -15.01 -23.02 -37.01 -17.04 -11.06 -55.07 -45.03 1.918 -39.05 -39.05
1.72 1.918 4.965 -2.031 0.9028 -9.028 7.899 -5.078 -17.04 -37.01 -17.04 -1.016 -63.08 -67.03 -7.109 -61.05 -67.03
1.725 5.981 14.9 9.931 7.899 0 13.99 0 -13.09 -37.01 -17.04 1.918 -67.03 -85.09 -21.1 -75.04 -87.01
1.73 7.899 20.99 21.89 17.94 9.931 15.91 7.899 -9.028 -37.01 -21.1 1.918 -69.06 -97.05 -35.1 -79.11 -95.02
1.735 9.931 26.97 31.94 25.96 13.99 13.99 17.94 -5.078 -39.05 -23.02 -3.047 -63.08 -105.1 -45.03 -73.01 -91.07
1.74 15.91 32.95 41.98 31.94 11.96 15.91 29.9 0.9028 -37.01 -25.05 -11.06 -51.01 -103 -47.06 -57.1 -75.04
1.745 27.99 43 49.99 37.92 11.96 17.94 39.95 3.95 -29 -19.07 -3.047 -31.03 -91.07 -45.03 -37.01 -55.07
1.75 43 54.96 57.89 45.93 19.97 23.92 49.99 18.96 -15.01 -9.028 20.99 -6.094 -71.09 -37.01 -11.06 -31.03
1.755 54.96 66.92 59.92 56.99 34.98 29.9 56.99 32.95 0 0 58.91 12.98 -47.06 -29 3.95 -11.06
1.76 57.89 74.93 59.92 63.98 49.99 31.94 57.89 47.96 21.89 11.96 85.99 31.94 -27.08 -21.1 15.91 -3.047
1.765 62.97 76.96 59.92 72.9 66.92 34.98 58.91 60.94 38.93 19.97 88.92 44.91 -14.11 -19.07 17.94 -5.078
1.77 66.92 76.96 59.92 76.96 78.99 36.9 58.91 70.98 50.89 21.89 68.95 52.93 -12.07 -19.07 13.99 -17.04
1.775 73.92 76.96 59.92 79.9 85.99 41.98 61.95 75.95 57.89 21.89 39.95 55.97 -17.04 -21.1 9.931 -31.03
1.78 82.94 78.99 58.91 80.91 88.92 44.91 64.89 79.9 62.97 22.91 22.91 59.92 -16.02 -21.1 14.9 -37.01
1.785 85.99 76.96 52.93 79.9 87.91 44.91 63.98 79.9 66.92 22.91 21.89 63.98 -12.07 -19.07 28.89 -31.03
1.79 77.98 66.92 43.9 67.93 77.98 37.92 53.94 75.95 65.9 19.97 36 67.93 -1.016 -15.01 49.99 -13.09
1.795 63.98 54.96 34.98 51.91 65.9 27.99 45.93 66.92 63.98 18.96 53.94 70.98 8.915 -7.109 70.98 5.981
1.8 44.91 36.9 20.99 34.98 48.98 13.99 32.95 48.98 51.91 12.98 58.91 66.92 21.89 0 84.97 29.9
1.805 21.89 16.93 9.931 7.899 27.99 0 15.91 25.96 36 5.981 51.91 53.94 27.99 11.96 87.91 49.99
1.81 1.918 0.9028 1.918 -11.06 9.931 0 3.95 0.9028 16.93 0 37.92 32.95 23.92 19.97 79.9 55.97
1.815 -8.012 -5.078 -13.09 -30.02 -1.016 -4.063 -8.012 -20.09 0.9028 1.918 19.97 11.96 16.93 25.96 59.92 51.91
1.82 -21.1 -19.07 -23.02 -45.03 -5.078 -9.028 -29 -41.08 -13.09 -2.031 1.918 -11.06 5.981 23.92 37.92 43.9
1.825 -26.07 -25.05 -29 -52.02 -12.07 -12.07 -43.11 -57.1 -24.04 0 -9.028 -33.06 1.918 20.99 18.96 31.94
1.83 -32.05 -33.06 -28.1 -51.01 -21.1 -22.01 -50.1 -67.03 -33.06 -2.031 -26.07 -48.07 -6.094 18.96 1.918 23.92
1.835 -33.06 -31.03 -26.07 -51.01 -34.08 -31.03 -52.02 -69.06 -42.09 -10.04 -37.01 -59.02 -11.06 19.97 -11.06 15.91
1.84 -36.11 -31.03 -22.01 -49.09 -41.08 -40.06 -44.01 -69.06 -45.03 -18.06 -36.11 -62.07 -14.11 22.91 -21.1 15.91
1.845 -36.11 -25.05 -23.02 -46.04 -46.04 -38.03 -35.1 -65 -48.07 -20.09 -27.08 -59.02 -12.07 30.92 -28.1 19.97
1.85 -31.03 -19.07 -23.02 -43.11 -43.11 -31.03 -27.08 -55.07 -45.03 -15.01 -15.01 -49.09 -7.109 37.92 -31.03 21.89
1.855 -22.01 -11.06 -25.05 -34.08 -28.1 -16.02 -22.01 -44.01 -37.01 -4.063 -3.047 -37.01 1.918 41.98 -29 19.97
1.86 -11.06 -5.078 -25.05 -25.05 -15.01 -4.063 -23.02 -32.05 -22.01 1.918 -5.078 -30.02 1.918 37.92 -27.08 13.99
1.865 -3.047 -1.016 -27.08 -17.04 -5.078 0 -25.05 -19.07 -7.109 5.981 -15.01 -25.05 3.95 27.99 -29 5.981
1.87 -1.016 2.934 -28.1 -10.04 1.918 1.918 -26.07 -10.04 0.9028 4.965 -32.05 -20.09 5.981 13.99 -30.02 -2.031
1.875 0 0.9028 -26.07 -7.109 0.9028 0 -25.05 -4.063 5.981 -1.016 -43.11 -14.11 6.997 3.95 -28.1 0.9028
1.88 -2.031 0.9028 -25.05 -3.047 0 -1.016 -17.04 -2.031 5.981 0.9028 -47.06 -3.047 7.899 1.918 -23.02 1.918
1.885 0 4.965 -16.02 0 11.96 1.918 -5.078 7.899 14.9 1.918 -37.01 5.981 16.93 7.899 -16.02 9.931
1.89 1.918 10.95 -10.04 6.997 20.99 1.918 1.918 21.89 24.94 4.965 -24.04 15.91 26.97 15.91 -12.07 19.97
1.895 0 14.9 -5.078 13.99 27.99 -2.031 -2.031 31.94 36 13.99 -11.06 19.97 36 21.89 -11.06 25.96
1.9 8.915 18.96 -3.047 16.93 32.95 0.9028 0 36.9 44.91 23.92 -4.063 18.96 40.96 25.96 -11.06 27.99
1.905 14.9 22.91 -9.028 16.93 32.95 0.9028 -8.012 30.92 46.94 31.94 -4.063 14.9 38.93 25.96 -11.06 25.96
1.91 17.94 14.9 -15.01 7.899 27.99 1.918 -19.07 13.99 41.98 36 -9.028 7.899 33.97 25.96 -7.109 25.96
1.915 18.96 2.934 -21.1 0.9028 28.89 1.918 -20.09 0.9028 33.97 37.92 -14.11 10.95 27.99 29.9 -2.031 31.94
1.92 12.98 -5.078 -21.1 0.9028 27.99 0 -19.07 -2.031 27.99 37.92 -16.02 16.93 23.92 33.97 13.99 37.92
1.925 5.981 -17.04 -21.1 -1.016 27.99 -2.031 -11.06 -3.047 23.92 36 -11.06 25.96 21.89 33.97 31.94 39.95
1.93 0 -19.07 -21.1 -5.078 23.92 -3.047 -7.109 -2.031 17.94 29.9 -1.016 31.94 15.91 29.9 41.98 33.97
1.935 -2.031 -15.01 -23.02 -9.028 13.99 -9.028 -5.078 1.918 11.96 21.89 3.95 31.94 9.931 17.94 47.96 21.89
1.94 0 -7.109 -23.02 -13.09 1.918 -15.01 -9.028 1.918 0 11.96 11.96 29.9 1.918 5.981 53.94 9.931
1.945 1.918 0.9028 -23.02 -15.01 -3.047 -21.1 -11.06 -2.031 -7.109 0 19.97 27.99 -2.031 -2.031 57.89 3.95
1.95 1.918 0.9028 -21.1 -13.09 -9.028 -25.05 -9.028 -1.016 -15.01 -5.078 25.96 27.99 1.918 -1.016 65.9 9.931
1.955 -2.031 0.9028 -19.07 -9.028 -9.028 -25.05 -7.109 -1.016 -13.09 -13.09 31.94 31.94 13.99 -1.016 69.97 21.89
1.96 -3.047 0.9028 -21.1 -7.109 -1.016 -23.02 -5.078 -2.031 -3.047 -17.04 36 29.9 27.99 0.9028 63.98 29.9
1.965 -5.078 -5.078 -23.02 -7.109 3.95 -19.07 -5.078 1.918 3.95 -17.04 37.92 21.89 37.92 0.9028 45.93 29.9
1.97 -1.016 -9.028 -27.08 -9.028 13.99 -13.09 -7.109 3.95 13.99 -11.06 29.9 5.981 39.95 -3.047 17.94 17.94
1.975 0 -9.028 -27.08 -7.109 19.97 -7.109 -7.109 0 19.97 -1.016 15.91 -9.028 33.97 -9.028 -9.028 -2.031
1.98 7.899 -3.047 -23.02 -1.016 21.89 -3.047 -5.078 -1.016 19.97 5.981 0.9028 -31.03 21.89 -15.01 -37.01 -17.04
1.985 15.91 2.934 -17.04 3.95 21.89 -1.016 0.9028 -7.109 19.97 15.91 -17.04 -43.11 7.899 -25.05 -53.04 -33.06
1.99 19.97 12.98 -11.06 11.96 19.97 -3.047 1.918 -9.028 19.97 17.94 -25.05 -47.06 -2.031 -35.1 -59.02 -41.08
1.995 19.97 14.9 -7.109 15.91 15.91 -7.109 5.981 -5.078 23.92 13.99 -23.02 -41.08 -3.047 -47.06 -55.07 -43.11
2 15.91 8.915 -9.028 15.91 13.99 -13.09 1.918 0.9028 25.96 3.95 -17.04 -29 -3.047 -55.07 -47.06 -41.08
2.005 5.981 -1.016 -11.06 11.96 11.96 -15.01 0.9028 1.918 23.92 -1.016 -13.09 -15.01 0.9028 -57.1 -37.01 -37.01
2.01 -2.031 -5.078 -11.06 9.931 9.931 -11.06 -3.047 9.931 17.94 -7.109 -15.01 -1.016 1.918 -53.04 -27.08 -29
2.015 0.9028 -7.109 -7.109 14.9 11.96 0.9028 0 15.91 15.91 -3.047 -23.02 5.981 7.899 -41.08 -15.01 -19.07
2.02 3.95 0.9028 0.9028 21.89 19.97 9.931 1.918 23.92 15.91 3.95 -31.03 15.91 7.899 -27.08 -7.109 -13.09
2.025 17.94 8.915 4.965 32.95 29.9 21.89 18.96 31.94 19.97 15.91 -31.03 19.97 3.95 -17.04 0.9028 -13.09
2.03 29.9 16.93 10.95 40.96 36 25.96 34.98 39.95 19.97 21.89 -24.04 24.94 -1.016 -15.01 3.95 -19.07
2.035 36 20.99 15.91 41.98 36 21.89 45.93 43.9 15.91 19.97 -9.028 25.96 -17.04 -21.1 11.96 -29
2.04 34.98 20.99 24.94 40.96 27.99 14.9 54.96 47.96 7.899 9.931 2.934 26.97 -32.05 -28.1 17.94 -37.01
2.045 32.95 20.99 32.95 38.93 23.92 6.997 59.92 51.91 -2.031 0.9028 18.96 28.89 -38.03 -32.05 25.96 -39.05
2.05 25.96 18.96 36 39.95 17.94 1.918 57.89 53.94 -3.047 -5.078 31.94 33.97 -37.01 -33.06 33.97 -35.1
2.055 26.97 14.9 41.98 43.9 20.99 4.965 55.97 56.99 -1.016 -4.063 38.93 36.9 -24.04 -28.1 39.95 -27.08
2.06 26.97 10.95 36 48.98 24.94 6.997 54.96 56.99 5.981 1.918 39.95 33.97 -6.094 -25.05 39.95 -17.04
2.065 21.89 4.965 25.96 47.96 23.92 5.981 47.96 51.91 17.94 5.981 25.96 21.89 3.95 -25.05 31.94 -9.028
2.07 17.94 -1.016 13.99 43.9 22.91 4.965 37.92 41.98 26.97 13.99 7.899 7.899 16.93 -26.07 19.97 -7.109
2.075 14.9 0.9028 3.95 33.97 16.93 4.965 32.95 25.96 29.9 15.91 -8.012 -7.109 25.96 -26.07 -1.016 -6.094
2.08 9.931 -1.016 0 19.97 6.997 4.965 23.92 10.95 21.89 13.99 -20.09 -26.07 26.97 -19.07 -18.06 -6.094
2.085 6.997 -7.109 -1.016 11.96 0.9028 10.95 16.93 1.918 11.96 15.91 -20.09 -43.11 23.92 -8.012 -38.03 -10.04
2.09 1.918 -11.06 -3.047 5.981 1.918 16.93 7.899 -9.028 1.918 21.89 -13.09 -55.07 8.915 1.918 -55.07 -19.07
2.095 1.918 -11.06 -5.078 0.9028 -2.031 19.97 1.918 -21.1 -13.09 25.96 -11.06 -67.03 -3.047 0 -69.06 -33.06
2.1 0.9028 -9.028 -5.078 -2.031 0.9028 18.96 1.918 -24.04 -21.1 24.94 -19.07 -69.06 -26.07 0.9028 -85.09 -53.04
2.105 0.9028 -5.078 -9.028 -5.078 2.934 16.93 -3.047 -24.04 -25.05 18.96 -42.09 -74.03 -48.07 -10.04 -101.1 -77.08
2.11 1.918 -5.078 -15.01 -5.078 0 7.899 -5.078 -21.1 -29 0 -67.03 -77.08 -71.09 -23.02 -117 -93.1
2.115 2.934 -9.028 -18.06 0 -1.016 -1.016 -3.047 -15.01 -29 -11.06 -80.01 -72.11 -78.09 -26.07 -121.1 -101.1
2.12 2.934 -17.04 -22.01 -1.016 -9.028 -4.063 -2.031 -13.09 -29 -23.02 -72.11 -64.1 -74.03 -24.04 -111 -93.1
2.125 0.9028 -27.08 -23.02 -2.031 -17.04 -11.06 -5.078 -15.01 -29 -25.05 -49.09 -55.07 -63.08 -19.07 -91.07 -77.08
2.13 -9.028 -35.1 -24.04 0 -21.1 -17.04 -10.04 -23.02 -29 -23.02 -18.06 -38.03 -49.09 -13.09 -61.05 -53.04
2.135 -17.04 -35.1 -30.02 -12.07 -29 -25.05 -22.01 -33.06 -27.08 -19.07 -3.047 -29 -39.05 -11.06 -33.06 -31.03
2.14 -25.05 -37.01 -41.08 -27.08 -37.01 -35.1 -37.01 -43.11 -35.1 -21.1 -1.016 -21.1 -35.1 -9.028 -13.09 -13.09
2.145 -37.01 -45.03 -53.04 -44.01 -49.09 -45.03 -48.07 -53.04 -43.11 -29 -15.01 -21.1 -37.01 -11.06 -5.078 -5.078
2.15 -51.01 -59.02 -61.05 -59.02 -63.08 -53.04 -53.04 -65 -55.07 -39.05 -37.01 -27.08 -41.08 -15.01 -1.016 0.9028
2.155 -63.08 -73.01 -61.05 -65 -75.04 -53.04 -49.09 -73.01 -65 -41.08 -51.01 -33.06 -41.08 -13.09 -2.031 -2.031
2.16 -67.03 -81.02 -53.04 -65 -75.04 -45.03 -39.05 -73.01 -69.06 -33.06 -51.01 -33.06 -33.06 -7.109 7.899 1.918
2.165 -61.05 -79.11 -41.08 -59.02 -67.03 -31.03 -27.08 -65 -63.08 -17.04 -33.06 -21.1 -19.07 1.918 17.94 9.931
2.17 -45.03 -69.06 -33.06 -47.06 -53.04 -19.07 -17.04 -47.06 -49.09 -1.016 -9.028 -5.078 -1.016 15.91 27.99 15.91
2.175 -29 -57.1 -29 -35.1 -39.05 -13.09 -11.06 -27.08 -29 3.95 7.899 5.981 9.931 27.99 29.9 15.91
2.18 -19.07 -43.11 -27.08 -25.05 -33.06 -15.01 -9.028 -9.028 -11.06 5.981 17.94 11.96 21.89 33.97 21.89 11.96
2.185 -15.01 -35.1 -23.02 -19.07 -29 -19.07 -9.028 0 0 3.95 11.96 9.931 27.99 31.94 3.95 3.95
2.19 -17.04 -27.08 -15.01 -11.06 -27.08 -21.1 -3.047 7.899 9.931 1.918 -2.031 1.918 31.94 25.96 -11.06 -1.016
2.195 -13.09 -19.07 -3.047 -3.047 -17.04 -17.04 3.95 15.91 19.97 5.981 -13.09 0.9028 36 17.94 -27.08 -5.078
2.2 -5.078 -9.028 3.95 3.95 -3.047 -7.109 17.94 23.92 29.9 13.99 -21.1 -1.016 36 13.99 -33.06 -3.047
2.205 3.95 -1.016 11.96 15.91 5.981 -2.031 29.9 33.97 37.92 21.89 -17.04 -2.031 36 11.96 -31.03 0
2.21 13.99 -1.016 13.99 23.92 15.91 1.918 36 39.95 41.98 25.96 -3.047 1.918 29.9 7.899 -23.02 5.981
2.215 13.99 -1.016 9.931 23.92 15.91 0 33.97 37.92 37.92 19.97 11.96 5.981 19.97 0 -11.06 7.899
2.22 3.95 0.9028 3.95 15.91 7.899 -3.047 25.96 29.9 29.9 9.931 29.9 5.981 7.899 -5.078 -1.016 5.981
2.225 -3.047 -3.047 -2.031 3.95 0.9028 -11.06 19.97 15.91 17.94 0 45.93 3.95 -2.031 -11.06 0 1.918
2.23 -11.06 -1.016 -2.031 0.9028 -5.078 -13.09 15.91 5.981 9.931 0.9028 53.94 5.981 -1.016 -11.06 5.981 1.918
2.235 -11.06 0.9028 0 -1.016 -5.078 -11.06 15.91 3.95 9.931 0.9028 57.89 9.931 -1.016 -3.047 11.96 7.899
2.24 -7.109 -1.016 3.95 0.9028 -3.047 -11.06 15.91 3.95 15.91 0.9028 51.91 15.91 0 1.918 17.94 19.97
2.245 -9.028 -1.016 3.95 0.9028 -5.078 -13.09 11.96 5.981 19.97 -1.016 37.92 19.97 5.981 7.899 21.89 31.94
2.25 -17.04 -13.09 -2.031 -7.109 -19.07 -21.1 3.95 3.95 15.91 -11.06 21.89 17.94 9.931 7.899 25.96 41.98
2.255 -33.06 -29 -9.028 -19.07 -37.01 -31.03 -1.016 0.9028 0 -25.05 11.96 11.96 11.96 1.918 30.92 47.96
2.26 -49.09 -45.03 -21.1 -33.06 -55.07 -39.05 -9.028 -11.06 -12.07 -35.1 11.96 6.997 9.931 0.9028 36.9 53.94
2.265 -59.02 -51.01 -31.03 -41.08 -67.03 -37.01 -15.01 -25.05 -31.03 -37.01 23.92 3.95 9.931 -5.078 41.98 57.89
2.27 -59.02 -49.09 -35.1 -39.05 -67.03 -33.06 -17.04 -31.03 -38.03 -30.02 39.95 10.95 10.95 -5.078 52.93 67.93
2.275 -50.1 -43.11 -33.06 -30.02 -57.1 -27.08 -17.04 -31.03 -38.03 -20.09 51.91 20.99 16.93 -3.047 60.94 72
2.28 -45.03 -37.01 -25.05 -21.1 -47.06 -25.05 -13.09 -25.05 -33.06 -13.09 49.99 31.94 21.89 -2.031 63.98 75.95
2.285 -40.06 -33.06 -19.07 -12.07 -38.03 -22.01 -9.028 -14.11 -26.07 -8.012 37.92 40.96 30.92 0.9028 61.95 72.9
2.29 -36.11 -33.06 -11.06 -10.04 -34.08 -20.09 -5.078 -4.063 -18.06 -8.012 19.97 41.98 34.98 -1.016 47.96 60.94
2.295 -31.03 -31.03 -5.078 -11.06 -33.06 -15.01 -2.031 -1.016 -13.09 -7.109 3.95 33.97 31.94 -1.016 31.94 43.9
2.3 -16.02 -17.04 0.9028 -4.063 -26.07 -4.063 5.981 -1.016 -3.047 1.918 0 23.92 28.89 -4.063 12.98 26.97
2.305 0.9028 0.9028 5.981 1.918 -18.06 1.918 11.96 1.918 2.934 5.981 0 12.98 23.92 -7.109 -7.109 8.915
2.31 9.931 12.98 9.931 7.899 -7.109 5.981 11.96 3.95 11.96 15.91 0 -2.031 17.94 -9.028 -31.03 -3.047
2.315 19.97 20.99 10.95 17.94 1.918 10.95 9.931 6.997 21.89 22.91 0 -15.01 13.99 -2.031 -54.05 -18.06
2.32 15.91 20.99 6.997 20.99 1.918 10.95 3.95 3.95 21.89 21.89 0.9028 -30.02 9.931 1.918 -67.03 -30.02
2.325 5.981 12.98 0.9028 16.93 1.918 3.95 -2.031 1.918 18.96 20.99 -5.078 -41.08 0 1.918 -71.09 -39.05
2.33 -1.016 2.934 0 12.98 -1.016 1.918 -3.047 -3.047 9.931 9.931 -13.09 -44.01 -5.078 0 -57.1 -38.03
2.335 -11.06 -13.09 -6.094 9.931 -8.012 -2.031 -9.028 -4.063 7.899 2.934 -15.01 -33.06 -9.028 -8.012 -34.08 -28.1
2.34 -15.01 -23.02 -9.028 3.95 -13.09 0.9028 -13.09 0.9028 3.95 0 -19.07 -7.109 -5.078 -13.09 -3.047 -11.06
2.345 -13.09 -21.1 -7.109 1.918 -8.012 3.95 -13.09 9.931 10.95 1.918 -19.07 16.93 9.931 -5.078 19.97 10.95
2.35 -8.012 -17.04 -7.109 0.9028 -6.094 8.915 -7.109 24.94 21.89 15.91 -11.06 45.93 30.92 2.934 43 34.98
2.355 -5.078 -11.06 -7.109 -2.031 0.9028 13.99 -2.031 37.92 36 23.92 -1.016 65.9 53.94 11.96 55.97 55.97
2.36 0 -3.047 -5.078 2.934 1.918 8.915 7.899 44.91 46.94 28.89 7.899 77.98 68.95 18.96 59.92 66.92
2.365 -4.063 -7.109 -5.078 4.965 0 0 11.96 43 46.94 26.97 19.97 76.96 68.95 16.93 59.92 68.95
2.37 -15.01 -19.07 -7.109 5.981 -9.028 -13.09 9.931 33.97 37.92 15.91 23.92 67.93 61.95 5.981 51.91 65.9
2.375 -28.1 -33.06 -11.06 2.934 -17.04 -21.1 1.918 27.99 28.89 6.997 21.89 60.94 54.96 0 43 59.92
2.38 -39.05 -41.08 -19.07 0.9028 -19.07 -17.04 -3.047 23.92 22.91 0.9028 15.91 52.93 54.96 1.918 32.95 57.89
2.385 -43.11 -39.05 -23.02 -7.109 -19.07 -9.028 -9.028 19.97 19.97 0 13.99 47.96 57.89 9.931 25.96 57.89
2.39 -39.05 -27.08 -25.05 -11.06 -15.01 -3.047 -13.09 17.94 22.91 1.918 11.96 46.94 61.95 15.91 26.97 57.89
2.395 -31.03 -13.09 -23.02 -7.109 -11.06 -1.016 -13.09 13.99 23.92 1.918 13.99 45.93 61.95 15.91 30.92 53.94
2.4 -21.1 -1.016 -13.09 -2.031 -9.028 -3.047 -7.109 11.96 21.89 -2.031 11.96 45.93 55.97 9.931 29.9 47.96
2.405 -9.028 2.934 -1.016 11.96 -5.078 -9.028 -1.016 15.91 19.97 -5.078 5.981 43.9 41.98 -2.031 21.89 31.94
2.41 0.9028 8.915 1.918 25.96 0.9028 -11.06 0 19.97 13.99 -11.06 1.918 37.92 23.92 -7.109 5.981 11.96
2.415 1.918 12.98 5.981 31.94 3.95 -9.028 0 21.89 7.899 -15.01 1.918 23.92 1.918 -15.01 -13.09 -9.028
2.42 7.899 14.9 5.981 29.9 11.96 -7.109 0.9028 17.94 1.918 -17.04 5.981 1.918 -19.07 -19.07 -39.05 -35.1
2.425 9.931 14.9 0 21.89 15.91 -1.016 -9.028 7.899 -1.016 -19.07 7.899 -17.04 -45.03 -23.02 -57.1 -59.02
2.43 7.899 10.95 0.9028 11.96 13.99 0.9028 -21.1 -3.047 -7.109 -21.1 0 -41.08 -71.09 -27.08 -67.03 -75.04
2.435 5.981 4.965 -1.016 5.981 7.899 0 -27.08 -17.04 -13.09 -23.02 -11.06 -57.1 -93.1 -31.03 -65 -87.01
2.44 3.95 0.9028 -1.016 0 1.918 3.95 -25.05 -31.03 -19.07 -23.02 -29 -65 -105.1 -33.06 -57.1 -89.04
2.445 0 -3.047 -3.047 0.9028 0.9028 5.981 -23.02 -37.01 -23.02 -21.1 -43.11 -65 -107.1 -33.06 -49.09 -87.01
2.45 -1.016 -5.078 -9.028 -5.078 -3.047 5.981 -23.02 -43.11 -25.05 -19.07 -45.03 -61.05 -103 -29 -41.08 -79.11
2.455 -9.028 -7.109 -19.07 -11.06 -7.109 3.95 -27.08 -47.06 -29 -19.07 -33.06 -57.1 -95.02 -23.02 -33.06 -67.03
2.46 -17.04 -7.109 -27.08 -17.04 -9.028 0 -37.01 -49.09 -31.03 -17.04 -17.04 -51.01 -81.02 -15.01 -25.05 -49.09
2.465 -23.02 -9.028 -33.06 -21.1 -11.06 -2.031 -45.03 -51.01 -27.08 -15.01 -1.016 -43.11 -61.05 -5.078 -11.06 -25.05
2.47 -25.05 -11.06 -35.1 -21.1 -13.09 -2.031 -47.06 -49.09 -21.1 -9.028 5.981 -33.06 -37.01 1.918 1.918 0.9028
2.475 -25.05 -13.09 -35.1 -19.07 -13.09 0 -41.08 -43.11 -11.06 0.9028 11.96 -17.04 -11.06 13.99 19.97 21.89
2.48 -21.1 -17.04 -31.03 -19.07 -11.06 3.95 -29 -35.1 -3.047 3.95 9.931 0.9028 5.981 19.97 31.94 37.92
2.485 -17.04 -17.04 -25.05 -17.04 -11.06 5.981 -19.07 -25.05 0.9028 7.899 3.95 9.931 21.89 19.97 37.92 43.9
2.49 -11.06 -17.04 -17.04 -17.04 -9.028 5.981 -9.028 -17.04 0.9028 5.981 -3.047 21.89 27.99 15.91 37.92 41.98
2.495 -5.078 -11.06 -7.109 -13.09 -3.047 3.95 -5.078 -7.109 0.9028 0 -11.06 25.96 25.96 11.96 31.94 31.94
2.5 -1.016 -3.047 1.918 -7.109 0 3.95 -2.031 1.918 -2.031 0.9028 -11.06 27.99 22.91 9.931 23.92 21.89
2.505 -2.031 -1.016 0.9028 -1.016 7.899 5.981 0 0.9028 0 -1.016 -2.031 26.97 16.93 9.931 15.91 13.99
2.51 0.9028 2.934 0 -2.031 11.96 5.981 -3.047 1.918 7.899 0.9028 15.91 21.89 15.91 7.899 11.96 7.899
2.515 -3.047 0.9028 1.918 0.9028 14.9 6.997 -4.063 4.965 16.93 -2.031 29.9 22.91 20.99 1.918 6.997 1.918
2.52 -5.078 2.934 1.918 0.9028 10.95 4.965 -6.094 4.965 24.94 -1.016 34.98 18.96 26.97 -5.078 0.9028 -3.047
2.525 -7.109 -3.047 0.9028 0 5.981 -2.031 -5.078 1.918 25.96 0.9028 21.89 17.94 23.92 -15.01 -1.016 -15.01
2.53 -7.109 -3.047 1.918 -1.016 2.934 -2.031 -3.047 1.918 22.91 -2.031 4.965 12.98 17.94 -19.07 -6.094 -27.08
2.535 -9.028 -3.047 1.918 1.918 -1.016 -6.094 -5.078 -7.109 14.9 -6.094 -6.094 2.934 -2.031 -16.02 -10.04 -38.03
2.54 -9.028 -3.047 0 -9.028 -1.016 -11.06 -5.078 -21.1 -2.031 -11.06 -17.04 -9.028 -25.05 -15.01 -15.01 -43.11
2.545 -8.012 -1.016 1.918 -15.01 -6.094 -9.028 -8.012 -34.08 -15.01 -14.11 -18.06 -29 -54.05 -12.07 -11.06 -42.09
2.55 -8.012 0.9028 -7.109 -27.08 -15.01 -9.028 -19.07 -53.04 -37.01 -17.04 -15.01 -46.04 -83.06 -14.11 -13.09 -40.06
2.555 -9.028 -7.109 -17.04 -33.06 -23.02 -7.109 -29 -69.06 -55.07 -25.05 -19.07 -57.1 -101.1 -21.1 -13.09 -33.06
2.56 -8.012 -11.06 -26.07 -34.08 -27.08 -10.04 -39.05 -76.06 -66.02 -25.05 -13.09 -59.02 -108.1 -21.1 -15.01 -23.02
2.565 -10.04 -19.07 -32.05 -33.06 -29 -9.028 -44.01 -77.08 -73.01 -28.1 -7.109 -58 -97.05 -19.07 -14.11 -12.07
2.57 -7.109 -19.07 -32.05 -27.08 -25.05 -9.028 -40.06 -69.06 -67.03 -22.01 -2.031 -47.06 -71.09 -12.07 -15.01 1.918
2.575 -8.012 -19.07 -28.1 -21.1 -15.01 -7.109 -30.02 -53.04 -53.04 -12.07 3.95 -30.02 -39.05 -3.047 -8.012 12.98
2.58 -4.063 -7.109 -18.06 -10.04 -5.078 0 -17.04 -34.08 -28.1 0 9.931 -9.028 0 3.95 0 33.97
2.585 -3.047 0.9028 -9.028 -3.047 -2.031 0 -3.047 -13.09 -5.078 15.91 13.99 7.899 31.94 17.94 13.99 57.89
2.59 -2.031 2.934 0.9028 0.9028 3.95 3.95 0 0 9.931 29.9 11.96 28.89 61.95 32.95 21.89 74.93
2.595 -6.094 4.965 1.918 1.918 2.934 5.981 2.934 8.915 25.96 32.95 2.934 37.92 80.91 46.94 21.89 78.99
2.6 -9.028 2.934 -5.078 -2.031 0 0 -2.031 7.899 25.96 29.9 -7.109 36 77.98 45.93 5.981 67.93
2.605 -13.09 2.934 -13.09 0 -1.016 1.918 -1.016 3.95 22.91 26.97 -16.02 24.94 65.9 38.93 -6.094 50.89
2.61 -7.109 0.9028 -11.06 -2.031 2.934 -1.016 -1.016 0 18.96 18.96 -14.11 12.98 55.97 23.92 -18.06 25.96
2.615 0 -1.016 -7.109 -2.031 9.931 1.918 -1.016 0.9028 19.97 15.91 0.9028 5.981 41.98 7.899 -17.04 15.91
2.62 13.99 12.98 -1.016 8.915 24.94 10.95 0.9028 0.9028 28.89 18.96 22.91 12.98 40.96 3.95 0 13.99
2.625 21.89 28.89 8.915 20.99 36.9 12.98 6.997 14.9 40.96 21.89 45.93 28.89 44.91 7.899 14.9 19.97
2.63 19.97 36.9 11.96 25.96 37.92 9.931 7.899 23.92 45.93 19.97 49.99 39.95 43.9 11.96 27.99 21.89
2.635 9.931 34.98 8.915 25.96 29.9 1.918 8.915 34.98 43.9 13.99 33.97 43 38.93 13.99 25.96 13.99
2.64 0.9028 24.94 2.934 15.91 17.94 -1.016 2.934 32.95 29.9 3.95 1.918 29.9 20.99 9.931 11.96 0.9028
2.645 -9.028 10.95 0.9028 3.95 7.899 -7.109 0.9028 21.89 13.99 -3.047 -25.05 11.96 -2.031 1.918 -3.047 -19.07
2.65 -7.109 4.965 0.9028 -3.047 5.981 -7.109 -5.078 7.899 -2.031 -13.09 -41.08 -1.016 -15.01 -2.031 -21.1 -35.1
2.655 0.9028 6.997 0 -7.109 7.899 -5.078 -9.028 0.9028 -9.028 -19.07 -41.08 -13.09 -25.05 0.9028 -27.08 -37.01
2.66 3.95 14.9 7.899 -3.047 13.99 -5.078 -11.06 -7.109 -15.01 -21.1 -25.05 -17.04 -31.03 0 -25.05 -31.03
2.665 7.899 26.97 13.99 -2.031 15.91 -3.047 -11.06 -9.028 -19.07 -17.04 -7.109 -19.07 -33.06 1.918 -17.04 -17.04
2.67 5.981 30.92 15.91 5.981 11.96 -3.047 -9.028 -5.078 -19.07 -11.06 0.9028 -19.07 -33.06 3.95 -13.09 -9.028
2.675 0 30.92 11.96 9.931 7.899 -1.016 -7.109 -1.016 -19.07 -1.016 -1.016 -21.1 -35.1 0 -13.09 -7.109
2.68 -2.031 24.94 5.981 7.899 5.981 0 -5.078 -1.016 -15.01 3.95 -15.01 -25.05 -37.01 -1.016 -19.07 -13.09
2.685 1.918 16.93 0 3.95 7.899 3.95 -3.047 -3.047 -9.028 9.931 -29 -27.08 -37.01 -7.109 -23.02 -21.1
2.69 9.931 14.9 -2.031 1.918 11.96 5.981 0.9028 -5.078 -5.078 9.931 -31.03 -25.05 -33.06 -9.028 -21.1 -25.05
2.695 17.94 18.96 0 5.981 17.94 3.95 1.918 -3.047 -1.016 7.899 -17.04 -17.04 -27.08 -7.109 -11.06 -25.05
2.7 23.92 28.89 9.931 13.99 21.89 1.918 11.96 -2.031 0.9028 7.899 3.95 -3.047 -15.01 -2.031 0.9028 -17.04
2.705 27.99 38.93 19.97 23.92 23.92 3.95 19.97 7.899 0 13.99 36 5.981 0.9028 9.931 5.981 -7.109
2.71 31.94 44.91 29.9 31.94 25.96 7.899 23.92 15.91 3.95 25.96 53.94 15.91 7.899 17.94 7.899 -1.016
2.715 36 44.91 31.94 31.94 23.92 11.96 21.89 17.94 5.981 37.92 53.94 21.89 13.99 19.97 0 -1.016
2.72 33.97 38.93 23.92 21.89 17.94 9.931 15.91 11.96 3.95 39.95 33.97 21.89 11.96 15.91 -5.078 -7.109
2.725 25.96 28.89 13.99 9.931 9.931 3.95 7.899 3.95 -2.031 31.94 3.95 17.94 5.981 9.931 -11.06 -13.09
2.73 13.99 18.96 5.981 -2.031 1.918 -2.031 3.95 0 -3.047 19.97 -15.01 15.91 1.918 5.981 -9.028 -17.04
2.735 3.95 14.9 1.918 -3.047 -2.031 0 5.981 0 -3.047 11.96 -27.08 15.91 1.918 5.981 -1.016 -15.01
2.74 3.95 16.93 3.95 -3.047 3.95 9.931 7.899 5.981 -2.031 13.99 -27.08 17.94 9.931 11.96 0 -9.028
2.745 13.99 20.99 7.899 0 17.94 24.94 7.899 13.99 11.96 25.96 -19.07 15.91 18.96 13.99 1.918 -5.078
2.75 29.9 24.94 9.931 7.899 33.97 32.95 1.918 17.94 25.96 37.92 -9.028 11.96 24.94 13.99 -2.031 -5.078
2.755 41.98 24.94 9.931 15.91 43.9 31.94 0.9028 15.91 37.92 41.98 -1.016 1.918 21.89 9.931 -3.047 -9.028
2.76 43.9 22.91 9.931 17.94 43.9 22.91 -3.047 11.96 40.96 31.94 -2.031 -3.047 14.9 4.965 -8.012 -13.09
2.765 36 18.96 9.931 17.94 33.97 8.915 -5.078 5.981 36.9 16.93 -2.031 -13.09 4.965 0.9028 -10.04 -18.06
2.77 21.89 16.93 9.931 9.931 17.94 -2.031 -1.016 -2.031 27.99 3.95 -5.078 -17.04 0.9028 1.918 -13.09 -19.07
2.775 5.981 12.98 7.899 3.95 6.997 -2.031 -2.031 -6.094 18.96 -1.016 -14.11 -21.1 0.9028 6.997 -14.11 -14.11
2.78 1.918 12.98 7.899 0.9028 -1.016 -1.016 -2.031 -14.11 10.95 -1.016 -22.01 -25.05 1.918 10.95 -18.06 -8.012
2.785 -5.078 10.95 5.981 0.9028 0 -1.016 -2.031 -23.02 0 1.918 -27.08 -29 -1.016 11.96 -23.02 -3.047
2.79 -2.031 8.915 4.965 -2.031 4.965 0 1.918 -24.04 -1.016 2.934 -18.06 -31.03 -4.063 9.931 -23.02 1.918
2.795 -1.016 10.95 6.997 0.9028 10.95 -2.031 -2.031 -20.09 -6.094 0 -2.031 -29 -11.06 3.95 -25.05 1.918
2.8 3.95 16.93 9.931 3.95 11.96 -7.109 0.9028 -15.01 -11.06 -3.047 11.96 -21.1 -19.07 0 -19.07 -2.031
2.805 7.899 22.91 15.91 6.997 9.931 -14.11 5.981 -6.094 -12.07 -5.078 26.97 -12.07 -31.03 -2.031 -14.11 0.9028
2.81 6.997 28.89 22.91 7.899 6.997 -19.07 15.91 -1.016 -16.02 -7.109 32.95 -2.031 -37.01 -7.109 -10.04 -6.094
2.815 3.95 26.97 23.92 6.997 1.918 -20.09 23.92 1.918 -20.09 -8.012 30.92 0 -39.05 -13.09 -10.04 -8.012
2.82 -1.016 20.99 20.99 7.899 1.918 -17.04 31.94 1.918 -24.04 -3.047 22.91 -1.016 -37.01 -17.04 -8.012 -6.094
2.825 -2.031 16.93 17.94 12.98 -2.031 -8.012 36 0 -22.01 -1.016 20.99 2.934 -29 -16.02 -4.063 0.9028
2.83 0 20.99 15.91 13.99 3.95 -3.047 37.92 0.9028 -17.04 -1.016 21.89 11.96 -15.01 -13.09 -2.031 5.981
2.835 2.934 28.89 20.99 18.96 6.997 0 40.96 -1.016 -8.012 0.9028 32.95 25.96 1.918 -9.028 9.931 17.94
2.84 2.934 36.9 20.99 23.92 8.915 -6.094 43 8.915 -1.016 1.918 46.94 36 12.98 -5.078 21.89 20.99
2.845 -2.031 38.93 21.89 25.96 3.95 -13.09 41.98 17.94 1.918 -2.031 53.94 43.9 23.92 -9.028 23.92 15.91
2.85 -1.016 32.95 17.94 27.99 0.9028 -11.06 39.95 28.89 6.997 4.965 52.93 43.9 36 -10.04 20.99 6.997
2.855 5.981 18.96 11.96 25.96 0.9028 -2.031 31.94 34.98 12.98 12.98 40.96 39.95 45.93 -6.094 12.98 -1.016
2.86 13.99 6.997 5.981 21.89 7.899 5.981 23.92 31.94 19.97 19.97 19.97 31.94 45.93 0.9028 1.918 -5.078
2.865 21.89 2.934 0 15.91 17.94 16.93 15.91 21.89 26.97 24.94 0 19.97 46.94 4.965 -2.031 -6.094
2.87 19.97 2.934 -2.031 9.931 21.89 14.9 5.981 3.95 28.89 25.96 -9.028 3.95 36.9 8.915 -8.012 -5.078
2.875 9.931 4.965 -1.016 5.981 17.94 1.918 0 -7.109 21.89 19.97 -17.04 -7.109 23.92 5.981 -11.06 -1.016
2.88 -2.031 2.934 -3.047 0 5.981 -8.012 0.9028 -17.04 9.931 11.96 -23.02 -19.07 10.95 -2.031 -13.09 0
2.885 -7.109 -1.016 -5.078 -2.031 -3.047 -20.09 -3.047 -19.07 0.9028 1.918 -29 -27.08 -1.016 -9.028 -15.01 5.981
2.89 -11.06 -3.047 -7.109 -2.031 -13.09 -25.05 -3.047 -13.09 -7.109 -1.016 -37.01 -29 -5.078 -17.04 -17.04 13.99
2.895 -11.06 -7.109 -7.109 -2.031 -17.04 -23.02 -3.047 -5.078 -11.06 -9.028 -45.03 -27.08 -5.078 -17.04 -21.1 21.89
2.9 -9.028 -7.109 -5.078 -2.031 -15.01 -15.01 -3.047 -2.031 -7.109 -11.06 -49.09 -23.02 -3.047 -9.028 -25.05 31.94
2.905 -9.028 -7.109 -5.078 -2.031 -9.028 -9.028 -1.016 1.918 -3.047 -9.028 -43.11 -19.07 0.9028 -2.031 -33.06 36
2.91 -9.028 -5.078 -3.047 0.9028 -9.028 -11.06 -1.016 3.95 -1.016 -5.078 -31.03 -21.1 -2.031 3.95 -41.08 33.97
2.915 -9.028 -5.078 -1.016 -3.047 -13.09 -15.01 0.9028 3.95 -3.047 -3.047 -19.07 -23.02 0.9028 1.918 -53.04 23.92
2.92 -11.06 -5.078 -1.016 -7.109 -19.07 -23.02 -2.031 1.918 -7.109 -5.078 -11.06 -29 -5.078 -3.047 -65 9.931
2.925 -13.09 -7.109 -1.016 -9.028 -25.05 -27.08 -2.031 -2.031 -11.06 -11.06 -17.04 -33.06 -17.04 -15.01 -75.04 -2.031
2.93 -17.04 -9.028 -5.078 -9.028 -29 -27.08 0.9028 -1.016 -15.01 -17.04 -31.03 -35.1 -29 -25.05 -79.11 -7.109
2.935 -17.04 -9.028 -9.028 -7.109 -29 -21.1 -1.016 -5.078 -15.01 -17.04 -45.03 -33.06 -37.01 -27.08 -79.11 -13.09
2.94 -11.06 -5.078 -13.09 -3.047 -25.05 -11.06 -3.047 -5.078 -15.01 -9.028 -51.01 -27.08 -39.05 -23.02 -69.06 -15.01
2.945 -1.016 0.9028 -11.06 0 -17.04 -3.047 0.9028 0.9028 -11.06 -2.031 -39.05 -13.09 -31.03 -17.04 -53.04 -13.09
2.95 3.95 4.965 -3.047 7.899 -7.109 0 1.918 5.981 -3.047 9.931 -17.04 -2.031 -17.04 -11.06 -33.06 -13.09
2.955 11.96 8.915 3.95 13.99 0.9028 3.95 9.931 17.94 1.918 15.91 3.95 13.99 0.9028 -11.06 -13.09 -15.01
2.96 13.99 12.98 9.931 15.91 3.95 7.899 17.94 29.9 13.99 15.91 21.89 21.89 11.96 -15.01 -2.031 -17.04
2.965 13.99 10.95 11.96 15.91 9.931 11.96 21.89 36 25.96 15.91 29.9 21.89 21.89 -17.04 7.899 -19.07
2.97 11.96 8.915 7.899 13.99 13.99 15.91 23.92 41.98 36 13.99 29.9 19.97 27.99 -19.07 13.99 -19.07
2.975 11.96 8.915 1.918 11.96 15.91 17.94 23.92 45.93 41.98 13.99 19.97 15.91 29.9 -15.01 15.91 -17.04
2.98 11.96 8.915 -2.031 9.931 13.99 13.99 23.92 47.96 41.98 9.931 9.931 11.96 29.9 -13.09 15.91 -15.01
2.985 3.95 6.997 0.9028 5.981 7.899 5.981 19.97 45.93 37.92 0 0 7.899 25.96 -11.06 11.96 -13.09
2.99 -1.016 -1.016 -1.016 1.918 0 0.9028 15.91 37.92 29.9 -5.078 -1.016 0 19.97 -15.01 5.981 -9.028
2.995 -11.06 -3.047 -3.047 -2.031 0.9028 -3.047 11.96 27.99 21.89 -15.01 -3.047 -9.028 9.931 -21.1 1.918 -3.047
3 -15.01 -7.109 -1.016 -2.031 0.9028 -1.016 11.96 17.94 13.99 -17.04 -2.031 -21.1 0 -23.02 0 0
3.005 -9.028 -3.047 0.9028 2.934 -2.031 -2.031 11.96 11.96 10.95 -13.09 5.981 -31.03 -3.047 -25.05 -2.031 8.915
3.01 -1.016 0.9028 6.997 8.915 0 -2.031 13.99 9.931 8.915 -11.06 11.96 -33.06 -4.063 -23.02 0.9028 12.98
3.015 0 8.915 11.96 9.931 -2.031 -3.047 11.96 5.981 1.918 -13.09 11.96 -33.06 -7.109 -25.05 -3.047 11.96
3.02 0 12.98 14.9 4.965 -3.047 -11.06 3.95 3.95 1.918 -21.1 5.981 -33.06 -10.04 -31.03 -8.012 6.997
3.025 -1.016 10.95 10.95 0.9028 -11.06 -17.04 -1.016 0.9028 -10.04 -29 -1.016 -35.1 -16.02 -39.05 -16.02 2.934
3.03 -3.047 6.997 7.899 0 -11.06 -13.09 0.9028 -3.047 -19.07 -33.06 -9.028 -39.05 -21.1 -41.08 -23.02 1.918
3.035 0.9028 4.965 9.931 7.899 -3.047 -4.063 0.9028 -1.016 -21.1 -28.1 -8.012 -32.05 -22.01 -36.11 -22.01 1.918
3.04 1.918 8.915 7.899 17.94 2.934 1.918 6.997 -1.016 -15.01 -20.09 -2.031 -24.04 -19.07 -22.01 -21.1 0
3.045 9.931 12.98 9.931 25.96 7.899 -2.031 13.99 5.981 -11.06 -15.01 0.9028 -15.01 -19.07 -9.028 -25.05 -3.047
3.05 11.96 14.9 11.96 29.9 10.95 0.9028 13.99 16.93 -5.078 -6.094 1.918 -1.016 -11.06 1.918 -26.07 -14.11
3.055 8.915 10.95 12.98 29.9 9.931 -1.016 11.96 19.97 0.9028 -2.031 -4.063 0.9028 -7.109 4.965 -32.05 -27.08
3.06 8.915 8.915 11.96 29.9 12.98 -3.047 14.9 26.97 3.95 -1.016 -7.109 7.899 0.9028 8.915 -29 -30.02
3.065 12.98 8.915 14.9 27.99 19.97 0 19.97 29.9 13.99 6.997 -4.063 18.96 5.981 14.9 -24.04 -31.03
3.07 15.91 10.95 15.91 25.96 24.94 3.95 25.96 34.98 27.99 18.96 3.95 29.9 19.97 20.99 -14.11 -22.01
3.075 15.91 14.9 13.99 23.92 23.92 3.95 25.96 31.94 39.95 27.99 15.91 33.97 25.96 21.89 -5.078 -21.1
3.08 3.95 12.98 11.96 19.97 14.9 -1.016 20.99 26.97 45.93 30.92 24.94 34.98 29.9 18.96 -1.016 -27.08
3.085 -3.047 8.915 9.931 11.96 1.918 0 10.95 13.99 37.92 26.97 26.97 26.97 22.91 12.98 -4.063 -31.03
3.09 -15.01 2.934 5.981 1.918 -3.047 -3.047 0 3.95 25.96 17.94 19.97 13.99 13.99 0 -11.06 -41.08
3.095 -19.07 0.9028 4.965 -1.016 -7.109 -1.016 1.918 -1.016 14.9 11.96 15.91 -2.031 2.934 0.9028 -14.11 -42.09
3.1 -13.09 0.9028 0.9028 -2.031 -3.047 0 -5.078 -11.06 4.965 7.899 13.99 -13.09 0 -3.047 -18.06 -36.11
3.105 -3.047 0.9028 -1.016 -5.078 0.9028 5.981 -13.09 -21.1 0 7.899 7.899 -23.02 -9.028 -3.047 -23.02 -29
3.11 0.9028 -1.016 -8.012 -12.07 -1.016 3.95 -23.02 -31.03 1.918 5.981 -2.031 -39.05 -18.06 -5.078 -27.08 -24.04
3.115 -1.016 -1.016 -18.06 -20.09 -11.06 0 -29 -43.11 -6.094 0 -11.06 -51.01 -28.1 -9.028 -31.03 -22.01
3.12 -7.109 -7.109 -25.05 -27.08 -19.07 0.9028 -33.06 -49.09 -21.1 -5.078 -21.1 -61.05 -41.08 -13.09 -33.06 -25.05
3.125 -15.01 -15.01 -29 -29 -25.05 -3.047 -31.03 -49.09 -39.05 -17.04 -23.02 -65 -55.07 -17.04 -31.03 -29
3.13 -21.1 -19.07 -31.03 -27.08 -25.05 -5.078 -31.03 -43.11 -55.07 -29 -19.07 -63.08 -69.06 -19.07 -25.05 -27.08
3.135 -19.07 -19.07 -29 -25.05 -21.1 -5.078 -31.03 -37.01 -67.03 -37.01 -9.028 -51.01 -77.08 -19.07 -13.09 -23.02
3.14 -11.06 -15.01 -27.08 -21.1 -17.04 -3.047 -31.03 -27.08 -69.06 -41.08 -3.047 -33.06 -75.04 -15.01 -2.031 -13.09
3.145 -1.016 -7.109 -23.02 -17.04 -15.01 -1.016 -27.08 -15.01 -61.05 -37.01 -3.047 -9.028 -61.05 -11.06 15.91 1.918
3.15 0 -1.016 -17.04 -11.06 -15.01 0.9028 -17.04 -1.016 -45.03 -25.05 -7.109 11.96 -33.06 -7.109 33.97 23.92
3.155 0 0.9028 -11.06 -7.109 -13.09 0 -5.078 5.981 -23.02 -13.09 -9.028 36 -3.047 -3.047 43.9 41.98
3.16 -2.031 0.9028 -9.028 -3.047 -9.028 7.899 -2.031 13.99 -5.078 -2.031 -5.078 53.94 21.89 -2.031 45.93 51.91
3.165 -2.031 -3.047 -7.109 -1.016 -1.016 15.91 1.918 19.97 3.95 11.96 0 63.98 43.9 3.95 43.9 51.91
3.17 0 -3.047 -5.078 0 5.981 23.92 3.95 19.97 13.99 25.96 9.931 69.97 57.89 11.96 39.95 49.99
3.175 9.931 -1.016 -3.047 7.899 15.91 29.9 3.95 21.89 21.89 37.92 17.94 72 67.93 23.92 41.98 45.93
3.18 21.89 8.915 0 19.97 25.96 33.97 7.899 27.99 31.94 49.99 17.94 73.92 77.98 37.92 45.93 45.93
3.185 31.94 20.99 7.899 31.94 31.94 36 15.91 33.97 41.98 57.89 11.96 73.92 85.99 47.96 51.91 45.93
3.19 37.92 30.92 15.91 37.92 36 36 21.89 36 47.96 57.89 1.918 63.98 83.96 51.91 49.99 41.98
3.195 37.92 34.98 19.97 39.95 36 31.94 23.92 31.94 47.96 51.91 0.9028 45.93 72 45.93 39.95 27.99
3.2 33.97 36.9 25.96 36 33.97 27.99 19.97 21.89 36 39.95 -3.047 23.92 45.93 36 21.89 9.931
3.205 33.97 38.93 29.9 31.94 31.94 25.96 17.94 9.931 19.97 27.99 -1.016 1.918 15.91 21.89 1.918 -5.078
3.21 37.92 43 36 29.9 31.94 23.92 17.94 1.918 3.95 19.97 0 -7.109 -7.109 13.99 -7.109 -19.07
3.215 45.93 48.98 39.95 29.9 33.97 23.92 19.97 1.918 -1.016 15.91 5.981 -11.06 -29 7.899 -17.04 -25.05
3.22 51.91 54.96 43.9 29.9 36 21.89 21.89 5.981 -3.047 13.99 9.931 -9.028 -41.08 7.899 -25.05 -25.05
3.225 53.94 58.91 41.98 25.96 33.97 17.94 19.97 5.981 -1.016 9.931 7.899 -11.06 -49.09 5.981 -29 -23.02
3.23 47.96 56.99 36 19.97 27.99 7.899 13.99 0 -1.016 5.981 1.918 -17.04 -55.07 1.918 -33.06 -21.1
3.235 33.97 46.94 25.96 9.931 17.94 0.9028 5.981 -5.078 -3.047 1.918 0.9028 -27.08 -55.07 -2.031 -32.05 -15.01
3.24 19.97 34.98 15.91 1.918 5.981 -9.028 -2.031 -17.04 -7.109 1.918 -3.047 -35.1 -47.06 -1.016 -28.1 -6.094
3.245 9.931 24.94 7.899 0.9028 -2.031 -11.06 -3.047 -23.02 -7.109 5.981 -3.047 -37.01 -33.06 -5.078 -21.1 -2.031
3.25 3.95 18.96 1.918 0.9028 -1.016 -9.028 -7.109 -25.05 -5.078 9.931 1.918 -30.02 -14.11 -6.094 -10.04 10.95
3.255 2.934 18.96 1.918 0.9028 -3.047 -5.078 -9.028 -25.05 -1.016 7.899 -1.016 -22.01 1.918 -8.012 0 18.96
3.26 3.95 22.91 1.918 -2.031 -3.047 -3.047 -11.06 -23.02 0.9028 1.918 1.918 -13.09 11.96 -7.109 5.981 23.92
3.265 6.997 26.97 3.95 -1.016 -3.047 -7.109 -13.09 -27.08 -2.031 -1.016 6.997 -6.094 18.96 0 21.89 30.92
3.27 4.965 26.97 1.918 1.918 -3.047 -15.01 -15.01 -35.1 -3.047 -9.028 10.95 0 26.97 4.965 36 41.98
3.275 1.918 16.93 0.9028 -7.109 -9.028 -27.08 -19.07 -41.08 -9.028 -9.028 15.91 1.918 29.9 13.99 57.89 53.94
3.28 0 4.965 -7.109 -14.11 -14.11 -33.06 -21.1 -44.01 -14.11 -6.094 19.97 11.96 39.95 21.89 76.96 65.9
3.285 -7.109 -5.078 -13.09 -18.06 -20.09 -37.01 -21.1 -40.06 -20.09 -6.094 17.94 17.94 41.98 19.97 85.99 72.9
3.29 -17.04 -7.109 -15.01 -19.07 -27.08 -37.01 -23.02 -35.1 -27.08 -13.09 15.91 23.92 37.92 17.94 85.99 65.9
3.295 -16.02 0.9028 -10.04 -14.11 -29 -32.05 -19.07 -27.08 -27.08 -21.1 14.9 26.97 27.99 9.931 76.96 51.91
3.3 -10.04 2.934 -6.094 -8.012 -25.05 -26.07 -16.02 -21.1 -32.05 -27.08 11.96 21.89 8.915 4.965 61.95 33.97
3.305 -3.047 14.9 0.9028 -1.016 -17.04 -14.11 -12.07 -21.1 -29 -26.07 9.931 16.93 -2.031 4.965 47.96 16.93
3.31 10.95 24.94 0.9028 6.997 0.9028 1.918 -10.04 -15.01 -22.01 -13.09 11.96 9.931 -12.07 6.997 36 1.918
3.315 24.94 30.92 4.965 14.9 11.96 14.9 -5.078 -5.078 -7.109 0 8.915 2.934 -17.04 9.931 22.91 -3.047
3.32 37.92 38.93 9.931 23.92 25.96 31.94 -1.016 0 1.918 17.94 7.899 0 -17.04 15.91 9.931 -9.028
3.325 53.94 46.94 15.91 30.92 36.9 43.9 0 10.95 16.93 28.89 1.918 -3.047 -17.04 23.92 -1.016 -12.07
3.33 64.89 52.93 19.97 34.98 44.91 53.94 5.981 8.915 26.97 34.98 1.918 -9.028 -21.1 29.9 -14.11 -15.01
3.335 67.93 54.96 21.89 31.94 49.99 57.89 11.96 1.918 29.9 33.97 -11.06 -21.1 -35.1 25.96 -27.08 -17.04
3.34 64.89 52.93 19.97 30.92 47.96 55.97 11.96 -3.047 27.99 29.9 -16.02 -26.07 -46.04 20.99 -37.01 -19.07
3.345 54.96 48.98 17.94 24.94 43.9 51.91 9.931 -15.01 21.89 23.92 -16.02 -30.02 -52.02 10.95 -45.03 -22.01
3.35 37.92 44.91 13.99 15.91 36 49.99 5.981 -15.01 9.931 13.99 -13.09 -31.03 -53.04 -2.031 -53.04 -21.1
3.355 24.94 40.96 15.91 13.99 27.99 47.96 1.918 -13.09 0 7.899 1.918 -26.07 -40.06 -2.031 -54.05 -16.02
3.36 17.94 38.93 17.94 11.96 25.96 47.96 0 -1.016 -3.047 1.918 8.915 -20.09 -20.09 -2.031 -48.07 -4.063
3.365 21.89 34.98 17.94 11.96 23.92 49.99 -2.031 7.899 -5.078 5.981 11.96 -11.06 -2.031 0 -39.05 3.95
3.37 29.9 30.92 17.94 13.99 27.99 49.99 0 21.89 0.9028 11.96 7.899 0 23.92 7.899 -22.01 18.96
3.375 36 26.97 17.94 13.99 27.99 49.99 5.981 33.97 5.981 17.94 0 17.94 45.93 13.99 -2.031 29.9
3.38 37.92 26.97 15.91 11.96 25.96 45.93 9.931 41.98 17.94 17.94 -5.078 31.94 63.98 15.91 5.981 33.97
3.385 29.9 24.94 13.99 7.899 19.97 39.95 11.96 47.96 29.9 13.99 -11.06 39.95 75.95 17.94 15.91 33.97
3.39 17.94 18.96 7.899 1.918 13.99 31.94 9.931 47.96 36 7.899 -11.06 41.98 79.9 19.97 19.97 29.9
3.395 3.95 8.915 3.95 0.9028 5.981 25.96 3.95 41.98 36 3.95 -3.047 37.92 75.95 21.89 23.92 23.92
3.4 -1.016 0.9028 0 -5.078 0 23.92 0 31.94 29.9 5.981 1.918 33.97 67.93 23.92 25.96 15.91
3.405 -1.016 -3.047 0 -7.109 -2.031 23.92 0.9028 19.97 21.89 9.931 13.99 29.9 53.94 21.89 29.9 5.981
3.41 -2.031 0.9028 1.918 -11.06 0.9028 25.96 -3.047 5.981 13.99 11.96 21.89 25.96 37.92 15.91 29.9 -3.047
3.415 1.918 6.997 1.918 -17.04 -3.047 23.92 -11.06 -7.109 5.981 5.981 23.92 17.94 17.94 3.95 27.99 -17.04
3.42 0 14.9 1.918 -25.05 -7.109 15.91 -21.1 -25.05 0.9028 -5.078 19.97 5.981 -1.016 -5.078 25.96 -33.06
3.425 -1.016 12.98 -2.031 -31.03 -13.09 5.981 -27.08 -43.11 -15.01 -23.02 11.96 -5.078 -29 -15.01 21.89 -43.11
3.43 -7.109 2.934 -3.047 -33.06 -19.07 -1.016 -31.03 -57.1 -35.1 -35.1 1.918 -21.1 -55.07 -19.07 21.89 -49.09
3.435 -7.109 -3.047 -7.109 -31.03 -21.1 -7.109 -29 -63.08 -53.04 -41.08 0.9028 -35.1 -77.08 -21.1 19.97 -47.06
3.44 -3.047 -9.028 -11.06 -25.05 -23.02 -3.047 -25.05 -65 -71.09 -43.11 -1.016 -47.06 -95.02 -23.02 13.99 -47.06
3.445 3.95 -5.078 -11.06 -19.07 -19.07 1.918 -23.02 -63.08 -81.02 -43.11 -3.047 -59.02 -107.1 -25.05 0 -53.04
3.45 11.96 4.965 -7.109 -11.06 -13.09 13.99 -23.02 -61.05 -85.09 -45.03 -5.078 -71.09 -115.1 -29 -17.04 -61.05
3.455 19.97 20.99 -2.031 -3.047 -1.016 19.97 -23.02 -55.07 -79.11 -45.03 -7.109 -81.02 -119.1 -33.06 -39.05 -73.01
3.46 23.92 36.9 11.96 3.95 7.899 23.92 -17.04 -47.06 -65 -39.05 -3.047 -83.06 -113.1 -35.1 -55.07 -77.08
3.465 29.9 44.91 27.99 15.91 23.92 25.96 -7.109 -33.06 -41.08 -25.05 -2.031 -75.04 -99.08 -31.03 -59.02 -75.04
3.47 39.95 48.98 37.92 29.9 37.92 29.9 0 -13.09 -11.06 -3.047 5.981 -58 -73.01 -23.02 -55.07 -65
3.475 53.94 46.94 39.95 36 49.99 37.92 13.99 3.95 13.99 11.96 7.899 -37.01 -41.08 -15.01 -47.06 -53.04
3.48 63.98 43 33.97 36 55.97 43.9 23.92 21.89 36.9 25.96 0 -14.11 -9.028 -7.109 -36.11 -43.11
3.485 67.93 40.96 27.99 29.9 55.97 45.93 31.94 34.98 50.89 27.99 -1.016 1.918 13.99 0.9028 -26.07 -35.1
3.49 63.98 43 25.96 21.89 53.94 41.98 37.92 36 51.91 23.92 0.9028 9.931 33.97 1.918 -13.09 -23.02
3.495 55.97 44.91 27.99 16.93 51.91 33.97 43 36.9 50.89 23.92 15.91 24.94 47.96 9.931 4.965 -3.047
3.5 49.99 46.94 29.9 16.93 52.93 27.99 44.91 30.92 48.98 25.96 44.91 36 63.98 21.89 26.97 21.89
3.505 43.9 40.96 27.99 13.99 45.93 21.89 37.92 23.92 45.93 23.92 61.95 39.95 77.98 36 45.93 55.97
3.51 36.9 24.94 15.91 6.997 34.98 15.91 22.91 14.9 43 15.91 58.91 39.95 86.89 45.93 56.99 75.95
3.515 22.91 8.915 0 1.918 16.93 3.95 6.997 5.981 33.97 0.9028 32.95 28.89 82.94 47.96 53.94 81.93
3.52 5.981 0.9028 -5.078 -5.078 0.9028 -1.016 -3.047 -2.031 19.97 -13.09 0.9028 13.99 69.97 41.98 33.97 69.97
3.525 -2.031 0.9028 -5.078 -5.078 -12.07 -10.04 -5.078 0.9028 8.915 -28.1 -22.01 3.95 52.93 26.97 16.93 45.93
3.53 -8.012 4.965 -2.031 0 -13.09 -18.06 -1.016 4.965 0.9028 -34.08 -27.08 6.997 32.95 8.915 4.965 23.92
3.535 -5.078 16.93 11.96 13.99 -7.109 -17.04 5.981 17.94 -2.031 -31.03 -15.01 15.91 17.94 -1.016 1.918 7.899
3.54 0.9028 28.89 19.97 25.96 1.918 -11.06 19.97 29.9 0.9028 -27.08 2.934 34.98 8.915 -7.109 12.98 4.965
3.545 8.915 28.89 22.91 32.95 10.95 -7.109 30.92 40.96 0.9028 -26.07 26.97 53.94 3.95 -9.028 29.9 7.899
3.55 10.95 30.92 18.96 27.99 16.93 -3.047 31.94 41.98 1.918 -23.02 37.92 67.93 0.9028 -11.06 46.94 9.931
3.555 12.98 28.89 16.93 24.94 22.91 0 30.92 38.93 4.965 -18.06 44.91 79.9 1.918 -9.028 59.92 9.931
3.56 16.93 36.9 17.94 23.92 25.96 3.95 29.9 36 14.9 -9.028 38.93 84.97 4.965 -7.109 62.97 8.915
3.565 25.96 44.91 21.89 27.99 29.9 7.899 25.96 36 29.9 1.918 25.96 79.9 7.899 -5.078 57.89 7.899
3.57 36.9 46.94 25.96 31.94 37.92 16.93 21.89 34.98 46.94 18.96 13.99 70.98 12.98 -1.016 44.91 7.899
3.575 46.94 44.91 23.92 36 43 22.91 17.94 25.96 58.91 26.97 -1.016 55.97 12.98 12.98 30.92 3.95
3.58 47.96 36.9 17.94 27.99 43.9 25.96 5.981 9.931 59.92 29.9 -3.047 33.97 5.981 19.97 11.96 -2.031
3.585 48.98 28.89 11.96 22.91 46.94 27.99 1.918 0.9028 55.97 32.95 -2.031 10.95 -1.016 25.96 0 -7.109
3.59 48.98 30.92 11.96 16.93 48.98 27.99 -6.094 -14.11 46.94 29.9 1.918 -3.047 -4.063 23.92 -6.094 -19.07
3.595 47.96 34.98 13.99 17.94 45.93 25.96 -9.028 -21.1 41.98 27.99 0 -13.09 -11.06 15.91 -13.09 -25.05
3.6 49.99 38.93 17.94 24.94 44.91 17.94 -6.094 -12.07 40.96 19.97 0.9028 -13.09 -15.01 5.981 -8.012 -27.08
3.605 47.96 38.93 19.97 30.92 39.95 7.899 -2.031 -2.031 40.96 7.899 -2.031 -12.07 -11.06 -2.031 1.918 -21.1
3.61 39.95 32.95 17.94 31.94 31.94 -2.031 -1.016 3.95 36 0.9028 0.9028 -3.047 -9.028 -3.047 7.899 -9.028
3.615 33.97 28.89 11.96 33.97 27.99 -1.016 1.918 16.93 24.94 -5.078 -2.031 8.915 -3.047 -3.047 24.94 0
3.62 23.92 26.97 13.99 31.94 23.92 -3.047 5.981 23.92 12.98 -7.109 5.981 26.97 1.918 -1.016 38.93 13.99
3.625 15.91 28.89 15.91 31.94 21.89 -5.078 11.96 33.97 3.95 -9.028 15.91 45.93 11.96 -2.031 49.99 25.96
3.63 7.899 30.92 15.91 29.9 17.94 -11.06 15.91 36 0 -15.01 27.99 54.96 17.94 0 55.97 31.94
3.635 -1.016 22.91 13.99 21.89 5.981 -21.1 11.96 31.94 0.9028 -25.05 29.9 55.97 21.89 -2.031 51.91 36
3.64 -17.04 10.95 9.931 11.96 -3.047 -31.03 5.981 21.89 -3.047 -37.01 27.99 41.98 25.96 0.9028 41.98 41.98
3.645 -27.08 -1.016 5.981 1.918 -15.01 -37.01 -2.031 9.931 -3.047 -39.05 19.97 21.89 31.94 0 29.9 49.99
3.65 -29 -1.016 3.95 0 -19.07 -33.06 -1.016 1.918 0.9028 -29 9.931 5.981 41.98 7.899 17.94 57.89
3.655 -21.1 0.9028 5.981 3.95 -13.09 -21.1 -5.078 -1.016 3.95 -11.06 -2.031 -2.031 51.91 15.91 7.899 61.95
3.66 -3.047 10.95 9.931 9.931 -1.016 -5.078 -5.078 -5.078 13.99 3.95 -7.109 -1.016 55.97 19.97 -2.031 55.97
3.665 9.931 20.99 13.99 17.94 7.899 1.918 -3.047 -9.028 25.96 17.94 -13.09 -3.047 51.91 11.96 -3.047 43.9
3.67 23.92 28.89 19.97 25.96 21.89 9.931 0.9028 -7.109 33.97 23.92 -15.01 -1.016 43.9 0 -5.078 27.99
3.675 33.97 32.95 31.94 37.92 33.97 11.96 5.981 0 41.98 23.92 -7.109 0 39.95 -7.109 -1.016 15.91
3.68 39.95 36.9 45.93 55.97 45.93 15.91 25.96 23.92 51.91 25.96 3.95 15.91 41.98 -13.09 7.899 11.96
3.685 43.9 40.96 59.92 72 55.97 19.97 49.99 55.97 61.95 29.9 27.99 39.95 51.91 -11.06 25.96 15.91
3.69 45.93 46.94 65.9 83.96 63.98 25.96 67.93 83.96 72 36 51.91 65.9 61.95 -9.028 41.98 21.89
3.695 47.96 50.89 63.98 85.99 67.93 31.94 77.98 97.95 73.92 39.95 67.93 83.96 65.9 -7.109 53.94 27.99
3.7 45.93 52.93 55.97 73.92 65.9 36 77.98 99.98 69.97 37.92 72 89.94 63.98 -7.109 57.89 27.99
3.705 43.9 52.93 47.96 59.92 59.92 36 72 91.97 61.95 33.97 65.9 83.96 57.89 -5.078 55.97 25.96
3.71 39.95 48.98 39.95 43.9 51.91 33.97 63.98 79.9 53.94 25.96 51.91 73.92 49.99 0.9028 51.91 23.92
3.715 33.97 40.96 29.9 27.99 39.95 27.99 53.94 65.9 47.96 19.97 37.92 59.92 41.98 7.899 44.91 21.89
3.72 19.97 22.91 13.99 9.931 25.96 15.91 33.97 45.93 36 13.99 21.89 41.98 27.99 13.99 29.9 21.89
3.725 -2.031 0.9028 -6.094 -8.012 4.965 4.965 5.981 17.94 17.94 4.965 4.965 19.97 12.98 11.96 12.98 22.91
3.73 -24.04 -31.03 -36.11 -38.03 -16.02 -6.094 -25.05 -15.01 -5.078 0 -8.012 -1.016 -2.031 2.934 0 22.91
3.735 -53.04 -61.05 -61.05 -67.03 -45.03 -19.07 -55.07 -53.04 -33.06 -11.06 -23.02 -23.02 -17.04 -3.047 -11.06 21.89
3.74 -72.11 -77.08 -72.11 -84.07 -64.1 -28.1 -71.09 -79.11 -54.05 -18.06 -32.05 -35.1 -16.02 -6.094 -10.04 22.91
3.745 -82.04 -85.09 -76.06 -90.05 -76.06 -32.05 -73.01 -87.01 -64.1 -22.01 -30.02 -35.1 -6.094 -4.063 -3.047 24.94
3.75 -81.02 -87.01 -71.09 -85.09 -81.02 -33.06 -67.03 -79.11 -61.05 -21.1 -25.05 -27.08 1.918 0.9028 0.9028 21.89
3.755 -72.11 -81.02 -63.08 -75.04 -76.06 -31.03 -54.05 -64.1 -50.1 -15.01 -21.1 -18.06 8.915 -1.016 0 15.91
3.76 -64.1 -71.09 -57.1 -63.08 -67.03 -27.08 -44.01 -44.01 -40.06 -9.028 -23.02 -12.07 5.981 -1.016 0 1.918
3.765 -53.04 -65 -49.09 -53.04 -55.07 -23.02 -35.1 -27.08 -31.03 -9.028 -29 -9.028 -1.016 -9.028 -11.06 -9.028
3.77 -43.11 -55.07 -36.11 -40.06 -36.11 -14.11 -20.09 -10.04 -21.1 -4.063 -26.07 -2.031 -12.07 -15.01 -15.01 -22.01
3.775 -30.02 -45.03 -25.05 -23.02 -14.11 -3.047 0.9028 0.9028 -17.04 -1.016 -21.1 0.9028 -16.02 -12.07 -18.06 -29
3.78 -15.01 -37.01 -13.09 -13.09 -2.031 0.9028 7.899 13.99 -13.09 -1.016 -11.06 9.931 -17.04 -9.028 -15.01 -29
3.785 -1.016 -29 -9.028 -5.078 6.997 1.918 18.96 18.96 -7.109 -1.016 -8.012 14.9 -14.11 -1.016 -17.04 -26.07
3.79 0.9028 -25.05 -10.04 -7.109 4.965 -6.094 20.99 17.94 -6.094 -4.063 -15.01 8.915 -15.01 0.9028 -24.04 -25.05
3.795 0 -19.07 -19.07 -18.06 -3.047 -14.11 9.931 12.98 -9.028 -12.07 -29 0 -12.07 0.9028 -33.06 -27.08
3.8 -9.028 -21.1 -24.04 -23.02 -8.012 -18.06 0.9028 3.95 -10.04 -18.06 -43.11 -14.11 -13.09 1.918 -48.07 -31.03
3.805 -11.06 -21.1 -27.08 -27.08 -12.07 -15.01 -2.031 1.918 -15.01 -17.04 -48.07 -24.04 -12.07 3.95 -59.02 -34.08
3.81 -13.09 -21.1 -23.02 -27.08 -13.09 -11.06 -9.028 -5.078 -17.04 -15.01 -41.08 -31.03 -9.028 5.981 -63.08 -35.1
3.815 -8.012 -17.04 -19.07 -21.1 -6.094 -3.047 -11.06 -10.04 -21.1 -11.06 -37.01 -34.08 -6.094 10.95 -62.07 -31.03
3.82 -1.016 -17.04 -14.11 -22.01 -8.012 -4.063 -14.11 -18.06 -23.02 -12.07 -38.03 -44.01 -10.04 9.931 -61.05 -26.07
3.825 0 -19.07 -15.01 -29 -13.09 -11.06 -15.01 -31.03 -27.08 -15.01 -47.06 -55.07 -17.04 7.899 -61.05 -23.02
3.83 0.9028 -17.04 -17.04 -31.03 -15.01 -17.04 -16.02 -34.08 -32.05 -19.07 -53.04 -66.02 -23.02 5.981 -54.05 -19.07
3.835 0 -17.04 -19.07 -33.06 -22.01 -23.02 -14.11 -36.11 -32.05 -21.1 -49.09 -74.03 -32.05 -1.016 -49.09 -9.028
3.84 -9.028 -15.01 -19.07 -31.03 -27.08 -31.03 -15.01 -31.03 -33.06 -25.05 -37.01 -73.01 -35.1 -5.078 -37.01 -1.016
3.845 -18.06 -11.06 -12.07 -22.01 -32.05 -36.11 -10.04 -23.02 -34.08 -28.1 -14.11 -61.05 -38.03 -10.04 -19.07 4.965
3.85 -26.07 -7.109 -6.094 -14.11 -40.06 -44.01 -3.047 -13.09 -38.03 -32.05 -1.016 -43.11 -38.03 -14.11 -4.063 12.98
3.855 -33.06 -9.028 -5.078 -11.06 -49.09 -53.04 0.9028 -5.078 -41.08 -43.11 7.899 -25.05 -37.01 -21.1 1.918 13.99
3.86 -38.03 -11.06 -2.031 -10.04 -52.02 -52.02 3.95 0 -41.08 -46.04 12.98 -7.109 -34.08 -22.01 10.95 8.915
3.865 -47.06 -19.07 -2.031 -10.04 -48.07 -48.07 9.931 11.96 -35.1 -44.01 8.915 5.981 -30.02 -23.02 16.93 2.934
3.87 -51.01 -29 -3.047 -13.09 -41.08 -41.08 15.91 25.96 -23.02 -37.01 3.95 19.97 -21.1 -21.1 19.97 0
3.875 -53.04 -33.06 -1.016 -9.028 -31.03 -31.03 23.92 41.98 -5.078 -25.05 1.918 36 -3.047 -17.04 26.97 5.981
3.88 -47.06 -29 -2.031 -3.047 -19.07 -23.02 36 57.89 9.931 -11.06 0 51.91 17.94 -11.06 31.94 17.94
3.885 -37.01 -23.02 1.918 0 -9.028 -15.01 43.9 67.93 31.94 -2.031 3.95 61.95 43.9 -1.016 36 29.9
3.89 -21.1 -13.09 1.918 1.918 -1.016 -5.078 45.93 67.93 49.99 9.931 7.899 63.98 65.9 5.981 36 36
3.895 -9.028 -9.028 -2.031 0 -2.031 3.95 37.92 53.94 59.92 19.97 13.99 53.94 79.9 17.94 31.94 33.97
3.9 -1.016 -7.109 -3.047 -5.078 -2.031 17.94 19.97 29.9 61.95 25.96 17.94 36 81.93 23.92 21.89 27.99
3.905 -2.031 -9.028 -11.06 -17.04 0.9028 25.96 0 5.981 51.91 27.99 13.99 13.99 73.92 25.96 9.931 19.97
3.91 0.9028 -11.06 -17.04 -27.08 -3.047 25.96 -11.06 -11.06 37.92 23.92 0 -7.109 59.92 19.97 0.9028 13.99
3.915 -5.078 -15.01 -23.02 -35.1 -7.109 17.94 -25.05 -27.08 21.89 13.99 -17.04 -35.1 37.92 7.899 -17.04 5.981
3.92 -11.06 -17.04 -31.03 -43.11 -11.06 5.981 -35.1 -41.08 3.95 0 -39.05 -65 9.931 -1.016 -37.01 -3.047
3.925 -13.09 -23.02 -37.01 -49.09 -17.04 0.9028 -43.11 -55.07 -7.109 -7.109 -55.07 -93.1 -13.09 -11.06 -57.1 -21.1
3.93 -17.04 -29 -39.05 -57.1 -27.08 -5.078 -47.06 -67.03 -23.02 -15.01 -65 -115.1 -43.11 -15.01 -73.01 -37.01
3.935 -21.1 -33.06 -37.01 -61.05 -37.01 -7.109 -47.06 -77.08 -41.08 -21.1 -65 -127.1 -67.03 -15.01 -79.11 -45.03
3.94 -31.03 -35.1 -29 -59.02 -51.01 -11.06 -41.08 -77.08 -57.1 -29 -57.1 -125 -85.09 -11.06 -77.08 -41.08
3.945 -43.11 -33.06 -19.07 -53.04 -61.05 -17.04 -31.03 -69.06 -69.06 -41.08 -41.08 -109 -91.07 -7.109 -69.06 -25.05
3.95 -55.07 -27.08 -11.06 -43.11 -67.03 -25.05 -19.07 -55.07 -75.04 -53.04 -21.1 -87.01 -85.09 -3.047 -55.07 -9.028
3.955 -59.02 -21.1 -5.078 -35.1 -67.03 -31.03 -9.028 -41.08 -71.09 -59.02 -1.016 -63.08 -73.01 -1.016 -39.05 0
3.96 -53.04 -17.04 -3.047 -31.03 -63.08 -31.03 -3.047 -31.03 -63.08 -57.1 9.931 -41.08 -55.07 -5.078 -25.05 5.981
3.965 -41.08 -17.04 -3.047 -31.03 -57.1 -27.08 0.9028 -25.05 -55.07 -47.06 13.99 -19.07 -41.08 -11.06 -13.09 7.899
3.97 -29 -19.07 -3.047 -33.06 -53.04 -21.1 1.918 -23.02 -51.01 -33.06 11.96 0 -30.02 -19.07 -2.031 9.931
3.975 -22.01 -19.07 -1.016 -33.06 -49.09 -15.01 7.899 -21.1 -44.01 -21.1 7.899 16.93 -20.09 -25.05 17.94 15.91
3.98 -23.02 -15.01 0.9028 -31.03 -45.03 -9.028 11.96 -17.04 -39.05 -15.01 7.899 36 -9.028 -27.08 41.98 25.96
3.985 -24.04 -9.028 0.9028 -25.05 -35.1 -3.047 11.96 -7.109 -28.1 -13.09 13.99 52.93 4.965 -21.1 59.92 39.95
3.99 -22.01 -1.016 -2.031 -19.07 -23.02 -2.031 7.899 0.9028 -16.02 -7.109 23.92 66.92 24.94 -9.028 74.93 52.93
3.995 -13.09 0.9028 0 -11.06 -9.028 5.981 1.918 5.981 -3.047 -2.031 29.9 65.9 49.99 0 75.95 59.92
4 -1.016 4.965 4.965 -5.078 -1.016 13.99 -2.031 12.98 6.997 9.931 26.97 63.98 72 9.931 70.98 64.89
4.005 12.98 4.965 8.915 0.9028 4.965 17.94 0.9028 12.98 14.9 19.97 16.93 47.96 77.98 17.94 54.96 60.94
4.01 17.94 2.934 9.931 0 0 17.94 -2.031 3.95 11.96 23.92 1.918 25.96 69.97 15.91 36 51.91
4.015 13.99 0.9028 10.95 0.9028 0 15.91 0.9028 1.918 3.95 15.91 -6.094 8.915 54.96 15.91 20.99 40.96
4.02 -1.016 -1.016 2.934 -7.109 -4.063 10.95 0.9028 -8.012 -1.016 3.95 -19.07 -7.109 36 11.96 7.899 29.9
4.025 -13.09 -5.078 -1.016 -13.09 -7.109 3.95 -7.109 -13.09 -5.078 -3.047 -29 -21.1 15.91 9.931 -1.016 13.99
4.03 -19.07 -9.028 -6.094 -14.11 -4.063 2.934 -10.04 -10.04 -3.047 -5.078 -32.05 -32.05 1.918 8.915 -11.06 1.918
4.035 -23.02 -11.06 -9.028 -12.07 0.9028 0 -11.06 -7.109 0.9028 -1.016 -33.06 -39.05 -8.012 3.95 -23.02 -6.094
4.04 -16.02 -7.109 0 -6.094 0 0.9028 -11.06 -6.094 -2.031 3.95 -23.02 -45.03 -18.06 1.918 -36.11 -16.02
4.045 -5.078 -3.047 3.95 -2.031 0.9028 0 -7.109 -5.078 3.95 9.931 -15.01 -49.09 -28.1 0 -43.11 -22.01
4.05 1.918 2.934 14.9 -2.031 -6.094 0.9028 -4.063 -12.07 0 11.96 -2.031 -54.05 -35.1 -1.016 -51.01 -23.02
4.055 0 -1.016 15.91 -7.109 -9.028 -2.031 -7.109 -17.04 -2.031 7.899 -2.031 -55.07 -39.05 -2.031 -55.07 -21.1
4.06 -1.016 2.934 12.98 -7.109 -10.04 0.9028 -5.078 -16.02 1.918 5.981 5.981 -51.01 -33.06 0 -47.06 -9.028
4.065 0.9028 -1.016 10.95 -7.109 -6.094 0.9028 0.9028 -10.04 -2.031 7.899 8.915 -36.11 -22.01 5.981 -36.11 -1.016
4.07 -3.047 0.9028 7.899 -5.078 -3.047 0.9028 1.918 -1.016 3.95 7.899 5.981 -15.01 -9.028 11.96 -19.07 15.91
4.075 -4.063 0.9028 10.95 -3.047 -1.016 -3.047 9.931 4.965 8.915 5.981 6.997 0 1.918 15.91 -2.031 26.97
4.08 -8.012 0.9028 8.915 -5.078 0 -9.028 15.91 10.95 6.997 -2.031 4.965 17.94 9.931 13.99 4.965 28.89
4.085 -15.01 0.9028 5.981 -11.06 -9.028 -19.07 13.99 9.931 -2.031 -13.09 1.918 21.89 9.931 5.981 3.95 21.89
4.09 -22.01 -5.078 -2.031 -17.04 -19.07 -27.08 5.981 1.918 -12.07 -29 1.918 18.96 8.915 -1.016 -1.016 16.93
4.095 -28.1 -13.09 -3.047 -19.07 -25.05 -31.03 0.9028 -1.016 -24.04 -39.05 3.95 12.98 4.965 -11.06 -3.047 9.931
4.1 -27.08 -13.09 -7.109 -15.01 -23.02 -27.08 -3.047 -5.078 -31.03 -39.05 9.931 9.931 5.981 -15.01 -5.078 11.96
4.105 -16.02 -7.109 -5.078 -9.028 -17.04 -21.1 -3.047 -1.016 -26.07 -35.1 13.99 14.9 12.98 -11.06 -1.016 17.94
4.11 -7.109 -3.047 -1.016 -3.047 -11.06 -13.09 0.9028 1.918 -17.04 -31.03 7.899 26.97 22.91 -5.078 5.981 23.92
4.115 -1.016 -1.016 0.9028 -1.016 -7.109 -9.028 0 9.931 -7.109 -29 -2.031 36 29.9 -3.047 19.97 29.9
4.12 0.9028 -1.016 0.9028 -1.016 -5.078 -7.109 3.95 15.91 -2.031 -27.08 -7.109 45.93 36 -5.078 33.97 31.94
4.125 -2.031 -3.047 -2.031 0.9028 0.9028 -3.047 3.95 17.94 7.899 -21.1 -9.028 51.91 39.95 -5.078 45.93 31.94
4.13 1.918 -1.016 0 1.918 7.899 0 1.918 15.91 15.91 -7.109 -1.016 51.91 43.9 -1.016 53.94 31.94
4.135 9.931 0.9028 3.95 11.96 21.89 11.96 1.918 13.99 25.96 7.899 7.899 45.93 41.98 3.95 53.94 27.99
4.14 17.94 4.965 5.981 15.91 33.97 25.96 0 9.931 36 25.96 17.94 31.94 33.97 17.94 41.98 19.97
4.145 19.97 4.965 3.95 11.96 36 33.97 -1.016 1.918 37.92 33.97 15.91 13.99 17.94 23.92 19.97 5.981
4.15 13.99 0.9028 0.9028 0 27.99 33.97 -9.028 -5.078 31.94 29.9 1.918 -5.078 -1.016 19.97 -3.047 -7.109
4.155 1.918 -7.109 -7.109 -9.028 17.94 29.9 -21.1 -19.07 19.97 17.94 -15.01 -31.03 -29 5.981 -35.1 -27.08
4.16 -3.047 -13.09 -13.09 -17.04 9.931 23.92 -31.03 -33.06 5.981 5.981 -35.1 -53.04 -53.04 -5.078 -63.08 -41.08
4.165 -3.047 -9.028 -13.09 -13.09 7.899 21.89 -31.03 -37.01 -3.047 0 -47.06 -67.03 -71.09 -15.01 -81.02 -49.09
4.17 0 0.9028 -7.109 -1.016 11.96 23.92 -23.02 -33.06 -9.028 1.918 -45.03 -69.06 -75.04 -13.09 -85.09 -43.11
4.175 11.96 10.95 -2.031 11.96 21.89 27.99 -7.109 -19.07 -9.028 11.96 -29 -53.04 -63.08 -1.016 -73.01 -29
4.18 21.89 20.99 5.981 25.96 29.9 31.94 7.899 0.9028 -1.016 23.92 -5.078 -23.02 -39.05 9.931 -51.01 -5.078
4.185 23.92 26.97 11.96 33.97 36 27.99 21.89 13.99 5.981 37.92 11.96 7.899 -7.109 19.97 -21.1 15.91
4.19 17.94 24.94 11.96 31.94 33.97 19.97 27.99 25.96 17.94 43.9 23.92 41.98 17.94 19.97 0 36
4.195 5.981 16.93 5.981 21.89 25.96 3.95 21.89 27.99 25.96 37.92 19.97 61.95 39.95 9.931 19.97 47.96
4.2 -1.016 2.934 -2.031 7.899 9.931 -7.109 11.96 21.89 23.92 23.92 5.981 69.97 49.99 0.9028 33.97 53.94
4.205 -7.109 -5.078 -5.078 0.9028 0.9028 -17.04 3.95 15.91 17.94 5.981 -3.047 72 51.91 -5.078 43.9 57.89
4.21 -5.078 -11.06 -3.047 0.9028 -5.078 -19.07 1.918 15.91 13.99 -1.016 -5.078 77.98 53.94 -3.047 55.97 63.98
4.215 0.9028 -3.047 1.918 5.981 0 -15.01 9.931 25.96 15.91 -5.078 1.918 85.99 61.95 1.918 67.93 67.93
4.22 6.997 6.997 15.91 19.97 4.965 -7.109 21.89 37.92 25.96 -3.047 19.97 93.89 69.97 11.96 75.95 67.93
4.225 11.96 18.96 27.99 29.9 13.99 -3.047 27.99 45.93 37.92 0.9028 37.92 89.94 69.97 15.91 72 53.94
4.23 12.98 22.91 25.96 30.92 16.93 -6.094 23.92 39.95 43.9 0 39.95 72 53.94 9.931 53.94 27.99
4.235 2.934 14.9 15.91 20.99 12.98 -12.07 13.99 23.92 36 -8.012 29.9 41.98 23.92 1.918 27.99 -1.016
4.24 -1.016 2.934 3.95 11.96 1.918 -15.01 1.918 3.95 19.97 -19.07 17.94 13.99 -3.047 -11.06 1.918 -29
4.245 -2.031 -1.016 -1.016 8.915 0 -10.04 1.918 -6.094 3.95 -20.09 6.997 -1.016 -32.05 -18.06 -7.109 -47.06
4.25 1.918 0.9028 0.9028 12.98 3.95 0 0.9028 -10.04 -5.078 -14.11 4.965 -11.06 -52.02 -18.06 -13.09 -51.01
4.255 5.981 14.9 7.899 19.97 9.931 3.95 5.981 -11.06 -9.028 -3.047 9.931 -17.04 -65 -19.07 -15.01 -49.09
4.26 9.931 28.89 12.98 27.99 20.99 9.931 10.95 -10.04 -17.04 1.918 12.98 -22.01 -74.03 -12.07 -17.04 -47.06
4.265 14.9 28.89 12.98 22.91 24.94 7.899 8.915 -13.09 -24.04 0 13.99 -34.08 -84.07 -7.109 -25.05 -42.09
4.27 9.931 18.96 5.981 11.96 23.92 5.981 1.918 -19.07 -31.03 0.9028 3.95 -51.01 -89.04 -7.109 -33.06 -39.05
4.275 5.981 4.965 0.9028 2.934 18.96 3.95 1.918 -24.04 -34.08 0 1.918 -55.07 -86.1 -5.078 -34.08 -32.05
4.28 1.918 0.9028 0 1.918 10.95 4.965 0 -21.1 -31.03 -1.016 1.918 -47.06 -74.03 -3.047 -27.08 -21.1
4.285 0.9028 -1.016 4.965 -1.016 7.899 6.997 -2.031 -9.028 -18.06 -2.031 1.918 -33.06 -51.01 1.918 -13.09 -6.094
4.29 3.95 0.9028 15.91 6.997 8.915 4.965 6.997 -2.031 -2.031 5.981 14.9 -5.078 -22.01 1.918 0 3.95
4.295 7.899 10.95 22.91 14.9 12.98 1.918 14.9 10.95 16.93 14.9 26.97 13.99 0.9028 7.899 20.99 20.99
4.3 9.931 18.96 29.9 23.92 17.94 3.95 19.97 21.89 36 21.89 33.97 33.97 27.99 11.96 41.98 33.97
4.305 12.98 18.96 32.95 26.97 22.91 7.899 24.94 27.99 52.93 31.94 33.97 56.99 54.96 19.97 61.95 50.89
4.31 13.99 16.93 28.89 25.96 24.94 11.96 24.94 32.95 65.9 41.98 24.94 76.96 80.91 20.99 81.93 63.98
4.315 11.96 8.915 19.97 17.94 21.89 7.899 19.97 33.97 69.97 43.9 13.99 91.97 101.9 17.94 93.89 72
4.32 8.915 2.934 16.93 12.98 19.97 2.934 16.93 40.96 69.97 40.96 10.95 101.9 115 14.9 99.98 75.95
4.325 -1.016 4.965 16.93 12.98 15.91 0 14.9 48.98 61.95 28.89 16.93 108 116.9 14.9 99.98 75.95
4.33 -5.078 10.95 19.97 15.91 9.931 -11.06 13.99 53.94 53.94 15.91 29.9 103.9 108 13.99 95.92 67.93
4.335 -12.07 14.9 27.99 20.99 6.997 -12.07 17.94 57.89 45.93 8.915 39.95 97.95 99.98 16.93 87.91 59.92
4.34 -14.11 16.93 29.9 20.99 6.997 -12.07 19.97 55.97 41.98 6.997 41.98 87.91 83.96 17.94 75.95 47.96
4.345 -13.09 12.98 25.96 15.91 1.918 -9.028 13.99 39.95 33.97 7.899 31.94 67.93 67.93 15.91 61.95 31.94
4.35 -6.094 0.9028 13.99 3.95 -1.016 -7.109 3.95 21.89 23.92 5.981 13.99 43.9 47.96 9.931 41.98 11.96
4.355 -1.016 -5.078 1.918 -3.047 0 -7.109 -3.047 0 3.95 -2.031 0 15.91 23.92 1.918 19.97 -7.109
4.36 0 -11.06 0 -7.109 -1.016 -5.078 -11.06 -11.06 -9.028 -5.078 -2.031 -3.047 0 -1.016 3.95 -25.05
4.365 7.899 -7.109 5.981 -3.047 -2.031 -3.047 -9.028 -17.04 -21.1 -11.06 7.899 -15.01 -15.01 -7.109 0.9028 -37.01
4.37 11.96 -1.016 15.91 0 5.981 0.9028 0.9028 -13.09 -25.05 -13.09 25.96 -17.04 -27.08 -11.06 -3.047 -37.01
4.375 9.931 2.934 21.89 5.981 9.931 0 5.981 -5.078 -19.07 -9.028 37.92 -13.09 -31.03 -15.01 -5.078 -33.06
4.38 5.981 8.915 21.89 7.899 9.931 5.981 11.96 0.9028 -11.06 -3.047 41.98 -11.06 -31.03 -17.04 -9.028 -27.08
4.385 1.918 12.98 17.94 9.931 9.931 11.96 11.96 0 0.9028 0 33.97 -9.028 -31.03 -15.01 -17.04 -23.02
4.39 3.95 18.96 17.94 11.96 11.96 17.94 9.931 5.981 7.899 9.931 21.89 -11.06 -29 -9.028 -25.05 -25.05
4.395 11.96 24.94 19.97 17.94 23.92 23.92 7.899 13.99 21.89 19.97 7.899 -9.028 -25.05 0.9028 -27.08 -25.05
4.4 21.89 30.92 25.96 25.96 37.92 29.9 7.899 25.96 37.92 29.9 0.9028 -1.016 -17.04 7.899 -19.07 -25.05
4.405 29.9 32.95 27.99 29.9 49.99 31.94 9.931 36 53.94 33.97 -5.078 9.931 -3.047 15.91 -5.078 -17.04
4.41 31.94 24.94 23.92 25.96 49.99 27.99 9.931 41.98 61.95 29.9 -3.047 29.9 11.96 17.94 9.931 -3.047
4.415 25.96 8.915 11.96 15.91 37.92 17.94 9.931 41.98 61.95 19.97 0 51.91 29.9 15.91 33.97 7.899
4.42 11.96 -1.016 0 3.95 17.94 7.899 7.899 36 53.94 7.899 15.91 67.93 43.9 11.96 57.89 23.92
4.425 0.9028 -13.09 -5.078 -3.047 0 -2.031 1.918 29.9 39.95 1.918 31.94 79.9 51.91 9.931 77.98 37.92
4.43 -13.09 -19.07 -9.028 -11.06 -7.109 -5.078 -2.031 21.89 23.92 1.918 37.92 81.93 51.91 11.96 87.91 45.93
4.435 -23.02 -19.07 -13.09 -15.01 -15.01 -9.028 -1.016 13.99 7.899 1.918 29.9 75.95 43.9 13.99 85.99 43.9
4.44 -29 -23.02 -15.01 -19.07 -19.07 -11.06 -5.078 7.899 -3.047 1.918 11.96 59.92 29.9 11.96 72 36
4.445 -33.06 -27.08 -17.04 -25.05 -25.05 -13.09 -7.109 0 -17.04 -1.016 -5.078 39.95 15.91 5.981 49.99 21.89
4.45 -35.1 -31.03 -13.09 -27.08 -31.03 -13.09 -7.109 -1.016 -25.05 -9.028 -17.04 19.97 1.918 0.9028 27.99 5.981
4.455 -31.03 -33.06 -7.109 -27.08 -31.03 -9.028 -5.078 -5.078 -27.08 -15.01 -13.09 5.981 -1.016 -7.109 9.931 -1.016
4.46 -29 -23.02 -2.031 -20.09 -21.1 -3.047 -3.047 -7.109 -17.04 -15.01 0 -2.031 0 -9.028 0 -11.06
4.465 -20.09 -7.109 8.915 -8.012 -1.016 0 -3.047 -7.109 -2.031 -5.078 13.99 -1.016 -1.016 -5.078 -5.078 -19.07
4.47 -17.04 -1.016 13.99 0.9028 9.931 5.981 -3.047 -5.078 5.981 1.918 15.91 -3.047 1.918 -2.031 -17.04 -29
4.475 -8.012 10.95 12.98 2.934 21.89 9.931 -5.078 -7.109 14.9 7.899 -2.031 -9.028 2.934 0 -31.03 -43.11
4.48 -2.031 12.98 8.915 0.9028 19.97 7.899 -5.078 -11.06 10.95 3.95 -21.1 -21.1 0 1.918 -45.03 -61.05
4.485 0.9028 8.915 3.95 -1.016 3.95 3.95 -5.078 -15.01 -2.031 -1.016 -39.05 -35.1 -21.1 -11.06 -57.1 -77.08
4.49 -1.016 2.934 6.997 -8.012 -7.109 0.9028 -4.063 -22.01 -16.02 -17.04 -37.01 -52.02 -45.03 -24.04 -63.08 -84.07
4.495 -1.016 2.934 9.931 -11.06 -14.11 -7.109 -2.031 -26.07 -34.08 -29 -17.04 -60.04 -71.09 -30.02 -63.08 -82.04
4.5 0.9028 6.997 11.96 -9.028 -13.09 -9.028 -1.016 -23.02 -45.03 -31.03 1.918 -61.05 -85.09 -21.1 -61.05 -71.09
4.505 0.9028 10.95 13.99 -2.031 -6.094 -7.109 -1.016 -12.07 -43.11 -21.1 20.99 -50.1 -80.01 0 -59.02 -50.1
4.51 -6.094 2.934 6.997 -2.031 0 -4.063 3.95 0.9028 -32.05 -8.012 18.96 -34.08 -69.06 15.91 -57.1 -34.08
4.515 -17.04 -9.028 -1.016 -7.109 -5.078 -3.047 1.918 7.899 -15.01 -2.031 -2.031 -19.07 -45.03 29.9 -51.01 -23.02
4.52 -31.03 -31.03 -17.04 -18.06 -15.01 -4.063 1.918 16.93 -1.016 2.934 -15.01 -4.063 -17.04 33.97 -38.03 -14.11
4.525 -53.04 -51.01 -28.1 -31.03 -29 -13.09 -5.078 17.94 2.934 -2.031 -26.07 4.965 6.997 24.94 -19.07 -1.016
4.53 -69.06 -61.05 -36.11 -44.01 -36.11 -20.09 -11.06 15.91 5.981 0 -17.04 14.9 30.92 20.99 0 8.915
4.535 -75.04 -61.05 -38.03 -49.09 -41.08 -27.08 -17.04 9.931 2.934 -3.047 1.918 26.97 50.89 20.99 25.96 33.97
4.54 -69.06 -53.04 -39.05 -50.1 -41.08 -30.02 -18.06 2.934 1.918 -2.031 21.89 36.9 61.95 27.99 44.91 56.99
4.545 -63.08 -45.03 -37.01 -51.01 -41.08 -33.06 -21.1 0.9028 0 -5.078 31.94 36 63.98 29.9 55.97 72
4.55 -56.09 -39.05 -38.03 -56.09 -44.01 -36.11 -25.05 -13.09 0 -8.012 26.97 26.97 55.97 31.94 59.92 76.96
4.555 -57.1 -45.03 -43.11 -64.1 -50.1 -41.08 -32.05 -28.1 -9.028 -17.04 10.95 12.98 43 24.94 51.91 66.92
4.56 -65 -53.04 -47.06 -69.06 -57.1 -43.11 -41.08 -43.11 -23.02 -25.05 -7.109 -2.031 25.96 11.96 37.92 49.99
4.565 -68.05 -55.07 -45.03 -65 -58 -43.11 -42.09 -50.1 -36.11 -29 -19.07 -6.094 11.96 2.934 21.89 34.98
4.57 -64.1 -53.04 -44.01 -56.09 -55.07 -35.1 -42.09 -46.04 -42.09 -25.05 -23.02 -10.04 7.899 0 5.981 20.99
4.575 -51.01 -45.03 -41.08 -43.11 -41.08 -21.1 -43.11 -35.1 -39.05 -17.04 -19.07 -11.06 3.95 -5.078 -3.047 5.981
4.58 -32.05 -29 -34.08 -28.1 -25.05 -7.109 -39.05 -21.1 -24.04 -11.06 -15.01 -9.028 6.997 -8.012 -15.01 0.9028
4.585 -20.09 -15.01 -26.07 -16.02 -9.028 -2.031 -33.06 -13.09 -12.07 -7.109 -17.04 -11.06 4.965 -13.09 -29 -7.109
4.59 -15.01 -5.078 -21.1 -7.109 0.9028 1.918 -29 -11.06 -9.028 -9.028 -21.1 -13.09 1.918 -15.01 -39.05 -15.01
4.595 -14.11 2.934 -14.11 -4.063 0.9028 0 -23.02 -13.09 -12.07 -15.01 -23.02 -17.04 1.918 -17.04 -47.06 -19.07
4.6 -21.1 0.9028 -13.09 -8.012 -5.078 0.9028 -23.02 -19.07 -23.02 -17.04 -23.02 -19.07 -8.012 -19.07 -53.04 -19.07
4.605 -23.02 -1.016 -11.06 -15.01 -13.09 -5.078 -25.05 -27.08 -35.1 -17.04 -21.1 -23.02 -17.04 -21.1 -55.07 -19.07
4.61 -25.05 -9.028 -11.06 -21.1 -21.1 -11.06 -29 -37.01 -43.11 -13.09 -21.1 -29 -27.08 -23.02 -61.05 -17.04
4.615 -25.05 -23.02 -13.09 -25.05 -27.08 -15.01 -31.03 -45.03 -47.06 -11.06 -25.05 -41.08 -35.1 -23.02 -67.03 -15.01
4.62 -27.08 -31.03 -11.06 -25.05 -27.08 -15.01 -25.05 -49.09 -45.03 -9.028 -33.06 -49.09 -39.05 -21.1 -73.01 -11.06
4.625 -29 -31.03 -7.109 -21.1 -25.05 -11.06 -13.09 -41.08 -41.08 -7.109 -39.05 -51.01 -37.01 -17.04 -69.06 -3.047
4.63 -29 -25.05 -3.047 -15.01 -15.01 -5.078 0.9028 -25.05 -31.03 -5.078 -35.1 -39.05 -27.08 -13.09 -53.04 5.981
4.635 -27.08 -19.07 -1.016 -9.028 -7.109 -1.016 7.899 -1.016 -19.07 -3.047 -23.02 -19.07 -9.028 -9.028 -27.08 19.97
4.64 -23.02 -15.01 0.9028 -5.078 0.9028 0.9028 15.91 17.94 -7.109 0.9028 -7.109 0 5.981 -5.078 0.9028 29.9
4.645 -23.02 -19.07 0.9028 -3.047 0.9028 -3.047 19.97 36 -2.031 -2.031 0 19.97 19.97 -1.016 15.91 37.92
4.65 -25.05 -25.05 -1.016 -3.047 -5.078 -9.028 17.94 43.9 1.918 0 5.981 31.94 27.99 0 25.96 39.95
4.655 -29 -33.06 -3.047 -3.047 -15.01 -17.04 17.94 47.96 1.918 0 5.981 36 29.9 1.918 27.99 39.95
4.66 -33.06 -37.01 -5.078 -5.078 -21.1 -21.1 15.91 49.99 0 0.9028 3.95 33.97 27.99 3.95 27.99 39.95
4.665 -33.06 -35.1 -7.109 -5.078 -23.02 -21.1 13.99 49.99 0 -5.078 0 31.94 27.99 1.918 29.9 39.95
4.67 -31.03 -31.03 -9.028 -5.078 -21.1 -21.1 9.931 53.94 0 -9.028 0 31.94 29.9 0 33.97 36
4.675 -31.03 -27.08 -11.06 -3.047 -17.04 -21.1 7.899 55.97 3.95 -13.09 0 29.9 33.97 -2.031 36 27.99
4.68 -31.03 -25.05 -13.09 -3.047 -15.01 -21.1 5.981 57.89 5.981 -13.09 3.95 27.99 33.97 -1.016 33.97 15.91
4.685 -29 -29 -13.09 -1.016 -15.01 -19.07 7.899 55.97 7.899 -11.06 5.981 23.92 27.99 -5.078 27.99 3.95
4.69 -27.08 -33.06 -13.09 0.9028 -13.09 -15.01 11.96 51.91 7.899 -7.109 3.95 17.94 17.94 -9.028 19.97 -3.047
4.695 -21.1 -33.06 -9.028 -2.031 -7.109 -5.078 13.99 45.93 9.931 -1.016 0 11.96 9.931 -15.01 13.99 -7.109
4.7 -17.04 -29 -7.109 0 0.9028 -2.031 9.931 33.97 13.99 1.918 0.9028 7.899 5.981 -17.04 7.899 -7.109
4.705 -14.11 -17.04 -7.109 1.918 3.95 4.965 5.981 19.97 17.94 9.931 -1.016 3.95 7.899 -17.04 0 0
4.71 -14.11 -5.078 -7.109 3.95 10.95 6.997 -2.031 3.95 17.94 17.94 0.9028 0.9028 11.96 -13.09 -5.078 0.9028
4.715 -19.07 0.9028 -7.109 1.918 9.931 5.981 -1.016 -5.078 15.91 23.92 -2.031 -5.078 15.91 -9.028 -19.07 3.95
4.72 -18.06 0.9028 -5.078 0 10.95 4.965 -1.016 -15.01 11.96 27.99 -2.031 -11.06 16.93 -7.109 -29 6.997
4.725 -14.11 2.934 -1.016 -2.031 8.915 6.997 1.918 -19.07 9.931 27.99 -2.031 -15.01 14.9 -8.012 -33.06 6.997
4.73 -7.109 -7.109 -2.031 0.9028 7.899 7.899 11.96 -17.04 11.96 25.96 0.9028 -11.06 9.931 -9.028 -31.03 3.95
4.735 1.918 -9.028 2.934 0 14.9 8.915 23.92 -8.012 21.89 21.89 -2.031 -3.047 10.95 -6.094 -25.05 8.915
4.74 3.95 -13.09 6.997 1.918 18.96 9.931 31.94 0.9028 29.9 17.94 0 0 12.98 -2.031 -21.1 9.931
4.745 3.95 -9.028 5.981 7.899 19.97 7.899 37.92 11.96 36 15.91 0 5.981 13.99 0.9028 -19.07 5.981
4.75 0.9028 -5.078 2.934 12.98 17.94 6.997 39.95 22.91 36 12.98 -2.031 7.899 15.91 0.9028 -19.07 4.965
4.755 -2.031 -9.028 1.918 8.915 10.95 2.934 33.97 28.89 29.9 10.95 -1.016 4.965 7.899 3.95 -19.07 0.9028
4.76 -9.028 -15.01 -1.016 5.981 0 -1.016 27.99 31.94 17.94 5.981 -7.109 1.918 -2.031 0 -15.01 -3.047
4.765 -12.07 -19.07 -2.031 7.899 -1.016 -4.063 20.99 34.98 10.95 3.95 -8.012 4.965 -3.047 0 -4.063 -8.012
4.77 -21.1 -25.05 0 9.931 -4.063 -14.11 17.94 36 7.899 3.95 -2.031 7.899 -4.063 0.9028 4.965 -16.02
4.775 -24.04 -23.02 1.918 9.931 -3.047 -19.07 17.94 40.96 7.899 4.965 3.95 14.9 -3.047 -3.047 21.89 -27.08
4.78 -27.08 -21.1 -1.016 15.91 -2.031 -20.09 19.97 39.95 13.99 3.95 14.9 25.96 1.918 -5.078 32.95 -34.08
4.785 -24.04 -15.01 0.9028 15.91 0.9028 -20.09 18.96 38.93 14.9 3.95 24.94 36.9 0 -7.109 40.96 -38.03
4.79 -21.1 -11.06 0 9.931 -2.031 -15.01 13.99 31.94 15.91 1.918 29.9 41.98 5.981 -7.109 47.96 -35.1
4.795 -12.07 -3.047 0 8.915 -1.016 -10.04 9.931 22.91 15.91 6.997 27.99 50.89 13.99 -1.016 49.99 -24.04
4.8 -10.04 0.9028 1.918 4.965 -1.016 -10.04 0 10.95 11.96 10.95 23.92 47.96 25.96 -2.031 47.96 -10.04
4.805 -13.09 -3.047 -3.047 3.95 -3.047 -13.09 -2.031 0.9028 5.981 11.96 17.94 37.92 27.99 -3.047 39.95 -1.016
4.81 -15.01 -7.109 -2.031 5.981 -6.094 -13.09 0.9028 -12.07 0 11.96 5.981 19.97 26.97 0 25.96 0
4.815 -18.06 -9.028 -2.031 7.899 -6.094 -12.07 -2.031 -22.01 -1.016 11.96 -2.031 -1.016 18.96 0.9028 9.931 2.934
4.82 -17.04 -13.09 -3.047 5.981 -5.078 -5.078 0 -27.08 -5.078 13.99 -5.078 -25.05 5.981 9.931 -1.016 1.918
4.825 -10.04 -9.028 -1.016 1.918 0 0 -1.016 -31.03 -5.078 17.94 -7.109 -45.03 1.918 20.99 -19.07 2.934
4.83 -6.094 -9.028 0.9028 -3.047 -2.031 -1.016 -13.09 -35.1 -7.109 17.94 -7.109 -59.02 -4.063 24.94 -33.06 0.9028
4.835 -13.09 -15.01 -3.047 -17.04 -11.06 -1.016 -27.08 -45.03 -13.09 13.99 -9.028 -67.03 -13.09 19.97 -45.03 -3.047
4.84 -28.1 -23.02 -9.028 -31.03 -22.01 -6.094 -37.01 -59.02 -23.02 5.981 -13.09 -69.06 -23.02 11.96 -53.04 -18.06
4.845 -44.01 -39.05 -13.09 -43.11 -33.06 -12.07 -37.01 -69.06 -31.03 0.9028 -19.07 -63.08 -35.1 3.95 -53.04 -30.02
4.85 -55.07 -49.09 -13.09 -45.03 -33.06 -13.09 -25.05 -67.03 -37.01 -5.078 -21.1 -49.09 -45.03 1.918 -49.09 -39.05
4.855 -49.09 -49.09 -11.06 -41.08 -27.08 -9.028 -9.028 -55.07 -35.1 -1.016 -17.04 -29 -51.01 1.918 -39.05 -33.06
4.86 -37.01 -41.08 -7.109 -35.1 -17.04 -1.016 -2.031 -39.05 -31.03 0 -9.028 -9.028 -49.09 3.95 -31.03 -25.05
4.865 -27.08 -33.06 -7.109 -31.03 -13.09 0.9028 0 -27.08 -27.08 3.95 -1.016 -2.031 -43.11 1.918 -25.05 -19.07
4.87 -29 -29 -11.06 -33.06 -17.04 -3.047 -3.047 -27.08 -29 0 -2.031 0 -41.08 -3.047 -23.02 -25.05
4.875 -35.1 -31.03 -15.01 -33.06 -25.05 -11.06 -11.06 -33.06 -33.06 -7.109 -1.016 0.9028 -43.11 -15.01 -21.1 -37.01
4.88 -39.05 -31.03 -15.01 -25.05 -27.08 -15.01 -15.01 -37.01 -37.01 -19.07 -9.028 -1.016 -43.11 -25.05 -13.09 -51.01
4.885 -35.1 -27.08 -5.078 -11.06 -19.07 -9.028 -7.109 -33.06 -33.06 -19.07 -13.09 -2.031 -35.1 -25.05 -1.016 -55.07
4.89 -21.1 -15.01 1.918 3.95 -1.016 -2.031 1.918 -19.07 -17.04 -5.078 -9.028 9.931 -21.1 -21.1 7.899 -51.01
4.895 -7.109 -3.047 13.99 19.97 13.99 9.931 11.96 -1.016 -2.031 9.931 0.9028 19.97 -5.078 -13.09 17.94 -43.11
4.9 -1.016 -1.016 19.97 25.96 23.92 17.94 13.99 7.899 13.99 25.96 11.96 21.89 0 -7.109 19.97 -39.05
4.905 -7.109 0.9028 19.97 19.97 21.89 17.94 5.981 11.96 19.97 27.99 25.96 15.91 1.918 -3.047 13.99 -41.08
4.91 -19.07 -7.109 17.94 9.931 9.931 9.931 -2.031 7.899 15.91 17.94 36 1.918 0.9028 0.9028 5.981 -43.11
4.915 -27.08 -13.09 15.91 0 -1.016 -2.031 -1.016 0 1.918 1.918 36 -3.047 -9.028 -2.031 -2.031 -41.08
4.92 -31.03 -17.04 11.96 -1.016 -17.04 -9.028 -1.016 -3.047 -9.028 -7.109 25.96 -13.09 -21.1 -2.031 0.9028 -31.03
4.925 -29 -21.1 1.918 -9.028 -31.03 -21.1 -1.016 -13.09 -25.05 -19.07 5.981 -21.1 -31.03 -1.016 -5.078 -17.04
4.93 -31.03 -29 -11.06 -23.02 -43.11 -33.06 -9.028 -29 -43.11 -25.05 -15.01 -37.01 -41.08 -9.028 -15.01 -9.028
4.935 -37.01 -43.11 -31.03 -41.08 -57.1 -43.11 -27.08 -51.01 -63.08 -29 -45.03 -65 -53.04 -21.1 -33.06 -9.028
4.94 -47.06 -57.1 -47.06 -57.1 -69.06 -49.09 -49.09 -73.01 -81.02 -35.1 -69.06 -99.08 -63.08 -31.03 -53.04 -11.06
4.945 -57.1 -63.08 -49.09 -65 -73.01 -51.01 -65 -91.07 -93.1 -39.05 -79.11 -127.1 -65 -31.03 -65 -11.06
4.95 -59.02 -57.1 -39.05 -61.05 -71.09 -45.03 -69.06 -97.05 -95.02 -37.01 -69.06 -137.1 -59.02 -25.05 -67.03 -4.063
4.955 -51.01 -39.05 -21.1 -47.06 -59.02 -33.06 -57.1 -91.07 -85.09 -29 -47.06 -123 -45.03 -13.09 -61.05 0.9028
4.96 -35.1 -19.07 -7.109 -29 -41.08 -17.04 -39.05 -73.01 -63.08 -17.04 -21.1 -91.07 -29 -9.028 -49.09 3.95
4.965 -23.02 -9.028 0.9028 -18.06 -27.08 -8.012 -21.1 -59.02 -43.11 -9.028 -7.109 -55.07 -17.04 -12.07 -36.11 2.934
4.97 -15.01 -9.028 -1.016 -16.02 -17.04 -6.094 -11.06 -48.07 -27.08 -7.109 -5.078 -25.05 -11.06 -24.04 -26.07 -4.063
4.975 -15.01 -15.01 -7.109 -17.04 -13.09 -7.109 -5.078 -39.05 -19.07 -13.09 -7.109 -7.109 -11.06 -39.05 -17.04 -21.1
4.98 -17.04 -19.07 -6.094 -12.07 -12.07 -6.094 1.918 -28.1 -12.07 -19.07 -6.094 0.9028 -6.094 -42.09 1.918 -27.08
4.985 -12.07 -15.01 0 -4.063 -6.094 -4.063 4.965 -8.012 -6.094 -21.1 -1.016 14.9 -1.016 -36.11 18.96 -25.05
4.99 -7.109 -1.016 5.981 5.981 -2.031 -2.031 13.99 7.899 1.918 -15.01 15.91 29.9 9.931 -21.1 39.95 -19.07
4.995 1.918 8.915 14.9 21.89 8.915 9.931 24.94 32.95 16.93 -1.016 32.95 52.93 24.94 -5.078 57.89 -12.07
5 4.965 18.96 20.99 27.99 18.96 17.94 33.97 51.91 30.92 12.98 38.93 68.95 32.95 -1.016 63.98 -11.06
5.005 5.981 24.94 21.89 33.97 25.96 27.99 36 61.95 39.95 25.96 33.97 72 31.94 -1.016 59.92 -17.04
5.01 11.96 24.94 22.91 37.92 32.95 36 38.93 65.9 48.98 38.93 21.89 66.92 28.89 -4.063 51.91 -23.02
5.015 15.91 28.89 20.99 43 43 41.98 36 63.98 52.93 39.95 12.98 56.99 24.94 -9.028 44.91 -28.1
5.02 24.94 30.92 16.93 44.91 50.89 49.99 31.94 64.89 59.92 38.93 13.99 45.93 24.94 -8.012 34.98 -28.1
5.025 33.97 30.92 10.95 43 54.96 47.96 21.89 61.95 66.92 31.94 12.98 36.9 28.89 -5.078 24.94 -20.09
5.03 41.98 24.94 6.997 36.9 52.93 45.93 10.95 49.99 64.89 26.97 9.931 26.97 28.89 -1.016 9.931 -13.09
5.035 41.98 16.93 3.95 27.99 47.96 39.95 1.918 31.94 53.94 15.91 0 9.931 23.92 1.918 -1.016 -9.028
5.04 36.9 10.95 6.997 19.97 43 36 1.918 11.96 36.9 8.915 -8.012 -8.012 10.95 5.981 -17.04 -1.016
5.045 30.92 10.95 12.98 17.94 34.98 31.94 0 -6.094 14.9 1.918 -20.09 -34.08 0 7.899 -27.08 0
5.05 25.96 16.93 15.91 15.91 23.92 21.89 -5.078 -29 -1.016 0 -25.05 -59.02 -21.1 3.95 -37.01 0.9028
5.055 26.97 24.94 16.93 10.95 12.98 12.98 -14.11 -52.02 -22.01 -1.016 -20.09 -76.06 -38.03 -1.016 -40.06 0
5.06 19.97 26.97 10.95 2.934 1.918 0.9028 -26.07 -78.09 -44.01 -9.028 -14.11 -90.05 -54.05 -2.031 -40.06 -1.016
5.065 11.96 24.94 -2.031 -9.028 -19.07 -9.028 -41.08 -109 -71.09 -21.1 -13.09 -101.1 -73.01 -11.06 -43.11 -13.09
5.07 -3.047 12.98 -7.109 -28.1 -39.05 -18.06 -57.1 -136.1 -95.02 -35.1 -15.01 -107.1 -91.07 -18.06 -44.01 -22.01
5.075 -21.1 0.9028 -13.09 -46.04 -55.07 -26.07 -65 -157.1 -113.1 -49.09 -21.1 -109 -105.1 -28.1 -44.01 -36.11
5.08 -35.1 -5.078 -15.01 -57.1 -63.08 -31.03 -65 -157.1 -119.1 -59.02 -29 -107.1 -115.1 -35.1 -39.05 -47.06
5.085 -37.01 -9.028 -17.04 -59.02 -61.05 -29 -59.02 -143.1 -115.1 -63.08 -35.1 -95.02 -109 -37.01 -31.03 -50.1
5.09 -29 -11.06 -17.04 -51.01 -51.01 -25.05 -47.06 -113.1 -99.08 -57.1 -39.05 -75.04 -89.04 -33.06 -19.07 -50.1
5.095 -17.04 -9.028 -13.09 -39.05 -35.1 -17.04 -29 -77.08 -75.04 -45.03 -33.06 -51.01 -59.02 -25.05 -1.016 -47.06
5.1 -3.047 -3.047 -5.078 -21.1 -17.04 -5.078 -9.028 -39.05 -47.06 -29 -17.04 -25.05 -27.08 -17.04 11.96 -39.05
5.105 0 0.9028 1.918 -1.016 0.9028 1.918 3.95 -5.078 -17.04 -13.09 3.95 -2.031 -1.016 -11.06 31.94 -27.08
5.11 1.918 6.997 11.96 5.981 5.981 9.931 17.94 17.94 1.918 0.9028 33.97 23.92 13.99 -11.06 47.96 -19.07
5.115 -2.031 4.965 15.91 11.96 5.981 11.96 21.89 36 19.97 0 55.97 45.93 19.97 -15.01 57.89 -13.09
5.12 -3.047 0.9028 13.99 5.981 1.918 5.981 19.97 41.98 23.92 -2.031 57.89 59.92 17.94 -23.02 57.89 -11.06
5.125 -5.078 -1.016 7.899 0 0 -2.031 15.91 41.98 17.94 -7.109 41.98 63.98 11.96 -25.05 53.94 -9.028
5.13 -3.047 0.9028 5.981 -2.031 1.918 -1.016 17.94 33.97 5.981 -17.04 17.94 59.92 5.981 -21.1 47.96 -5.078
5.135 1.918 6.997 11.96 7.899 11.96 0.9028 23.92 27.99 -2.031 -21.1 -2.031 53.94 7.899 -11.06 43.9 1.918
5.14 17.94 26.97 23.92 23.92 23.92 1.918 33.97 27.99 0 -15.01 -2.031 49.99 13.99 -1.016 39.95 15.91
5.145 33.97 48.98 37.92 43.9 31.94 7.899 41.98 31.94 13.99 -3.047 13.99 49.99 25.96 3.95 37.92 29.9
5.15 45.93 64.89 45.93 55.97 33.97 7.899 43.9 39.95 29.9 7.899 37.92 49.99 37.92 13.99 29.9 37.92
5.155 47.96 68.95 47.96 59.92 31.94 3.95 37.92 45.93 41.98 17.94 51.91 45.93 43.9 23.92 15.91 36
5.16 37.92 62.97 39.95 55.97 25.96 0.9028 25.96 41.98 43.9 21.89 41.98 31.94 41.98 36 -1.016 25.96
5.165 17.94 48.98 25.96 41.98 15.91 -9.028 9.931 27.99 33.97 17.94 9.931 7.899 29.9 43.9 -27.08 11.96
5.17 -2.031 34.98 11.96 27.99 1.918 -17.04 0 7.899 15.91 9.931 -27.08 -13.09 9.931 43.9 -49.09 -2.031
5.175 -11.06 24.94 1.918 15.91 -11.06 -21.1 -1.016 -9.028 -3.047 1.918 -59.02 -33.06 -9.028 33.97 -59.02 -7.109
5.18 -15.01 22.91 -2.031 5.981 -25.05 -19.07 -1.016 -27.08 -25.05 0.9028 -65 -39.05 -27.08 21.89 -53.04 -11.06
5.185 -11.06 26.97 0.9028 0 -35.1 -17.04 0.9028 -37.01 -39.05 -3.047 -45.03 -35.1 -41.08 7.899 -33.06 -11.06
5.19 -1.016 26.97 -1.016 -1.016 -37.01 -15.01 -2.031 -39.05 -49.09 -11.06 -11.06 -23.02 -47.06 -2.031 -9.028 -11.06
5.195 0.9028 20.99 -7.109 -4.063 -32.05 -18.06 0.9028 -37.01 -52.02 -21.1 15.91 -9.028 -49.09 -4.063 7.899 -13.09
5.2 2.934 8.915 -13.09 -8.012 -28.1 -22.01 -3.047 -32.05 -52.02 -30.02 31.94 -2.031 -46.04 -12.07 25.96 -17.04
5.205 0 0.9028 -19.07 -9.028 -25.05 -23.02 -3.047 -29 -49.09 -39.05 29.9 11.96 -41.08 -19.07 36 -21.1
5.21 0.9028 0.9028 -17.04 -4.063 -18.06 -18.06 -1.016 -20.09 -36.11 -36.11 19.97 23.92 -26.07 -22.01 43.9 -20.09
5.215 4.965 0.9028 -13.09 -1.016 -8.012 -6.094 -1.016 -14.11 -16.02 -22.01 9.931 33.97 -8.012 -24.04 47.96 -16.02
5.22 11.96 12.98 -7.109 3.95 -2.031 1.918 0 -13.09 -2.031 -5.078 3.95 37.92 3.95 -23.02 45.93 -13.09
5.225 19.97 20.99 -2.031 9.931 10.95 10.95 -1.016 -12.07 19.97 10.95 5.981 33.97 20.99 -17.04 40.96 -10.04
5.23 19.97 22.91 -4.063 11.96 21.89 13.99 1.918 -10.04 36 22.91 11.96 27.99 28.89 -11.06 34.98 -8.012
5.235 13.99 18.96 -7.109 11.96 25.96 5.981 -1.016 -7.109 43.9 29.9 19.97 21.89 33.97 0.9028 33.97 -7.109
5.24 14.9 16.93 -4.063 18.96 30.92 0.9028 -1.016 0 50.89 29.9 29.9 21.89 33.97 12.98 43 1.918
5.245 17.94 16.93 0 29.9 34.98 0.9028 7.899 14.9 58.91 30.92 37.92 26.97 36.9 27.99 54.96 12.98
5.25 27.99 22.91 5.981 36 37.92 7.899 9.931 27.99 59.92 31.94 39.95 29.9 41.98 39.95 59.92 25.96
5.255 37.92 34.98 10.95 38.93 38.93 18.96 15.91 33.97 62.97 36 28.89 24.94 41.98 47.96 53.94 34.98
5.26 39.95 36.9 9.931 36.9 37.92 27.99 16.93 27.99 56.99 37.92 12.98 15.91 41.98 50.89 36.9 32.95
5.265 34.98 34.98 11.96 31.94 34.98 30.92 14.9 19.97 47.96 39.95 0.9028 10.95 36 47.96 17.94 30.92
5.27 27.99 26.97 7.899 24.94 29.9 33.97 14.9 15.91 32.95 37.92 -8.012 9.931 31.94 50.89 2.934 28.89
5.275 21.89 20.99 8.915 22.91 26.97 30.92 15.91 13.99 22.91 37.92 -12.07 16.93 29.9 55.97 0.9028 28.89
5.28 19.97 14.9 3.95 21.89 27.99 27.99 5.981 11.96 15.91 37.92 -11.06 21.89 21.89 61.95 0 29.9
5.285 21.89 14.9 1.918 21.89 30.92 24.94 0 6.997 12.98 40.96 -11.06 22.91 20.99 59.92 4.965 26.97
5.29 16.93 16.93 -2.031 12.98 28.89 18.96 -8.012 -1.016 10.95 36 -17.04 11.96 13.99 50.89 4.965 19.97
5.295 7.899 14.9 -11.06 1.918 23.92 11.96 -21.1 -15.01 7.899 27.99 -19.07 0 5.981 33.97 0 7.899
5.3 0 14.9 -14.11 1.918 17.94 3.95 -28.1 -26.07 3.95 14.9 -21.1 -7.109 -1.016 13.99 0.9028 1.918
5.305 -1.016 8.915 -10.04 0.9028 8.915 1.918 -28.1 -32.05 1.918 0.9028 -17.04 -9.028 -2.031 -1.016 0.9028 -6.094
5.31 -1.016 10.95 -3.047 0 5.981 -3.047 -21.1 -31.03 -1.016 -5.078 -13.09 -3.047 -9.028 -19.07 7.899 -15.01
5.315 0.9028 14.9 1.918 6.997 6.997 -4.063 -8.012 -22.01 -2.031 -10.04 -11.06 -2.031 -18.06 -32.05 15.91 -20.09
5.32 4.965 22.91 11.96 12.98 8.915 -2.031 3.95 -10.04 -4.063 -10.04 -11.06 5.981 -32.05 -38.03 25.96 -26.07
5.325 5.981 26.97 19.97 13.99 7.899 -3.047 17.94 -1.016 -5.078 -11.06 -7.109 11.96 -43.11 -41.08 33.97 -29
5.33 6.997 26.97 25.96 12.98 6.997 -2.031 27.99 2.934 0 -10.04 0 13.99 -46.04 -38.03 37.92 -29
5.335 4.965 18.96 27.99 8.915 2.934 0 29.9 9.931 1.918 -13.09 17.94 17.94 -41.08 -38.03 41.98 -23.02
5.34 0 10.95 27.99 5.981 -2.031 0.9028 27.99 15.91 -2.031 -15.01 39.95 21.89 -25.05 -39.05 43.9 -15.01
5.345 -2.031 6.997 29.9 5.981 0 -2.031 23.92 19.97 -2.031 -13.09 55.97 29.9 -5.078 -41.08 45.93 -3.047
5.35 -3.047 12.98 29.9 7.899 5.981 0 23.92 23.92 0 -5.078 65.9 37.92 9.931 -43.11 45.93 3.95
5.355 -5.078 24.94 31.94 11.96 15.91 1.918 29.9 27.99 1.918 0 61.95 45.93 27.99 -39.05 41.98 13.99
5.36 -3.047 34.98 31.94 17.94 25.96 5.981 41.98 31.94 5.981 9.931 47.96 49.99 39.95 -31.03 36 21.89
5.365 1.918 40.96 31.94 23.92 33.97 11.96 51.91 37.92 11.96 17.94 29.9 49.99 47.96 -23.02 25.96 27.99
5.37 15.91 40.96 31.94 33.97 39.95 21.89 57.89 47.96 21.89 21.89 15.91 49.99 57.89 -11.06 17.94 36
5.375 31.94 44.91 33.97 43.9 49.99 33.97 59.92 57.89 37.92 23.92 13.99 51.91 69.97 -2.031 11.96 41.98
5.38 45.93 52.93 36 55.97 63.98 45.93 57.89 63.98 53.94 29.9 21.89 51.91 81.93 13.99 11.96 45.93
5.385 53.94 60.94 33.97 61.95 73.92 51.91 47.96 59.92 67.93 37.92 31.94 49.99 89.94 25.96 9.931 43.9
5.39 55.97 62.97 25.96 59.92 75.95 49.99 31.94 41.98 72 43.9 33.97 39.95 83.96 29.9 5.981 36
5.395 53.94 52.93 13.99 45.93 63.98 39.95 9.931 13.99 61.95 43.9 19.97 21.89 63.98 25.96 0 19.97
5.4 43.9 30.92 0 25.96 39.95 25.96 -7.109 -11.06 43.9 39.95 -3.047 0.9028 36 15.91 -3.047 5.981
5.405 29.9 10.95 -7.109 7.899 15.91 13.99 -23.02 -35.1 23.92 33.97 -31.03 -21.1 7.899 7.899 -7.109 0.9028
5.41 15.91 -1.016 -11.06 0 0 9.931 -29 -41.08 7.899 27.99 -49.09 -37.01 -7.109 9.931 -5.078 -1.016
5.415 3.95 -1.016 -11.06 -2.031 0.9028 9.931 -29 -35.1 -2.031 25.96 -49.09 -41.08 -15.01 19.97 0.9028 0.9028
5.42 -2.031 4.965 -11.06 0 -2.031 7.899 -27.08 -23.02 -3.047 21.89 -37.01 -37.01 -19.07 29.9 3.95 -1.016
5.425 -1.016 6.997 -13.09 1.918 0.9028 3.95 -23.02 -13.09 -15.01 13.99 -20.09 -31.03 -25.05 31.94 6.997 -9.028
5.43 -3.047 0.9028 -17.04 -2.031 -9.028 -1.016 -23.02 -11.06 -31.03 0 -2.031 -25.05 -39.05 23.92 8.915 -25.05
5.435 -7.109 -7.109 -21.1 -3.047 -23.02 -11.06 -21.1 -13.09 -51.01 -13.09 9.931 -19.07 -57.1 9.931 9.931 -37.01
5.44 -15.01 -17.04 -21.1 -7.109 -35.1 -19.07 -15.01 -15.01 -63.08 -27.08 24.94 -8.012 -69.06 0 14.9 -45.03
5.445 -23.02 -19.07 -15.01 -7.109 -35.1 -21.1 -7.109 -11.06 -65 -29 32.95 -1.016 -71.09 -2.031 18.96 -43.11
5.45 -25.05 -11.06 -5.078 -1.016 -27.08 -19.07 0 -1.016 -57.1 -23.02 31.94 7.899 -63.08 5.981 17.94 -37.01
5.455 -19.07 0.9028 3.95 5.981 -14.11 -15.01 13.99 3.95 -44.01 -13.09 23.92 18.96 -51.01 15.91 17.94 -31.03
5.46 -4.063 16.93 17.94 19.97 0 -11.06 29.9 17.94 -30.02 -3.047 9.931 24.94 -37.01 25.96 11.96 -27.08
5.465 5.981 24.94 27.99 29.9 3.95 -5.078 37.92 27.99 -15.01 -2.031 3.95 25.96 -25.05 25.96 0 -25.05
5.47 14.9 22.91 27.99 33.97 6.997 -1.016 33.97 25.96 -4.063 0 4.965 24.94 -16.02 18.96 -8.012 -27.08
5.475 14.9 12.98 15.91 23.92 0.9028 0.9028 18.96 15.91 1.918 -10.04 11.96 13.99 -8.012 8.915 -24.04 -31.03
5.48 5.981 -1.016 -2.031 7.899 -5.078 0 -3.047 -2.031 0.9028 -15.01 7.899 -1.016 -1.016 1.918 -47.06 -33.06
5.485 -1.016 -7.109 -14.11 -2.031 -9.028 1.918 -26.07 -19.07 -3.047 -14.11 0.9028 -22.01 1.918 0.9028 -72.11 -33.06
5.49 1.918 -5.078 -22.01 -14.11 -10.04 3.95 -40.06 -35.1 -8.012 -7.109 -27.08 -44.01 1.918 4.965 -93.1 -33.06
5.495 0 -1.016 -19.07 -13.09 -1.016 3.95 -41.08 -41.08 -11.06 -2.031 -59.02 -59.02 -3.047 13.99 -107.1 -27.08
5.5 3.95 4.965 -6.094 -1.016 4.965 4.965 -33.06 -35.1 -10.04 4.965 -81.02 -66.02 -6.094 20.99 -109 -19.07
5.505 2.934 6.997 -1.016 2.934 14.9 3.95 -21.1 -25.05 -8.012 5.981 -87.01 -65 -6.094 23.92 -97.05 -10.04
5.51 1.918 0.9028 3.95 9.931 14.9 1.918 -12.07 -15.01 -8.012 3.95 -74.03 -58 -6.094 20.99 -79.11 0
5.515 -6.094 -1.016 2.934 4.965 4.965 0.9028 -9.028 -7.109 -10.04 0.9028 -49.09 -49.09 -4.063 13.99 -63.08 4.965
5.52 -7.109 -11.06 1.918 1.918 -6.094 -6.094 -7.109 -1.016 -18.06 -4.063 -17.04 -36.11 0 8.915 -39.05 11.96
5.525 -13.09 -15.01 -1.016 -9.028 -21.1 -17.04 -3.047 0 -27.08 -9.028 1.918 -25.05 -1.016 -2.031 -21.1 13.99
5.53 -13.09 -19.07 -4.063 -16.02 -32.05 -25.05 1.918 3.95 -34.08 -11.06 19.97 -10.04 -2.031 -6.094 -3.047 11.96
5.535 -22.01 -25.05 -6.094 -22.01 -41.08 -31.03 0.9028 5.981 -39.05 -20.09 19.97 0 -10.04 -18.06 1.918 1.918
5.54 -35.1 -35.1 -11.06 -27.08 -47.06 -37.01 3.95 7.899 -39.05 -29 7.899 -2.031 -21.1 -25.05 -2.031 -5.078
5.545 -42.09 -41.08 -11.06 -27.08 -48.07 -35.1 6.997 5.981 -40.06 -30.02 -1.016 0 -28.1 -22.01 1.918 -15.01
5.55 -42.09 -41.08 -9.028 -25.05 -46.04 -33.06 7.899 5.981 -38.03 -28.1 -12.07 -1.016 -36.11 -18.06 -1.016 -17.04
5.555 -39.05 -37.01 -7.109 -25.05 -43.11 -29 13.99 5.981 -35.1 -21.1 -5.078 0 -43.11 -9.028 7.899 -15.01
5.56 -32.05 -31.03 -7.109 -27.08 -40.06 -29 13.99 1.918 -32.05 -13.09 13.99 2.934 -47.06 -3.047 19.97 -13.09
5.565 -29 -29 -9.028 -31.03 -42.09 -31.03 9.931 -1.016 -30.02 -9.028 37.92 4.965 -53.04 -3.047 29.9 -13.09
5.57 -31.03 -35.1 -15.01 -39.05 -45.03 -31.03 0.9028 -11.06 -29 -11.06 51.91 -2.031 -55.07 -11.06 25.96 -19.07
5.575 -33.06 -39.05 -19.07 -41.08 -45.03 -25.05 -11.06 -23.02 -33.06 -15.01 43 -10.04 -57.1 -13.09 16.93 -21.1
5.58 -27.08 -35.1 -19.07 -39.05 -43.11 -13.09 -21.1 -31.03 -35.1 -13.09 12.98 -30.02 -55.07 -15.01 -2.031 -19.07
5.585 -15.01 -27.08 -19.07 -33.06 -35.1 -1.016 -23.02 -33.06 -35.1 -5.078 -25.05 -53.04 -51.01 -11.06 -31.03 -15.01
5.59 -3.047 -19.07 -21.1 -25.05 -27.08 1.918 -23.02 -33.06 -35.1 0 -56.09 -71.09 -49.09 -7.109 -54.05 -11.06
5.595 0.9028 -15.01 -21.1 -23.02 -21.1 5.981 -21.1 -33.06 -35.1 3.95 -66.02 -85.09 -49.09 -7.109 -64.1 -11.06
5.6 -3.047 -19.07 -21.1 -23.02 -17.04 5.981 -19.07 -31.03 -35.1 -2.031 -57.1 -87.01 -49.09 -7.109 -63.08 -13.09
5.605 -13.09 -21.1 -17.04 -21.1 -15.01 3.95 -13.09 -27.08 -35.1 -7.109 -33.06 -75.04 -45.03 -9.028 -49.09 -11.06
5.61 -21.1 -19.07 -7.109 -15.01 -11.06 3.95 -7.109 -15.01 -33.06 -15.01 -11.06 -55.07 -37.01 -7.109 -31.03 -3.047
5.615 -21.1 -11.06 -1.016 -7.109 -9.028 1.918 -1.016 -5.078 -27.08 -21.1 0.9028 -29 -25.05 -5.078 -19.07 3.95
5.62 -15.01 -1.016 0.9028 -3.047 -11.06 0 0.9028 0 -19.07 -21.1 -3.047 -9.028 -13.09 -3.047 -11.06 15.91
5.625 -7.109 0.9028 -3.047 -5.078 -17.04 -3.047 0.9028 1.918 -13.09 -17.04 -15.01 0.9028 -5.078 -3.047 -7.109 25.96
5.63 -5.078 -5.078 -13.09 -11.06 -25.05 -13.09 -5.078 0 -9.028 -17.04 -29 0 -1.016 -3.047 -3.047 31.94
5.635 -9.028 -19.07 -19.07 -17.04 -31.03 -23.02 -11.06 -1.016 -11.06 -17.04 -39.05 1.918 0 -3.047 0 36
5.64 -11.06 -29 -21.1 -19.07 -29 -27.08 -13.09 -5.078 -9.028 -15.01 -39.05 7.899 11.96 -3.047 13.99 41.98
5.645 -11.06 -33.06 -17.04 -13.09 -23.02 -27.08 -11.06 -5.078 -5.078 -11.06 -29 17.94 29.9 0.9028 31.94 49.99
5.65 -5.078 -25.05 -9.028 -3.047 -13.09 -23.02 -5.078 -1.016 -2.031 -3.047 -9.028 31.94 47.96 0 49.99 57.89
5.655 -2.031 -11.06 0.9028 0 -5.078 -19.07 -1.016 0 9.931 -2.031 11.96 41.98 61.95 3.95 63.98 63.98
5.66 0 -1.016 0 5.981 -5.078 -17.04 0.9028 1.918 15.91 0.9028 36 43.9 67.93 5.981 69.97 61.95
5.665 0.9028 2.934 1.918 3.95 -11.06 -15.01 -3.047 0 13.99 -5.078 45.93 39.95 59.92 5.981 65.9 51.91
