    T[sec] F7  F3  F4  F8  T3  C3  Cz  C4  T4  T5  P3  Pz  P4  T6  O1  O2 
41 30.01 30.01 30.01 30.01 30.01 30.01 30.01 30.01 30.01 30.01 30.01 30.01 30.01 30.01 30.01 30.01
0 -6.331 -6.023 -5.232 -2.418 -4.573 -4.133 -0.7914 0.4397 -0.3078 2.55 -0.08793 1.495 3.254 5.276 8.793 8.354
0.005 -13.54 -20.4 -18.86 -9.893 -9.98 -9.277 -4.089 -9.013 -4.88 -1.847 -1.671 -1.935 -2.902 -4.133 6.155 4.397
0.01 -16.18 -27.96 -25.98 -14.03 -12.4 -11.96 -7.826 -16 -7.298 -4.836 -4.221 -6.331 -11.43 -11.43 0.1759 -2.11
0.015 -11.61 -22.82 -21.37 -12.13 -9.233 -9.893 -9.98 -16.36 -6.023 -4.748 -6.771 -9.761 -18.47 -11.43 -7.386 -8.617
0.02 -3.693 -11.26 -10.42 -7.035 -3.341 -5.584 -9.805 -11.74 -2.946 -4.309 -8.354 -10.64 -19.7 -5.364 -12.93 -10.99
0.025 -0.08793 -5.936 -4.968 -4.704 0.04397 -3.781 -7.87 -7.914 -1.979 -6.771 -8.354 -8.354 -14.16 0.2638 -13.19 -7.826
0.03 -1.583 -8.53 -7.298 -6.111 0.2198 -4.66 -5.012 -6.727 -3.298 -9.673 -6.155 -3.957 -5.628 2.11 -8.881 -2.55
0.035 -2.99 -10.86 -10.2 -6.903 0.7035 -4.792 -2.286 -5.892 -4.177 -9.233 -2.198 0.1759 0.3517 0.7914 -3.869 -0.5276
0.04 -1.671 -9.936 -10.29 -4.924 2.286 -3.561 -1.099 -5.408 -3.429 -6.683 1.319 2.11 1.407 -2.902 -0.9673 -2.638
0.045 0.7035 -9.189 -10.33 -2.154 3.078 -2.33 -1.715 -6.903 -2.33 -6.243 2.638 1.847 -0.4397 -8.442 -0.08793 -5.54
0.05 2.286 -8.222 -10.33 -0.1759 2.946 -0.7474 -2.33 -8.398 -1.363 -7.123 2.11 1.759 -1.583 -12.49 0 -6.683
0.055 3.341 -4.441 -7.958 0.7035 2.99 2.022 -0.7474 -6.463 0.1319 -5.452 1.671 2.902 -0.08793 -12.05 -0.08793 -6.771
0.06 1.759 -1.099 -5.364 -0.7035 2.022 4.309 2.946 -2.022 1.495 -0.3517 2.55 4.748 3.341 -9.145 0.3517 -7.035
0.065 -2.55 -2.286 -6.243 -4.792 -0.8793 3.957 6.771 1.495 1.759 6.243 4.485 6.067 6.595 -6.771 1.671 -7.298
0.07 -5.804 -5.188 -8.486 -8.354 -3.605 2.022 8.969 3.21 1.671 12.57 6.683 6.155 7.386 -4.836 3.429 -7.035
0.075 -4.66 -5.628 -8.31 -7.782 -3.473 0.6155 9.145 3.693 1.627 16.36 8.09 4.924 5.892 -1.847 5.452 -4.573
0.08 -1.231 -5.672 -6.947 -4.089 -1.539 -0.8793 7.606 2.11 0.6155 14.68 7.826 2.814 4.309 1.055 7.738 1.583
0.085 0.2638 -8.661 -7.211 -0.7035 -0.3517 -3.21 5.012 -1.759 -2.33 7.738 5.628 0.7914 4.309 2.374 10.38 10.02
0.09 -0.7914 -11.96 -7.694 0.6595 -0.3957 -5.276 1.935 -5.628 -5.716 0.1759 2.022 -0.7914 4.836 2.462 11.52 16
0.095 -2.55 -12.13 -6.639 0.08793 -1.451 -6.243 -2.11 -7.738 -7.65 -4.748 -2.374 -2.638 3.254 2.55 9.585 15.21
0.1 -4.133 -10.51 -6.639 -2.682 -4.045 -7.255 -8.046 -9.541 -8.134 -8.705 -7.562 -5.716 -1.495 2.11 4.748 8.354
0.105 -4.924 -9.233 -9.98 -6.903 -7.43 -8.705 -14.38 -12.31 -8.222 -13.1 -12.05 -8.793 -8.442 0.9673 -0.6155 -0.08793
0.11 -3.254 -6.771 -13.59 -9.409 -8.486 -8.486 -17.41 -13.85 -7.782 -15.48 -13.72 -9.761 -14.33 0.7914 -4.836 -5.892
0.115 0.5276 -1.539 -12.71 -7.65 -5.1 -4.968 -13.98 -11.52 -6.331 -12.49 -10.82 -7.738 -16.18 1.847 -6.947 -7.738
0.12 4.66 4.485 -6.463 -2.198 1.187 0.6595 -4.748 -5.54 -3.913 -4.221 -4.133 -3.957 -12.93 2.814 -7.386 -6.595
0.125 6.947 8.222 2.462 4.133 7.342 6.023 5.76 1.275 -1.055 5.012 2.902 -0.3517 -6.067 2.198 -7.474 -4.748
0.13 7.123 8.749 10.11 8.53 10.73 8.837 12.44 6.155 1.627 10.11 6.595 1.583 1.055 -0.4397 -8.354 -3.781
0.135 5.628 6.155 12.49 9.101 10.29 8.442 12.49 7.298 3.21 7.386 5.452 1.495 6.067 -4.485 -9.936 -4.045
0.14 2.726 1.451 8.266 6.243 6.727 5.628 7.518 5.012 3.122 -1.759 1.143 0.6155 8.266 -8.881 -10.73 -4.485
0.145 -0.1759 -2.286 1.275 2.814 2.462 2.902 2.11 2.198 2.33 -10.82 -2.726 0.7035 8.53 -11.61 -9.321 -4.133
0.15 -1.407 -2.638 -2.462 2.066 0.08793 1.979 -0.2638 1.715 2.33 -13.28 -2.902 2.462 8.09 -11.17 -5.188 -2.814
0.155 -0.8793 -0.4836 -0.7914 4.617 0 2.418 0.08793 3.473 3.341 -8.09 1.231 4.397 7.123 -7.826 0.4397 -0.7914
0.16 0.08793 0.5716 3.825 8.002 0.7474 1.891 0.6155 4.88 4.177 0.3517 7.211 4.309 5.54 -3.429 6.067 2.11
0.165 -0.5276 -2.022 6.947 8.881 0.8354 -0.7035 -0.4836 3.869 3.517 6.947 11.87 2.198 2.99 -0.08793 10.11 6.243
0.17 -3.517 -7.518 6.023 5.892 -0.3078 -4.177 -2.374 0.7914 0.9673 9.409 13.45 0.1759 0.7914 1.495 12.22 11.34
0.175 -7.826 -12.18 2.11 0.5716 -1.935 -5.804 -2.242 -1.627 -2.066 9.233 12.22 0.8793 0.5276 2.022 13.28 16.36
0.18 -10.99 -11.78 -0.9233 -3.869 -2.858 -3.473 1.495 -0.7035 -3.341 8.442 10.02 5.276 3.254 3.254 13.98 19.96
0.185 -10.64 -5.496 -0.7474 -4.924 -2.33 1.891 7.255 3.649 -1.539 7.123 7.65 11.26 7.914 5.892 14.16 21.02
0.19 -6.419 2.858 1.319 -3.254 -0.8354 6.991 10.9 8.354 2.198 3.605 4.924 15.3 11.52 8.266 12.05 18.55
0.195 -0.1759 8.705 2.066 -1.055 1.143 8.749 9.145 9.761 5.496 -2.814 1.319 13.54 10.82 7.826 5.979 11.87
0.2 6.331 10.2 0.3078 0 3.473 6.375 2.33 6.683 6.199 -10.2 -3.693 5.276 4.485 3.781 -4.045 1.495
0.205 11.17 8.398 -2.55 0.04397 5.672 1.495 -6.023 0.7474 4.133 -15.12 -9.409 -6.155 -5.1 -2.462 -15.3 -10.11
0.21 13.01 5.188 -4.353 0.08793 6.419 -3.605 -12.09 -4.88 0.5276 -16.27 -14.6 -15.56 -13.45 -8.09 -23.04 -19.08
0.215 11.87 2.902 -2.814 1.231 5.056 -6.859 -13.45 -7.079 -2.418 -14.25 -17.67 -19.08 -16.53 -10.55 -23.92 -22.16
0.22 8.881 3.429 2.638 3.869 2.154 -6.727 -10.42 -4.441 -2.946 -11.43 -17.5 -16.71 -13.45 -9.321 -18.73 -19.17
0.225 5.452 6.155 9.805 6.815 -0.8793 -3.21 -4.836 1.187 -1.011 -9.409 -14.25 -11.17 -6.595 -6.859 -11.61 -12.66
0.23 2.374 8.398 14.29 8.09 -2.682 2.33 1.143 5.979 1.627 -8.002 -9.321 -5.276 0.3517 -6.155 -6.595 -6.155
0.235 0.4397 8.398 13.54 6.551 -2.462 8.134 6.287 7.123 3.034 -5.628 -4.045 -1.143 5.1 -7.65 -5.1 -1.847
0.24 -0.2638 5.979 8.046 2.77 -0.6595 11.61 9.673 4.089 2.374 -1.319 0.5276 1.495 7.474 -8.969 -4.573 0.5276
0.245 -1.143 0.8354 -0.3078 -2.682 0.3957 10.46 10.55 -1.231 0.1319 3.781 3.869 3.957 8.969 -7.123 -1.319 3.869
0.25 -3.869 -6.727 -9.057 -8.661 -1.407 4.001 8.486 -6.243 -2.638 7.035 6.155 6.947 10.46 -2.022 6.067 9.497
0.255 -8.793 -14.33 -15.17 -13.54 -5.892 -5.056 3.957 -8.178 -4.265 7.562 8.09 9.409 11.17 4.221 15.3 16
0.26 -13.98 -18.51 -16.22 -15.21 -10.95 -12.53 -1.715 -6.375 -3.869 6.419 10.02 9.497 9.321 8.178 21.54 19.26
0.265 -17.15 -18.29 -12.79 -13.28 -14.25 -15.56 -7.211 -3.034 -2.022 5.188 11.17 6.507 4.133 7.914 21.63 16.62
0.27 -16.62 -14.86 -7.826 -9.013 -14.77 -13.72 -11.39 -1.407 -0.3517 4.573 10.38 2.462 -3.166 3.957 16 8.969
0.275 -12.22 -9.145 -3.825 -4.485 -12.09 -8.398 -13.1 -2.682 -0.1319 4.045 7.65 -0.2638 -9.849 -0.4397 7.826 -0.1759
0.28 -4.836 -1.671 -1.583 -1.407 -6.903 -1.451 -11.08 -5.144 -1.275 2.726 4.221 -0.08793 -13.19 -2.286 0.5276 -7.123
0.285 3.341 6.771 -0.2198 -0.3078 -0.3517 5.848 -5.056 -5.979 -2.726 -0.08793 1.759 2.726 -11.7 -1.143 -4.309 -9.497
0.29 10.55 14.64 1.363 -0.04397 6.243 12.66 3.473 -3.341 -3.078 -3.605 1.583 6.595 -6.155 1.231 -6.947 -7.738
0.295 15.39 20.09 4.089 1.055 11.48 17.63 11.56 2.242 -1.627 -5.54 3.166 8.793 0.7035 2.726 -8.354 -4.485
0.3 16.62 20.88 7.474 3.649 13.81 18.73 15.56 8.398 1.495 -3.781 4.573 7.738 6.155 2.902 -9.321 -2.55
0.305 13.89 15.74 9.98 6.551 11.87 13.98 13.23 11.78 5.32 1.143 3.166 3.254 8.002 2.11 -10.29 -3.254
0.31 7.738 6.155 10.29 8.222 5.979 3.913 5.364 10.9 8.486 6.683 -2.638 -2.99 5.54 0.8793 -12.05 -6.507
0.315 1.143 -3.298 8.486 7.826 -1.407 -7.87 -4.573 6.331 9.761 8.793 -11.7 -9.585 -0.08793 -0.9673 -14.51 -11.61
0.32 -3.166 -8.661 5.32 5.672 -7.255 -16.62 -12.88 -0.04397 8.574 4.836 -20.75 -15.39 -6.859 -4.045 -17.32 -17.15
0.325 -3.693 -8.661 1.363 2.814 -9.189 -19.21 -16.84 -6.463 5.056 -3.429 -26.29 -19.08 -12.13 -8.09 -18.55 -20.66
0.33 -1.407 -5.628 -2.99 -0.1319 -6.991 -15.61 -16.22 -11.61 0.1759 -10.73 -25.76 -19.35 -13.72 -11.78 -16.44 -19.96
0.335 0.7035 -3.034 -7.386 -3.298 -2.594 -8.574 -12 -14.38 -4.485 -11.34 -18.73 -16.27 -11.34 -12.84 -10.29 -14.16
0.34 -0.1759 -3.122 -10.64 -6.595 1.231 -1.583 -5.716 -13.94 -7.035 -4.309 -6.771 -10.73 -5.979 -10.38 -1.495 -5.012
0.345 -4.133 -5.188 -11.39 -9.233 2.55 2.946 1.143 -10.02 -6.463 5.979 6.331 -4.045 0.08793 -5.804 7.474 4.748
0.35 -8.969 -6.991 -8.486 -9.629 1.011 4.88 7.211 -3.298 -3.341 12.13 17.15 2.902 5.012 -1.935 14.6 12.13
0.355 -11.61 -6.595 -2.55 -6.595 -2.11 5.012 11.26 4.485 0.5716 9.849 23.3 9.321 8.09 -0.3517 19.52 15.74
0.36 -11.08 -3.737 4.573 -0.7914 -5.232 4.441 12.79 10.95 3.166 1.407 23.83 14.6 9.409 -0.6155 22.6 16
0.365 -8.53 -0.1319 10.02 5.452 -7.43 3.517 12.09 13.98 3.517 -5.892 19.43 17.85 9.321 0.08793 23.57 14.25
0.37 -6.155 2.022 11.26 8.705 -8.617 1.847 9.453 12.27 1.759 -6.507 11.34 17.94 7.562 3.341 21.19 11.52
0.375 -5.804 0.9673 6.463 6.639 -9.541 -1.187 4.968 5.452 -1.319 -1.143 1.407 13.72 3.605 8.705 14.68 7.914
0.38 -7.386 -3.166 -3.605 -0.5716 -10.29 -5.54 -1.363 -4.88 -4.924 3.693 -8.178 5.628 -2.286 13.19 5.1 3.166
0.385 -8.793 -8.134 -15.12 -9.673 -10.2 -9.717 -8.398 -15.17 -8.09 2.11 -14.95 -3.078 -8.442 14.16 -4.397 -1.671
0.39 -7.826 -10.86 -22.29 -15.78 -8.178 -11.12 -13.23 -20.75 -10.02 -5.54 -16.62 -7.65 -11.7 11.26 -10.02 -4.836
0.395 -4.045 -8.705 -20.62 -15.52 -3.649 -7.606 -12.44 -17.98 -9.541 -13.28 -12.05 -5.54 -9.497 7.035 -10.02 -4.836
0.4 1.495 -1.715 -9.805 -8.749 2.638 0.5276 -4.792 -7.167 -6.155 -14.25 -2.726 1.583 -1.583 4.397 -5.804 -2.198
0.405 6.595 7.474 5.144 1.187 8.486 10.16 6.463 6.991 -0.4397 -7.035 7.035 9.145 8.617 4.485 -1.231 0.7035
0.41 9.057 14.03 16.27 9.101 11.43 16.18 14.73 17.45 5.452 2.726 12.4 12.05 15.83 5.54 0.1759 1.231
0.415 8.354 14.38 17.41 10.95 10.38 15.21 14.47 18.77 8.661 7.562 10.38 8.002 16.27 4.924 -2.55 -1.935
0.42 5.364 9.013 8.749 6.727 6.331 7.958 5.452 10.77 7.782 4.309 2.198 -1.143 9.761 1.671 -7.298 -7.562
0.425 2.462 2.066 -3.298 0.04397 1.979 -1.099 -6.595 -1.319 3.737 -3.078 -7.562 -10.11 0 -2.374 -10.99 -12.49
0.43 1.495 -1.979 -11.34 -4.704 -0.2198 -6.991 -13.98 -10.77 -1.055 -8.09 -13.89 -14.42 -8.266 -4.748 -11.34 -13.45
0.435 2.902 -1.495 -11.65 -5.452 0.7474 -7.386 -12.49 -13.67 -4.485 -6.507 -13.72 -13.45 -11.87 -3.957 -8.178 -10.02
0.44 5.012 1.231 -6.375 -3.429 3.781 -4.397 -4.221 -11.08 -6.155 -0.3517 -8.354 -10.29 -11.78 -1.407 -3.078 -4.309
0.445 5.628 2.198 -0.3957 -1.319 6.199 -2.462 4.353 -6.991 -7.035 5.188 -2.286 -8.705 -10.73 0.08793 1.495 0.7035
0.45 3.254 -1.055 3.166 -0.4397 5.276 -4.441 7.826 -4.485 -8.134 5.892 0.1759 -9.936 -10.9 -0.9673 3.781 3.166
0.455 -2.022 -7.562 4.529 0.08793 0.4397 -9.849 5.232 -3.825 -9.101 1.759 -2.11 -12.4 -11.78 -3.781 3.605 3.078
0.46 -8.266 -13.45 6.111 2.198 -6.859 -15.12 0 -2.858 -8.134 -3.781 -6.683 -13.1 -10.99 -5.452 2.198 2.022
0.465 -12.93 -15.43 8.749 6.023 -13.37 -16.62 -3.517 -0.08793 -4.177 -7.211 -9.673 -9.761 -7.211 -4.045 0.9673 1.495
0.47 -14.07 -12.84 10.2 9.057 -15.87 -12.49 -3.473 3.429 1.363 -6.947 -8.178 -2.814 -1.407 -0.4397 0.7035 1.935
0.475 -11.26 -7.43 7.167 7.694 -12.4 -4.177 -0.9233 5.1 5.056 -4.045 -2.198 4.66 3.517 3.078 0.8793 2.198
0.48 -4.836 -1.583 -0.7474 0.8354 -4.045 5.276 2.154 3.385 4.089 -0.2638 5.1 9.057 5.012 4.309 0.2638 1.143
0.485 3.341 2.946 -9.936 -8.398 5.936 12.31 4.221 -0.3957 -1.363 3.078 9.761 9.057 3.341 3.605 -1.847 -0.6155
0.49 10.99 5.716 -14.77 -14.6 13.59 14.55 5.32 -2.902 -7.65 5.012 9.936 6.331 1.583 2.99 -4.924 -1.319
0.495 15.65 7.167 -11.61 -13.41 16.44 12.05 5.672 -1.495 -10.07 5.364 6.507 3.869 3.166 4.397 -6.683 0.7914
0.5 16.09 8.046 -1.715 -4.968 14.68 6.991 5.188 3.737 -6.287 4.309 2.638 3.781 8.881 7.738 -5.276 5.364
0.505 12.75 8.925 9.98 6.463 10.42 2.594 3.561 10.16 1.803 2.726 0.8793 6.859 16.44 10.9 -0.5276 10.38
0.51 8.354 10.29 18.03 15.43 6.243 1.583 1.363 14.55 9.541 2.198 1.935 11.43 21.81 11.87 5.1 13.37
0.515 5.54 12.09 19.61 18.33 4.001 4.265 0.04397 15.21 12.84 4.045 4.485 14.6 21.98 9.936 8.442 12.75
0.52 5.804 13.28 15.39 15.04 4.089 8.442 0.7474 12.53 10.9 7.562 6.859 13.72 16.53 6.243 7.826 8.793
0.525 8.09 12.53 8.002 8.134 5.716 11.12 3.298 8.222 6.023 11.17 8.002 8.617 7.298 1.847 4.309 3.693
0.53 10.2 9.321 0.5716 1.011 7.958 10.64 6.023 3.693 1.539 13.19 8.617 1.847 -2.638 -2.814 0.9673 -0.4397
0.535 10.38 4.748 -4.529 -3.693 9.893 7.87 7.298 0.1319 -1.011 13.45 9.585 -3.429 -10.38 -7.562 0.9673 -2.462
0.54 8.178 1.143 -5.584 -4.836 10.24 5.012 6.991 -1.935 -1.715 12.75 11.43 -4.924 -13.72 -11.43 4.924 -2.286
0.545 5.012 0.08793 -2.286 -2.418 7.694 3.693 6.463 -1.715 -1.671 11.87 12.57 -1.847 -11.7 -12.13 10.82 -0.3517
0.55 1.759 1.539 4.001 2.418 2.066 3.649 7.079 0.8793 -1.099 10.64 11.61 4.309 -5.276 -7.826 15.65 2.902
0.555 -0.7035 4.089 10.46 7.606 -4.88 3.825 8.881 4.66 0.6155 8.881 8.354 10.38 2.99 0.4397 17.32 6.331
0.56 -2.022 6.199 14.03 10.9 -9.761 3.605 10.55 7.958 3.605 6.595 4.397 13.45 9.233 8.881 15.92 8.53
0.565 -1.407 7.167 13.1 11.12 -10.02 3.605 10.55 8.925 6.727 5.188 1.935 12.4 10.64 12.49 12.4 8.442
0.57 1.143 6.859 8.398 8.354 -5.672 4.309 8.486 7.386 8.002 5.628 1.759 8.09 7.211 8.705 8.002 6.243
0.575 4.485 5.364 2.33 4.045 0.3517 5.056 5.188 4.265 5.936 7.738 2.814 2.11 1.759 0.1759 3.166 3.429
0.58 6.595 2.242 -2.902 -0.1319 3.517 3.693 1.495 0.9233 1.363 8.969 2.902 -4.309 -2.198 -8.002 -2.286 1.495
0.585 5.276 -2.594 -6.243 -2.946 1.187 -1.451 -2.682 -2.022 -3.298 6.859 0.2638 -10.11 -3.078 -11.34 -8.002 0.7035
0.59 0.5276 -7.518 -7.87 -4.001 -5.979 -9.321 -7.958 -4.924 -5.672 1.055 -4.924 -14.07 -1.671 -9.321 -12.93 0.08793
0.595 -4.748 -9.936 -8.178 -3.21 -13.94 -16.09 -13.85 -7.826 -4.617 -6.155 -10.55 -15.48 -0.5276 -5.276 -15.92 -2.11
0.6 -6.683 -7.386 -7.035 -0.8354 -18.38 -17.72 -18.29 -9.629 -1.011 -11.52 -13.72 -13.81 -1.319 -3.078 -16.27 -6.331
0.605 -3.078 -0.3078 -4.045 2.726 -17.1 -13.06 -18.86 -8.793 3.254 -13.45 -13.19 -9.497 -3.254 -3.781 -14.42 -10.64
0.61 4.397 8.09 0.5276 6.507 -11.21 -4.968 -14.68 -4.485 6.507 -13.01 -9.761 -3.957 -4.573 -6.067 -11.52 -12.31
0.615 11.96 13.45 5.32 9.277 -3.517 1.583 -7.738 1.803 7.87 -12.13 -5.628 -0.08793 -4.309 -7.211 -8.442 -10.29
0.62 15.56 13.19 8.617 9.717 2.638 3.166 -1.627 7.211 7.079 -12.31 -2.902 -0.08793 -3.341 -6.243 -5.716 -6.419
0.625 13.81 7.914 8.881 7.782 5.54 -0.04397 0.5276 8.925 4.792 -12.4 -2.11 -3.517 -3.517 -4.133 -2.902 -3.517
0.63 8.178 0.7914 6.111 4.265 5.32 -4.397 -1.099 6.287 1.935 -10.9 -2.11 -6.683 -5.012 -2.55 0.4397 -3.078
0.635 1.407 -4.353 1.891 0.7035 3.693 -5.056 -3.517 1.759 0.1319 -7.035 -0.7914 -5.716 -6.331 -1.935 4.748 -4.221
0.64 -4.133 -4.748 -1.847 -1.363 3.122 0.3517 -3.298 -1.451 0.2198 -1.935 3.693 0.5276 -5.1 -1.583 9.497 -4.485
0.645 -7.386 -0.5276 -3.473 -1.451 4.924 10.29 0.5276 -1.451 2.022 2.374 10.02 9.761 -1.055 -0.4397 13.28 -2.11
0.65 -7.65 5.892 -2.902 -0.3957 8.881 19.92 5.628 0.7914 3.957 4.485 15.12 16.53 3.341 0.8793 14.07 1.671
0.655 -5.452 11.17 -1.495 0.2198 13.01 23.83 8.134 2.374 4.045 4.485 15.48 16.36 4.66 1.143 10.9 3.517
0.66 -2.198 12.05 -0.8793 -0.8793 14.82 19.17 5.584 1.011 1.275 3.166 9.936 8.266 1.143 -0.2638 4.573 1.407
0.665 -0.3517 7.211 -2.154 -4.089 12.79 7.43 -1.187 -3.21 -3.254 0.9673 0.6155 -2.99 -4.836 -2.11 -2.462 -3.078
0.67 -2.022 -2.286 -5.056 -8.398 7.782 -6.463 -8.661 -7.826 -7.035 -1.935 -8.09 -10.73 -8.617 -2.814 -6.859 -5.892
0.675 -7.826 -13.1 -8.002 -12 1.803 -16.93 -13.28 -10.24 -8.09 -5.54 -12.57 -11.08 -6.683 -1.143 -6.859 -4.045
0.68 -16.36 -21.72 -9.936 -13.72 -3.385 -20.97 -13.76 -9.717 -6.375 -9.233 -12.57 -5.804 0.08793 2.286 -3.517 1.759
0.685 -24.62 -26.29 -10.95 -13.54 -7.43 -19.87 -11.78 -8.178 -3.781 -12.22 -11.17 -0.3517 7.123 5.628 -0.1759 7.211
0.69 -29.9 -27.17 -12.4 -12.79 -10.95 -17.37 -10.24 -8.617 -2.418 -13.72 -11.96 0.3517 8.969 7.035 -0.08793 7.65
0.695 -30.43 -25.54 -15.34 -12.84 -13.85 -16.31 -10.99 -12.13 -3.298 -13.37 -15.39 -4.66 3.429 5.54 -3.693 1.759
0.7 -26.03 -22.25 -19.08 -13.67 -14.73 -16.97 -13.37 -17.06 -5.716 -11.26 -18.82 -12.57 -6.771 1.759 -8.793 -7.474
0.705 -17.59 -17.41 -20.71 -13.81 -11.87 -17.32 -14.77 -19.79 -7.782 -7.65 -18.91 -18.64 -16.27 -2.814 -12.13 -14.68
0.71 -7.035 -11.43 -17.5 -11.39 -5.144 -15.43 -12.93 -17.19 -8.002 -3.341 -14.51 -19.79 -19.96 -6.419 -11.96 -15.83
0.715 2.198 -5.804 -8.881 -5.979 2.902 -11.21 -7.342 -9.365 -5.804 0.5276 -7.562 -16.53 -16.18 -7.035 -9.057 -11.17
0.72 7.298 -2.374 2.198 0.9233 8.705 -6.067 0 0.8354 -1.759 2.55 -1.231 -11.26 -7.123 -3.781 -5.452 -4.397
0.725 6.155 -1.759 11.21 6.639 10.11 -0.9673 6.727 9.057 3.034 2.286 2.814 -5.276 2.99 2.374 -2.638 0.8793
0.73 0.8793 -2.286 14.6 9.453 8.046 4.66 11.39 12.71 7.211 0.7035 5.364 1.583 10.2 8.442 -0.3517 2.814
0.735 -3.781 -0.3517 12.57 9.365 5.848 12.13 14.2 11.78 9.541 0.3517 8.969 9.673 12.75 10.9 2.462 1.935
0.74 -3.078 5.936 8.442 7.958 6.199 20.58 16.31 9.013 9.365 3.078 14.33 17.15 10.82 8.178 5.979 0.1759
0.745 3.605 14.99 5.936 6.947 8.969 26.82 18.07 6.991 6.903 8.354 19.08 21.37 6.331 1.759 8.442 -0.8793
0.75 12.49 21.94 6.595 6.727 11.56 26.82 18.51 6.947 3.21 13.63 19.87 19.79 1.935 -4.397 7.65 -0.6155
0.755 17.85 22.2 9.189 6.639 11.12 19.17 16.05 8.09 -0.2638 15.48 14.6 12.4 -0.4397 -6.771 2.99 0.6155
0.76 16.18 14.64 10.95 5.716 6.727 6.551 10.2 8.574 -2.462 12.22 4.66 2.11 -0.1759 -4.66 -3.693 2.374
0.765 8.442 2.066 9.849 3.781 -0.1759 -5.979 2.33 7.035 -3.21 4.924 -5.979 -6.683 2.198 -0.4397 -9.145 4.748
0.77 -1.319 -10.68 5.804 1.231 -7.606 -14.03 -4.836 3.561 -2.682 -3.341 -13.28 -10.29 5.276 3.254 -10.55 7.738
0.775 -9.497 -19.61 0.08793 -1.319 -13.76 -16.31 -8.793 -0.4836 -1.451 -9.321 -14.95 -7.826 7.474 5.188 -6.947 10.64
0.78 -14.77 -22.82 -5.628 -3.693 -18.03 -14.16 -8.881 -3.605 0.04397 -11.26 -11.08 -1.495 8.09 6.067 -0.08793 12.49
0.785 -17.23 -20.71 -9.98 -5.848 -19.57 -9.409 -6.067 -4.617 1.407 -9.321 -3.869 5.804 7.035 6.947 7.738 12.57
0.79 -16.53 -14.11 -12.31 -7.562 -17.45 -3.341 -2.33 -3.913 1.759 -4.309 3.605 11.34 4.485 7.386 13.37 10.64
0.795 -11.34 -4.748 -12.27 -8.661 -11.08 3.254 0.6595 -2.682 0.1759 2.462 9.321 12.84 0.7035 6.067 15.12 6.947
0.8 -1.495 5.144 -10.11 -9.013 -1.627 8.881 2.242 -2.242 -3.561 9.761 11.52 9.321 -3.781 2.726 12.57 2.11
0.805 10.29 12 -6.463 -8.486 7.606 11.12 2.462 -3.166 -8.09 15.65 9.849 2.022 -7.914 -1.495 6.947 -2.726
0.81 18.47 13.1 -2.33 -6.815 12.75 8.749 1.935 -4.485 -10.82 18.38 5.628 -5.54 -10.38 -4.133 0.8793 -6.155
0.815 18.47 8.354 1.627 -3.605 11.7 2.858 1.407 -4.397 -9.805 16.53 1.143 -9.849 -9.673 -3.781 -2.814 -7.123
0.82 9.849 0.5276 4.88 1.011 5.276 -3.078 1.451 -1.539 -4.792 10.29 -1.583 -8.793 -5.628 -1.319 -2.286 -5.1
0.825 -2.638 -6.155 7.079 6.067 -3.166 -6.111 2.33 3.693 2.154 1.671 -2.022 -2.814 0.6155 0.8793 1.935 -0.8793
0.83 -12.31 -8.661 7.562 9.673 -9.936 -5.1 3.605 9.189 8.09 -5.716 -1.143 5.364 6.859 1.319 7.123 3.781
0.835 -14.6 -6.331 5.804 9.761 -12.22 -1.627 4.748 12.53 10.64 -8.881 0 12.31 11.34 0.7035 10.46 7.211
0.84 -9.497 -0.5716 2.374 6.155 -9.409 2.418 5.496 12.44 9.453 -7.211 0.9673 15.39 13.37 0.5276 10.29 8.178
0.845 0.08793 6.595 -1.055 0.9233 -2.682 5.848 6.243 9.805 6.111 -2.726 2.462 14.86 13.37 1.143 7.035 7.386
0.85 10.2 13.01 -2.286 -2.374 5.188 8.749 7.606 6.551 2.506 1.319 5.012 12.05 12.22 1.231 2.198 6.155
0.855 17.5 16.88 0.04397 -1.759 11.08 10.77 9.409 4.397 -0.1759 2.638 7.65 7.826 9.936 -0.6155 -2.814 5.1
0.86 19.87 16.62 4.968 2.198 12.05 10.64 10.24 3.298 -1.803 1.143 8.354 2.198 6.067 -3.957 -7.123 3.429
0.865 16.09 11.3 9.365 6.199 6.947 6.815 8.09 1.979 -2.462 -1.231 5.364 -4.66 0.3517 -6.331 -10.29 0.1759
0.87 6.595 1.715 9.936 6.903 -2.638 -0.5276 2.33 -0.9233 -2.55 -2.374 -0.8793 -10.99 -6.595 -5.628 -11.61 -4.309
0.875 -5.54 -8.793 5.188 3.122 -12.53 -8.442 -5.584 -5.32 -2.55 -1.847 -7.474 -14.33 -12.57 -2.286 -9.936 -8.442
0.88 -15.3 -15.92 -3.166 -3.473 -17.76 -13.01 -12 -9.453 -2.902 -0.7035 -10.38 -13.37 -15.3 1.055 -5.276 -9.761
0.885 -18.2 -16.49 -11.48 -9.761 -15.7 -12 -13.59 -11.43 -3.869 -0.08793 -8.002 -8.881 -13.89 1.759 0.6155 -7.035
0.89 -13.01 -10.82 -16 -13.01 -7.606 -6.595 -9.893 -10.02 -5.144 -0.1759 -2.198 -3.341 -9.145 0.08793 5.1 -1.407
0.895 -3.078 -1.891 -14.82 -12.22 2.11 -0.4836 -3.429 -5.848 -5.979 -0.7035 2.902 0.2638 -3.429 -1.671 5.716 3.869
0.9 5.716 6.199 -8.749 -8.31 8.53 3.034 1.979 -0.7914 -5.452 -1.935 4.309 0.1759 0.7914 -1.231 2.55 5.628
0.905 9.233 10.68 -0.4836 -2.814 8.881 2.77 3.693 3.385 -2.902 -4.397 1.319 -2.286 2.11 0.7035 -1.583 2.99
0.91 6.947 10.99 6.903 2.55 4.045 0.3957 1.627 5.76 1.011 -7.826 -3.341 -4.397 0.5276 1.055 -3.781 -2.286
0.915 2.638 9.013 11.26 6.595 -1.847 -1.539 -2.066 6.287 5.232 -10.2 -6.155 -4.397 -2.726 -2.022 -2.99 -7.65
0.92 0.1759 7.211 11.91 8.31 -4.529 -1.583 -5.188 5.716 8.442 -8.617 -5.364 -2.55 -5.54 -7.298 -0.6155 -11.34
0.925 1.671 7.167 9.936 7.694 -2.066 0 -6.595 4.66 10.07 -2.022 -2.022 -0.4397 -6.243 -10.29 0.2638 -12.75
0.93 5.716 8.837 6.815 5.408 4.265 1.847 -6.595 3.473 10.11 7.123 0.9673 1.055 -4.133 -8.09 -2.374 -12.13
0.935 9.233 11.08 3.825 2.858 11.08 2.99 -5.672 2.022 8.925 13.28 1.759 1.231 0.08793 -1.759 -7.386 -10.02
0.94 9.761 12.44 1.495 0.8793 15.12 3.21 -3.957 0.3517 6.771 11.96 0.7035 0.7035 4.221 4.309 -11.87 -7.211
0.945 7.123 12.18 0.08793 -0.1319 14.95 3.385 -1.143 -1.495 4.089 3.869 -0.2638 0.4397 6.067 5.804 -12.93 -4.221
0.95 3.078 10.9 -0.4836 -0.4836 11.61 4.265 2.418 -2.902 1.495 -5.54 0.3517 1.319 4.66 2.022 -10.29 -1.583
0.955 0.2638 9.541 0.2198 -0.6155 7.211 5.936 5.848 -3.122 -0.7035 -10.73 2.55 2.55 0.7914 -3.517 -6.155 -0.1759
0.96 -0.5276 8.442 1.935 -0.8793 3.385 6.859 7.211 -2.418 -2.374 -10.38 4.133 2.286 -3.341 -6.683 -3.166 0.08793
0.965 0 6.375 3.561 -1.715 0.1759 4.792 5.012 -1.627 -3.737 -7.211 2.726 -0.4397 -5.892 -5.452 -2.814 0.3517
0.97 -0.1759 1.627 3.21 -3.21 -3.122 -1.759 -0.7914 -1.979 -5.276 -5.012 -2.198 -5.012 -6.155 -0.9673 -3.605 1.935
0.975 -2.462 -5.936 -0.3517 -5.364 -6.463 -11.7 -8.486 -4.177 -6.991 -4.309 -8.266 -9.497 -4.836 4.573 -3.166 5.188
0.98 -6.331 -13.72 -6.155 -7.518 -8.617 -20.58 -15.04 -7.65 -8.178 -2.462 -11.61 -11.43 -3.429 9.321 0.4397 8.881
0.985 -9.585 -17.28 -11.39 -8.31 -8.134 -23.26 -17.5 -10.82 -7.914 2.462 -9.321 -9.057 -2.462 12.75 6.771 11.34
0.99 -9.585 -13.63 -13.01 -6.595 -4.66 -16.97 -14.42 -12 -6.023 8.793 -1.759 -2.462 -2.022 14.07 13.28 11.78
0.995 -5.979 -3.957 -9.629 -2.55 0.5276 -3.825 -6.727 -10.16 -2.902 12.05 7.914 5.54 -1.143 12.31 17.23 10.46
1 -0.7035 6.727 -2.682 2.55 5.232 9.805 2.682 -5.408 0.6595 9.409 15.21 11.08 0.5276 7.123 17.23 8.266
1.005 3.254 12.71 4.792 6.727 7.826 17.37 10.33 0.7914 4.309 2.814 16.8 11.78 2.902 0.2638 13.63 6.331
1.01 4.397 11.39 10.24 8.837 8.134 16.27 13.5 6.815 7.782 -2.374 12.49 8.617 5.54 -5.1 8.178 5.012
1.015 3.869 5.364 12.66 9.409 7.255 9.101 12 11.26 10.64 -3.078 4.836 4.485 8.178 -6.419 2.902 3.869
1.02 3.605 -0.3078 12.4 9.365 6.199 1.363 7.65 12.97 12 -1.143 -2.55 1.935 10.2 -4.221 -1.231 2.286
1.025 5.188 -1.979 10.33 9.541 4.792 -2.858 3.078 11.83 11.04 -0.9673 -7.562 1.935 11.34 -1.759 -4.485 0.1759
1.03 7.65 0.1319 7.211 9.453 2.374 -3.034 0.2638 8.398 7.914 -4.133 -9.849 3.517 10.82 -2.374 -7.211 -2.462
1.035 8.617 2.99 3.869 8.486 -0.8793 -1.011 -0.1759 4.089 3.913 -7.562 -10.02 4.397 7.826 -5.979 -9.497 -5.364
1.04 6.947 3.781 1.231 6.419 -3.737 0.9233 0.7914 0.5276 1.055 -6.243 -8.793 3.254 2.638 -9.673 -10.82 -8.442
1.045 3.254 1.803 -0.08793 3.869 -4.66 2.286 1.891 -1.539 -0.08793 0.7914 -6.331 0.6155 -3.429 -9.936 -10.55 -10.9
1.05 -0.08793 -1.231 -0.04397 1.627 -3.21 3.517 2.462 -1.935 -0.08793 8.617 -2.462 -1.583 -8.442 -6.155 -8.969 -11.87
1.055 -1.583 -3.473 0.3078 0 -0.4836 4.924 2.374 -1.583 -0.5716 10.2 2.374 -2.286 -10.55 -1.055 -6.507 -10.9
1.06 -1.231 -4.265 -0.08793 -1.319 1.627 5.584 2.198 -1.231 -2.154 3.078 6.683 -2.11 -9.497 2.286 -4.573 -8.266
1.065 -0.5276 -4.397 -1.539 -2.638 1.847 4.265 1.935 -1.495 -3.561 -7.65 8.793 -2.11 -5.892 3.078 -3.605 -4.485
1.07 -0.8793 -4.968 -3.122 -3.693 0.2198 0.6595 1.099 -2.242 -3.429 -13.98 7.211 -2.99 -1.847 2.726 -3.078 -0.08793
1.075 -2.198 -6.199 -4.133 -4.001 -1.979 -3.957 -1.187 -3.429 -1.583 -11.87 2.286 -4.66 0.9673 3.166 -2.022 4.045
1.08 -3.693 -7.694 -4.617 -3.869 -4.133 -7.87 -5.32 -5.144 0.1319 -4.748 -4.221 -6.947 1.583 4.309 0.4397 6.683
1.085 -5.1 -8.969 -5.32 -4.089 -6.287 -10.07 -10.55 -7.298 -0.4397 0.6155 -9.849 -8.969 -0.4397 4.045 3.605 7.035
1.09 -6.419 -9.717 -6.727 -5.32 -8.793 -10.2 -14.47 -8.925 -3.693 1.231 -12.57 -9.673 -3.605 0.7035 6.243 5.1
1.095 -7.914 -9.453 -7.518 -6.947 -10.99 -8.31 -14.47 -8.442 -7.386 0.4397 -11.34 -7.914 -5.716 -4.397 7.562 2.022
1.1 -8.53 -7.562 -5.936 -7.211 -11.3 -4.265 -8.749 -4.529 -8.178 3.781 -6.067 -3.341 -4.397 -7.826 8.002 0.4397
1.105 -6.947 -3.605 -1.187 -4.748 -8.486 1.671 1.627 2.286 -4.66 13.37 1.671 3.781 1.143 -6.243 8.705 2.638
1.11 -2.902 1.407 4.924 -0.04397 -2.77 8.134 13.15 9.541 1.011 24.09 9.233 11.96 9.585 0 10.46 8.969
1.115 2.638 5.628 9.057 4.617 3.737 12.66 20.84 13.89 5.232 27.79 13.89 18.11 17.23 7.211 12.57 15.83
1.12 7.211 7.211 8.661 6.771 8.442 13.15 21.37 13.15 5.1 20.05 14.07 18.91 20.05 11.17 12.66 18.47
1.125 8.969 5.804 4.309 5.54 9.629 9.453 14.77 7.782 1.231 4.221 9.849 13.54 16.27 9.849 9.057 13.54
1.13 7.914 2.418 -0.9233 2.462 7.298 3.517 4.485 0.8354 -3.517 -11.43 2.814 4.221 7.123 4.309 1.847 2.638
1.135 5.1 -1.143 -3.781 0.08793 3.034 -1.759 -4.704 -4.353 -6.595 -20.05 -4.397 -5.364 -3.341 -2.462 -6.859 -9.673
1.14 1.671 -3.913 -3.341 -0.6155 -1.583 -5.1 -9.497 -6.023 -7.255 -20.84 -9.761 -12.49 -11.43 -7.914 -13.81 -18.2
1.145 -1.847 -6.199 -1.363 -0.3517 -5.54 -6.551 -9.277 -4.792 -6.815 -18.2 -12.31 -15.56 -15.21 -10.99 -16.8 -20.49
1.15 -5.276 -8.442 -0.3957 -0.7035 -8.134 -7.079 -5.936 -2.506 -6.551 -16.44 -12.22 -14.25 -14.42 -11.61 -15.48 -17.15
1.155 -7.474 -9.98 -1.495 -2.374 -8.574 -6.507 -1.891 -0.8793 -6.639 -16 -9.409 -9.057 -10.55 -9.849 -10.82 -11.26
1.16 -6.771 -9.277 -3.605 -4.573 -6.287 -3.825 1.495 -0.5276 -6.067 -13.37 -3.957 -1.671 -5.1 -5.628 -4.309 -5.276
1.165 -2.814 -5.54 -4.836 -5.54 -1.671 0.8354 3.825 -0.9233 -4.177 -5.012 2.99 5.979 0.5276 -0.1759 2.286 -0.08793
1.17 2.638 -0.3517 -4.353 -4.353 3.693 5.54 4.66 -1.891 -1.935 8.266 8.969 11.26 4.485 4.66 7.474 3.957
1.175 6.331 2.814 -2.814 -1.759 7.386 6.859 2.99 -3.649 -0.5716 20.93 11.17 11.34 4.748 6.683 9.321 5.716
1.18 5.452 1.187 -1.847 0.4836 7.65 2.77 -1.671 -6.507 -0.7914 25.85 7.65 4.836 0.7914 5.54 7.123 4.045
1.185 0.3517 -5.012 -2.462 1.143 4.529 -5.232 -8.617 -9.805 -1.847 19.26 -0.7035 -5.716 -5.628 2.99 1.847 -0.7035
1.19 -5.1 -12.13 -4.177 0.2198 -0.08793 -12.49 -14.99 -11.61 -2.11 4.045 -10.29 -14.77 -10.73 1.759 -3.605 -5.716
1.195 -6.859 -15.3 -5.496 -0.9233 -3.473 -13.89 -16.8 -9.849 -0.5276 -11.7 -16 -16.97 -10.55 3.341 -5.54 -7.474
1.2 -3.429 -11.61 -4.836 -0.9673 -3.649 -7.606 -11.78 -3.913 2.55 -19.87 -14.25 -10.73 -4.309 6.947 -2.11 -4.045
1.205 2.902 -2.418 -1.627 1.099 -0.5276 3.649 -0.8793 4.748 5.936 -17.06 -5.364 1.495 5.54 10.2 5.276 3.166
1.21 8.266 8.046 3.781 4.792 3.957 14.64 11.87 13.01 8.442 -6.243 6.859 14.51 14.6 10.55 12.93 10.46
1.215 10.11 15.34 9.673 8.881 8.09 21.06 21.63 18.07 9.497 5.892 17.5 22.86 19.17 7.65 16.88 14.07
1.22 8.705 17.72 14.07 11.74 10.46 21.54 25.37 18.73 9.189 13.45 22.95 23.83 18.38 2.902 15.39 12.22
1.225 6.771 16.27 15.3 12.57 10.9 17.59 23.04 15.92 7.87 14.51 21.81 18.38 13.89 -1.319 9.497 6.771
1.23 6.595 13.37 13.37 11.61 9.805 11.74 16.88 11.74 5.848 11.43 15.39 9.936 8.002 -3.957 1.847 0.4397
1.235 8.266 10.64 9.673 9.936 7.782 6.067 9.673 7.782 3.605 7.123 6.947 1.319 2.198 -5.364 -5.1 -5.012
1.24 10.2 8.486 6.243 8.749 5.32 1.583 3.473 4.704 1.803 2.902 -0.4397 -6.067 -3.341 -6.859 -10.2 -9.409
1.245 9.936 5.936 4.353 8.222 2.594 -1.715 -1.011 2.462 0.8793 -1.583 -4.485 -11.52 -8.266 -9.233 -13.45 -12.75
1.25 7.123 2.726 3.781 7.738 -0.1759 -3.561 -3.561 0.6155 0.5276 -6.507 -4.748 -13.89 -11.7 -11.61 -14.95 -15.12
1.255 3.078 -0.3078 3.034 6.111 -2.33 -3.649 -4.221 -0.5716 0.2198 -10.02 -2.374 -12.93 -12.05 -12.22 -14.25 -15.83
1.26 0.2638 -1.847 1.011 2.99 -3.078 -2.242 -3.561 -1.099 -0.4397 -9.936 0.5276 -9.409 -9.233 -9.233 -11.17 -14.33
1.265 0 -1.363 -2.242 -0.9673 -2.55 -0.5276 -2.682 -1.011 -1.011 -5.979 1.935 -4.66 -4.397 -2.902 -5.979 -10.29
1.27 2.022 0 -5.584 -4.441 -1.583 0 -3.166 -1.143 -0.8793 -1.055 0.7035 -0.4397 0.1759 4.221 0.08793 -4.573
1.275 3.781 0 -8.266 -6.595 -1.759 -1.847 -5.848 -2.198 -0.08793 0.7035 -2.55 1.935 2.462 9.145 5.804 1.671
1.28 2.286 -3.166 -10.6 -7.914 -4.309 -6.155 -10.29 -4.573 0.3957 -2.11 -6.331 1.847 2.022 10.29 9.849 6.947
1.285 -4.133 -9.453 -13.37 -9.585 -9.409 -12.09 -14.64 -7.738 -0.7914 -6.771 -9.233 0.1759 0.08793 8.266 11.96 10.82
1.29 -13.98 -16.58 -16.53 -12.09 -15.78 -17.5 -16.75 -10.77 -4.089 -8.53 -10.9 -1.495 -2.022 5.628 12.57 13.1
1.295 -22.77 -20.97 -18.86 -14.73 -20.71 -20.18 -15.48 -12.71 -8.31 -4.924 -11.34 -2.726 -3.517 4.221 11.87 13.72
1.3 -26.03 -20.09 -18.51 -15.78 -21.68 -18.86 -11.17 -12.93 -11.12 1.671 -10.73 -4.133 -4.309 4.221 9.409 12.84
1.305 -21.72 -14.29 -14.33 -13.81 -17.76 -13.85 -5.364 -11.3 -10.82 5.628 -9.497 -5.979 -4.748 3.693 5.012 10.55
1.31 -12.05 -6.199 -7.342 -8.881 -10.38 -7.123 0.2198 -7.606 -7.474 3.605 -7.123 -7.562 -4.573 1.055 -0.7914 7.298
1.315 -1.847 0.8793 0.08793 -2.286 -2.638 -0.9233 4.573 -2.418 -2.55 -2.55 -3.693 -7.826 -3.517 -3.517 -6.507 3.429
1.32 4.221 4.792 5.628 3.825 2.55 2.946 7.606 3.298 1.935 -7.211 0.3517 -6.243 -1.407 -8.002 -10.02 -0.4397
1.325 4.748 5.76 8.398 7.958 3.825 4.265 9.497 8.178 5.32 -5.979 4.309 -2.638 1.671 -9.849 -9.936 -3.078
1.33 1.847 5.452 8.925 9.277 2.066 4.309 10.55 11.04 7.606 0.8793 7.562 2.286 5.1 -8.266 -6.507 -3.166
1.335 -1.231 6.199 8.442 8.002 -0.04397 5.1 11.08 11.56 9.233 8.705 10.11 7.562 8.002 -4.133 -0.8793 -0.8793
1.34 -2.286 9.145 7.87 4.968 -0.04397 7.782 11.26 10.38 10.24 13.1 12.22 11.7 9.761 0.5276 4.748 2.286
1.345 -0.9673 13.94 7.518 1.671 2.902 11.87 11.26 8.749 10.16 13.28 13.98 14.25 10.2 4.397 8.793 4.573
1.35 2.11 19.13 7.43 -0.4836 7.518 15.65 10.55 7.562 8.705 12.13 14.77 15.21 9.057 6.859 10.11 4.66
1.355 5.716 22.73 7.43 -0.4836 11.52 17.06 8.486 6.595 6.111 12.75 13.81 13.98 6.331 7.914 8.442 2.55
1.36 9.057 23.21 7.035 1.319 12.75 14.82 4.529 4.924 3.122 14.51 10.55 9.936 2.286 7.386 4.133 -0.5276
1.365 10.46 19.65 5.628 3.473 10.33 9.101 -1.231 1.935 0.4836 13.63 5.276 3.341 -2.198 5.188 -1.847 -2.726
1.37 8.617 12.27 2.682 4.001 4.836 1.583 -7.65 -2.374 -1.627 7.386 -0.9673 -3.517 -5.979 1.583 -7.65 -2.902
1.375 3.078 2.682 -1.803 1.803 -1.935 -5.716 -13.15 -7.123 -3.473 -2.726 -6.771 -8.705 -8.002 -2.286 -11.08 -1.407
1.38 -4.924 -6.595 -6.991 -2.946 -8.354 -11.17 -16.36 -11.34 -5.188 -11.52 -11.26 -11.17 -8.266 -4.924 -10.82 0.7035
1.385 -12.31 -13.32 -11.74 -8.705 -13.19 -14.38 -17.41 -14.51 -6.947 -14.07 -14.33 -11.78 -7.826 -5.628 -7.386 2.462
1.39 -16.53 -16.88 -15.3 -13.76 -16.14 -16.05 -17.45 -17.06 -8.925 -9.761 -16.36 -12.13 -8.266 -4.573 -3.429 3.517
1.395 -17.15 -18.38 -17.72 -16.93 -17.19 -17.06 -17.5 -19.08 -11.12 -2.55 -17.41 -14.07 -10.29 -2.726 -1.935 3.429
1.4 -16.27 -19.43 -18.91 -17.76 -16.62 -17.98 -17.72 -20.27 -13.32 2.022 -17.15 -17.67 -13.37 -0.6155 -3.957 1.759
1.405 -16.18 -20.58 -18.2 -16.27 -14.38 -18.25 -16.84 -19.35 -14.47 1.759 -14.95 -20.22 -15.3 1.231 -8.266 -1.231
1.41 -16.71 -20.66 -14.47 -12.35 -10.29 -16.58 -13.45 -15.12 -13.15 -1.319 -10.38 -18.47 -14.07 2.462 -11.96 -4.748
1.415 -15.48 -17.5 -7.167 -6.331 -4.485 -11.87 -6.991 -7.694 -8.574 -3.078 -4.221 -10.9 -8.617 2.374 -12.49 -7.65
1.42 -10.02 -9.893 2.286 0.7914 2.594 -4.265 1.319 1.539 -1.187 -1.407 2.11 -0.08793 -0.3517 0.8793 -9.321 -8.793
1.425 -0.6155 0.7474 10.95 7.298 9.497 4.704 9.233 10.2 6.947 2.11 6.947 10.29 8.178 -1.231 -4.045 -7.826
1.43 9.409 11.12 15.74 11.3 14.6 12.71 14.47 15.96 12.93 4.748 9.409 17.15 14.33 -2.462 1.231 -5.012
1.435 16.09 17.94 15.74 11.96 17.19 18.16 16.31 18.07 14.82 5.012 10.38 20.05 17.06 -1.143 5.979 -1.495
1.44 17.15 20.22 12.75 9.893 17.59 20.8 16.09 17.28 12.57 4.133 11.43 20.49 17.06 2.814 10.73 1.671
1.445 14.33 19.13 9.893 6.727 17.1 21.54 15.52 15.21 8.134 4.045 13.81 21.28 15.65 7.65 15.48 4.309
1.45 10.99 16.53 9.101 4.309 16.62 20.93 15.56 12.93 3.737 5.452 16.71 22.95 13.98 10.64 19.08 6.419
1.455 9.321 13.5 9.541 3.254 16.22 18.33 15.3 10.24 0.7914 6.683 17.41 22.77 11.61 10.11 18.99 7.562
1.46 8.881 9.189 8.53 2.506 14.6 12.62 12.79 5.979 -0.9673 5.012 13.01 16.97 7.211 6.331 13.28 6.859
1.465 7.65 2.77 4.045 0.7474 10.51 3.166 6.771 -0.3957 -2.77 -0.08793 2.638 4.573 0.5276 0.9673 2.374 3.869
1.47 4.133 -5.32 -3.298 -2.286 4.221 -8.09 -1.891 -8.002 -5.364 -6.859 -10.9 -10.73 -7.298 -4.133 -10.02 -0.3517
1.475 -0.4397 -12.44 -10.11 -5.32 -2.022 -17.23 -10.07 -13.98 -8.09 -12.05 -21.81 -22.86 -13.45 -7.738 -18.91 -4.309
1.48 -3.517 -15.61 -12.57 -6.243 -5.408 -20.49 -13.63 -15.21 -9.541 -13.81 -25.06 -26.56 -15.12 -9.585 -20.75 -6.155
1.485 -3.869 -13.81 -8.969 -3.913 -4.617 -16.88 -10.95 -10.77 -8.398 -11.87 -19.08 -21.1 -11.52 -9.936 -15.74 -5.276
1.49 -2.198 -8.925 -1.451 0.5716 -0.7035 -9.233 -3.693 -2.858 -4.968 -7.562 -7.65 -10.46 -4.748 -9.409 -7.474 -2.374
1.495 -0.7914 -4.529 5.672 4.397 3.298 -2.374 3.517 4.397 -0.8793 -2.374 2.99 -1.231 1.319 -8.442 -0.8793 0.1759
1.5 -1.055 -2.858 8.837 5.408 4.968 0.04397 6.595 7.65 2.066 2.374 7.65 1.495 3.781 -7.298 1.055 0.1759
1.505 -2.022 -3.517 7.342 3.561 3.737 -2.198 4.045 6.331 3.298 5.364 5.452 -2.286 2.286 -6.155 -1.847 -2.726
1.51 -1.407 -4.001 3.825 1.451 1.407 -5.848 -1.671 3.122 3.781 5.188 -0.6155 -8.09 -0.9673 -4.836 -6.683 -6.859
1.515 2.374 -1.759 1.627 1.671 0.3078 -6.683 -6.243 1.451 4.792 1.847 -5.452 -10.73 -2.902 -2.902 -9.497 -9.761
1.52 8.266 3.385 2.418 4.66 1.363 -2.77 -6.331 3.166 6.639 -2.462 -5.628 -7.474 -1.583 -0.7035 -7.562 -9.409
1.525 12.75 8.969 5.056 8.002 3.517 4.353 -1.979 6.991 8.31 -4.397 -1.231 0.7914 2.286 1.055 -0.6155 -5.364
1.53 12.84 12.05 6.727 8.398 4.924 11.17 3.781 10.11 8.09 -1.671 5.188 10.73 6.507 1.583 9.057 1.055
1.535 8.53 11.56 5.848 4.836 4.704 14.64 7.826 10.33 5.32 4.485 10.38 18.38 8.881 0.7914 17.5 7.738
1.54 3.517 9.057 3.166 -0.3957 3.473 13.81 8.793 7.694 1.407 9.761 12.57 20.84 8.705 -0.2638 21.37 12.13
1.545 2.286 6.947 1.319 -3.561 2.506 10.29 7.782 3.913 -1.495 9.936 11.7 18.2 6.419 -0.1759 19.61 13.28
1.55 6.331 6.419 1.715 -2.682 2.154 6.595 6.639 0.9233 -2.418 4.748 8.969 12.84 3.078 1.319 13.81 11.78
1.555 12.66 6.947 3.649 0.9233 1.935 4.573 6.111 -1.099 -2.33 -2.374 5.716 7.298 -0.3517 3.341 7.562 9.057
1.56 15.83 6.771 4.221 3.473 0.7914 4.397 5.584 -2.594 -2.946 -6.771 3.078 2.902 -3.605 4.045 3.869 6.243
1.565 12.05 4.836 1.583 2.462 -1.583 4.792 3.561 -4.045 -5.056 -7.035 0.7914 0.1759 -6.067 2.638 3.166 4.221
1.57 1.935 1.671 -3.561 -1.495 -4.397 4.221 -0.3517 -4.924 -7.255 -5.012 -1.847 -1.495 -6.595 0.1759 3.517 3.254
1.575 -9.057 -1.451 -7.958 -5.188 -6.463 1.847 -5.012 -4.177 -6.947 -4.309 -4.748 -2.726 -4.573 -1.055 2.55 2.99
1.58 -15.48 -3.385 -8.31 -5.452 -7.211 -2.022 -8.266 -1.275 -2.594 -6.243 -7.035 -3.781 -0.08793 0.7035 -0.08793 2.814
1.585 -14.95 -4.221 -4.353 -2.11 -7.167 -5.76 -8.617 2.902 4.441 -9.057 -7.035 -3.605 5.452 4.924 -2.55 2.814
1.59 -9.409 -4.617 1.319 2.374 -7.079 -7.43 -6.375 6.551 10.68 -9.409 -3.693 -0.7035 10.02 9.409 -2.286 2.814
1.595 -3.254 -4.617 5.232 5.188 -6.859 -5.716 -2.902 8.134 12.84 -5.716 2.374 4.221 11.61 11.52 1.407 2.638
1.6 0.1759 -3.649 5.584 5.408 -5.804 -1.275 0 7.079 10.29 0.7914 8.793 8.002 9.585 9.936 5.892 1.231
1.605 0.3517 -1.407 3.517 4.045 -3.385 3.385 1.011 4.045 5.188 6.771 11.87 7.298 4.397 5.892 7.298 -1.759
1.61 -0.9673 1.451 1.583 2.946 -0.3517 5.628 -0.3078 0.1319 0.8793 9.673 9.409 1.407 -2.638 1.583 3.429 -6.067
1.615 -2.462 3.254 1.275 2.946 1.803 4.133 -3.517 -3.517 -0.7914 8.705 2.55 -7.474 -9.145 -0.7035 -3.693 -10.29
1.62 -3.605 2.77 2.066 3.429 1.891 0.04397 -7.167 -5.848 -0.1759 5.1 -4.748 -14.77 -13.1 -0.2638 -9.233 -12.93
1.625 -4.573 0.2198 2.418 3.254 0.2638 -4.001 -9.321 -6.419 1.099 0.8793 -8.266 -16.18 -13.28 1.847 -9.145 -12.57
1.63 -5.188 -2.946 1.187 1.715 -1.935 -5.452 -8.661 -5.32 1.495 -2.11 -6.243 -10.73 -9.849 3.693 -3.429 -9.409
1.635 -4.748 -4.968 -1.671 -0.8354 -2.99 -3.957 -5.012 -3.649 0.2638 -2.99 -0.7914 -1.847 -4.748 3.869 4.309 -4.924
1.64 -3.254 -5.364 -4.88 -3.693 -2.858 -1.363 -0.04397 -2.638 -2.022 -2.11 4.133 5.188 -0.7914 2.022 9.849 -0.9673
1.645 -1.759 -4.968 -7.342 -6.243 -2.462 -0.3078 3.429 -3.298 -4.441 -0.9673 4.924 7.123 0.5276 -1.143 10.64 1.583
1.65 -1.319 -4.748 -8.31 -7.87 -2.902 -1.803 3.341 -5.012 -6.111 -0.7035 0.7914 4.748 -0.4397 -4.221 7.65 3.166
1.655 -2.374 -4.617 -7.738 -7.826 -3.869 -4.66 0.2198 -6.155 -6.199 -1.759 -5.452 1.231 -1.407 -6.067 3.781 4.397
1.66 -3.429 -3.473 -5.496 -5.672 -3.781 -6.023 -3.078 -4.792 -4.177 -2.638 -9.497 -0.9673 -0.6155 -5.892 0.7035 5.1
1.665 -2.198 -0.4397 -1.627 -1.671 -1.583 -3.913 -3.957 -0.5716 -0.3957 -1.407 -8.53 -0.7914 2.374 -3.517 -1.495 4.485
1.67 1.407 3.473 2.858 2.55 2.11 1.143 -1.495 4.66 3.825 2.462 -2.814 0.9673 5.716 0 -4.045 2.022
1.675 5.804 6.419 6.111 4.968 5.452 6.551 2.374 8.134 6.683 7.211 4.66 1.847 6.859 2.99 -7.474 -2.11
1.68 7.826 6.287 6.199 4.221 6.287 9.145 4.617 7.562 6.771 9.673 9.936 0.6155 4.924 3.957 -10.99 -6.683
1.685 5.979 2.77 2.638 0.7474 3.913 7.342 3.341 3.078 4.353 8.09 10.38 -2.814 0.8793 2.198 -13.37 -9.585
1.69 1.583 -2.55 -2.726 -3.561 -0.08793 2.11 -0.8793 -3.385 0.9673 3.429 5.892 -6.419 -2.99 -1.055 -13.81 -9.585
1.695 -2.902 -7.211 -7.342 -6.683 -3.737 -3.605 -5.496 -8.881 -1.759 -1.407 -0.8793 -8.617 -4.573 -3.341 -12.4 -7.035
1.7 -5.452 -9.365 -8.661 -7.43 -5.76 -6.903 -7.914 -11.39 -2.946 -4.66 -6.595 -8.793 -3.957 -2.374 -9.673 -3.693
1.705 -6.155 -8.969 -6.287 -6.155 -6.243 -6.815 -7.518 -10.55 -3.034 -6.859 -9.233 -7.298 -2.374 1.935 -6.155 -1.231
1.71 -6.243 -7.035 -2.11 -4.001 -6.199 -4.353 -5.32 -7.738 -3.298 -9.145 -8.881 -4.748 -1.583 6.859 -2.814 -0.08793
1.715 -6.243 -5.188 1.099 -2.066 -6.067 -1.891 -2.902 -4.836 -4.441 -11.17 -7.211 -2.638 -2.11 8.617 -0.4397 -0.08793
1.72 -6.067 -4.617 1.583 -1.055 -5.628 -1.671 -1.187 -2.99 -6.111 -10.38 -5.979 -2.198 -3.254 5.188 0.1759 -0.8793
1.725 -5.012 -6.067 -0.4836 -1.011 -4.573 -4.573 -0.04397 -2.198 -6.947 -4.836 -5.979 -3.781 -3.605 -1.847 -1.495 -2.11
1.73 -3.781 -9.233 -3.254 -1.363 -3.21 -9.936 0.5716 -1.935 -5.848 3.781 -7.211 -6.507 -2.726 -8.793 -5.012 -3.429
1.735 -3.429 -12.66 -4.353 -1.407 -2.242 -15.3 0.5276 -1.451 -2.946 10.11 -8.793 -9.497 -0.9673 -11.78 -8.442 -4.397
1.74 -4.485 -13.98 -2.506 -0.1759 -1.979 -17.94 -0.4836 -0.8793 0.5276 9.673 -9.936 -12.05 0.08793 -9.849 -10.11 -4.748
1.745 -5.452 -11.04 1.847 2.286 -1.583 -15.87 -1.979 -0.4836 3.122 2.11 -10.02 -12.84 -0.6155 -5.188 -8.969 -3.781
1.75 -3.781 -3.693 6.419 4.968 0.1319 -8.925 -2.638 -0.7474 3.473 -7.035 -8.354 -10.55 -2.638 -0.9673 -5.1 -1.495
1.755 1.407 5.716 8.574 6.111 3.649 0.9233 -0.9233 -1.187 1.495 -11.52 -4.133 -4.221 -4.045 0.6155 0.1759 1.759
1.76 7.738 13.1 6.991 4.221 7.958 10.55 3.561 -0.7035 -1.451 -9.145 2.374 4.924 -2.902 0.2638 5.804 4.748
1.765 11.34 15.12 2.462 -0.2638 10.99 16.58 9.145 1.407 -3.737 -3.078 9.761 14.25 1.407 -0.5276 9.936 6.771
1.77 9.761 11.56 -2.33 -5.012 11.21 17.41 13.06 4.617 -4.045 2.022 14.77 20.66 6.947 -0.6155 11.26 7.474
1.775 4.485 5.54 -4.88 -7.167 9.145 13.98 13.1 7.255 -2.418 3.869 15.12 21.54 10.64 -0.1759 8.969 6.859
1.78 0 1.495 -4.001 -5.056 6.551 9.013 9.233 7.826 0.04397 3.429 10.9 16.62 9.936 0.2638 3.781 4.748
1.785 -0.3517 1.979 -0.4836 0.2198 4.88 4.924 3.385 6.111 2.198 2.638 3.869 8.881 5.276 0 -2.286 1.407
1.79 3.341 5.804 3.341 5.848 4.133 2.682 -1.891 3.122 3.166 1.407 -2.814 2.022 -0.7914 -1.055 -6.771 -1.759
1.795 7.211 9.277 5.364 8.617 2.902 1.099 -5.232 0.4836 2.726 -1.759 -7.298 -1.935 -5.188 -2.814 -8.09 -3.869
1.8 7.035 8.925 4.441 7.255 -0.2638 -1.495 -6.947 -1.187 1.099 -6.771 -9.497 -4.397 -7.035 -4.748 -6.683 -4.221
1.805 1.759 3.781 0.9233 2.726 -5.188 -6.243 -8.398 -2.814 -1.495 -10.64 -10.55 -7.65 -8.002 -6.595 -4.397 -3.341
1.81 -6.155 -4.133 -4.089 -2.77 -10.07 -11.96 -10.29 -5.848 -5.188 -9.409 -11.08 -12.13 -10.11 -8.09 -3.166 -2.462
1.815 -12.4 -11.26 -9.233 -7.43 -12.44 -16.09 -11.87 -10.33 -9.453 -2.902 -10.38 -15.83 -13.1 -8.53 -2.55 -2.198
1.82 -14.16 -14.6 -12.84 -10.2 -11.17 -16 -11.17 -13.94 -12.49 4.221 -6.771 -15.48 -14.16 -7.386 -0.8793 -2.022
1.825 -11.26 -12.93 -13.45 -10.55 -6.551 -10.6 -6.375 -13.41 -12.09 6.419 0.2638 -8.53 -9.409 -4.309 4.133 0.5276
1.83 -5.452 -7.211 -10.02 -8.354 -0.2198 -1.011 2.286 -6.727 -6.903 3.166 9.409 4.573 1.671 0.6155 12.66 7.298
1.835 1.319 0.9233 -2.814 -3.649 6.243 10.42 12.93 4.792 2.066 -0.2638 18.38 19.79 15.92 6.771 22.42 16.88
1.84 7.386 9.673 6.287 2.77 11.43 20.44 22.03 17.32 11.56 2.726 24.62 30.95 26.82 12.66 29.46 24.89
1.845 11.34 16.93 14.73 9.277 14.16 26.2 26.78 25.85 17.63 12.4 26.2 33.85 29.37 15.39 29.99 26.03
1.85 12.4 20.8 19.96 13.98 13.67 26.12 25.85 27.17 17.89 21.98 22.34 27.7 22.34 12.75 22.51 18.2
1.855 10.29 19.96 20.88 15.3 10.07 20.27 19.87 21.1 12.79 22.6 13.63 14.33 9.233 4.748 8.617 3.869
1.86 6.419 14.42 17.67 13.06 4.704 10.33 10.38 10.38 4.924 11.43 1.759 -2.902 -4.924 -5.628 -7.65 -11.43
1.865 2.198 5.276 11.43 8.178 -0.5276 -1.231 -0.5276 -1.407 -2.462 -5.54 -10.9 -19.79 -16.27 -13.45 -21.81 -22.07
1.87 -0.6155 -4.968 3.429 2.154 -4.265 -11.83 -11.08 -11.08 -7.474 -18.2 -21.28 -32.1 -23.21 -14.86 -30.16 -25.59
1.875 -1.935 -13.5 -5.1 -3.693 -6.243 -19.17 -19.26 -16.71 -9.717 -20.49 -26.2 -36.93 -25.32 -9.673 -30.86 -23.3
1.88 -2.374 -17.67 -12.49 -8.222 -7.298 -21.68 -23.26 -17.54 -9.497 -14.42 -24.27 -33.15 -22.69 -1.495 -24.71 -18.47
1.885 -2.462 -16.09 -16.8 -10.38 -8.222 -18.77 -21.72 -14.25 -7.123 -6.683 -15.74 -21.81 -15.21 5.188 -14.07 -12.75
1.89 -2.11 -9.145 -16.58 -9.717 -8.705 -10.86 -14.99 -8.53 -3.21 -2.11 -3.605 -5.276 -3.957 8.354 -2.286 -6.243
1.895 -0.8793 0.5716 -12.18 -6.683 -7.694 -0.1759 -5.496 -2.594 1.275 0 8.09 11.7 8.354 9.233 7.65 1.143
1.9 0.6155 9.321 -5.804 -2.814 -4.617 9.936 3.034 1.671 4.968 2.99 15.74 24.01 17.85 10.2 13.63 8.266
1.905 1.935 13.15 -0.7035 -0.04397 -0.5276 15.43 7.826 3.869 6.595 8.09 16.88 28.31 22.07 12.13 14.95 12.57
1.91 2.198 10.55 1.275 0.6595 2.726 14.42 8.09 4.704 6.111 12.57 12.13 24.8 20.84 13.37 12.57 12.75
1.915 2.374 3.781 0.4836 -0.2198 3.825 8.574 5.892 5.76 4.617 12.66 5.012 16.71 16.88 11.96 8.617 9.585
1.92 3.781 -2.55 -0.7035 -0.7035 3.429 2.066 4.66 8.002 3.825 7.826 -0.1759 8.53 13.28 7.914 5.628 6.067
1.925 7.298 -4.309 0.3517 0.7035 3.166 -0.7914 6.551 11.08 4.441 1.847 -0.9673 3.605 11.61 3.517 5.012 5.452
1.93 11.61 -0.6155 4.441 4.221 4.177 1.319 10.9 13.19 5.716 -0.7914 1.935 2.638 10.73 1.407 5.979 7.914
1.935 14.07 5.936 10.11 8.31 5.936 6.067 14.9 12.62 6.111 1.407 5.716 2.902 8.002 1.319 6.419 10.29
1.94 12.49 11.08 14.25 11.04 6.463 9.409 15.7 8.837 4.573 5.628 6.771 0.8793 1.935 0.4397 4.397 8.705
1.945 7.035 11.91 14.77 11.56 4.617 8.837 12.44 2.99 1.671 7.738 4.485 -4.221 -6.683 -3.693 -0.3517 2.198
1.95 0.2638 8.354 11.65 10.29 1.143 5.056 6.991 -2.286 -1.011 6.243 1.143 -9.585 -14.16 -10.55 -5.892 -5.892
1.955 -5.012 2.77 6.947 8.31 -1.847 1.055 2.726 -4.792 -2.11 2.902 0.1759 -11.61 -17.06 -16.53 -9.321 -10.73
1.96 -7.035 -2.374 3.254 6.375 -2.506 -0.8354 2.11 -3.605 -1.319 0.8793 2.638 -9.057 -14.16 -17.85 -9.409 -9.849
1.965 -5.979 -5.628 2.11 4.441 -1.099 -0.5716 4.617 0.2198 0.3957 1.231 6.683 -3.605 -7.474 -13.81 -6.771 -4.748
1.97 -2.99 -6.683 2.902 2.33 0.4836 0.1759 7.562 4.221 1.583 2.726 8.442 1.671 -0.6155 -7.474 -3.781 0.4397
1.975 0.7035 -5.672 3.561 -0.1759 0.4836 -0.2198 7.342 5.979 1.451 2.902 5.628 4.397 3.341 -2.902 -1.759 2.022
1.98 3.781 -2.858 2.154 -2.814 -1.363 -1.759 2.374 4.397 0.3517 0.4397 -0.7914 4.309 4.133 -1.319 -0.7035 0.08793
1.985 4.573 0.6155 -2.242 -5.408 -4.177 -3.517 -6.375 0.2638 -0.9673 -4.397 -7.826 2.814 3.605 -0.7035 0.2638 -1.583
1.99 1.583 2.506 -8.354 -7.958 -6.859 -4.836 -15.61 -4.485 -1.627 -9.585 -12.49 1.407 4.045 2.462 2.11 0.3517
1.995 -5.1 0.8793 -14.2 -10.46 -8.881 -5.892 -21.59 -7.782 -1.539 -13.1 -13.54 0.4397 5.979 9.145 4.924 6.155
2 -12.84 -4.309 -17.85 -12.62 -9.936 -7.079 -22.34 -8.749 -1.143 -13.63 -11.34 -0.6155 7.826 16.53 8.002 12.22
2.005 -17.23 -10.33 -18.42 -13.45 -9.629 -8.002 -18.25 -7.65 -0.7474 -10.64 -7.035 -0.5276 7.562 19.96 10.99 14.42
2.01 -15.56 -13.23 -15.92 -12 -7.211 -7.298 -11.34 -5.54 -0.6155 -4.924 -1.847 1.935 4.573 16.62 13.37 11.7
2.015 -8.178 -10.68 -11.3 -8.134 -2.594 -4.133 -3.913 -3.517 -0.7474 1.583 3.166 6.595 0.3517 7.738 14.42 6.243
2.02 1.231 -3.693 -5.32 -2.55 2.902 0.6595 2.506 -1.891 -0.9673 6.067 5.979 10.11 -3.254 -2.286 13.01 1.671
2.025 8.442 4.001 0.9233 3.166 7.167 4.968 7.562 -0.5276 -1.319 6.771 4.836 8.617 -5.364 -9.497 7.826 -0.6155
2.03 11.52 9.101 6.463 7.65 8.53 6.947 10.99 0.6155 -1.627 3.781 -0.08793 1.143 -6.683 -12.75 -0.6155 -1.759
2.035 11.26 10.77 10.16 9.936 7.342 6.595 12.53 1.451 -1.715 -1.055 -5.979 -9.057 -8.53 -13.72 -9.585 -4.397
2.04 9.409 10.29 11.26 9.98 5.32 5.54 11.91 1.847 -1.055 -5.452 -8.354 -16.53 -10.73 -14.68 -15.39 -9.673
2.045 6.859 8.925 10.2 8.398 3.781 4.88 9.453 2.286 0.5276 -7.826 -5.012 -16.88 -11.61 -15.65 -16.09 -15.39
2.05 2.99 6.507 8.354 6.155 2.638 4.133 6.419 3.429 2.902 -7.738 2.374 -10.2 -9.057 -14.6 -12.4 -17.32
2.055 -2.55 2.154 7.386 4.309 0.6595 2.066 4.397 5.716 5.232 -5.012 9.585 -1.055 -2.726 -9.585 -6.859 -13.19
2.06 -8.442 -3.693 7.474 3.298 -2.374 -1.671 4.001 8.442 6.947 0 12.75 5.188 5.276 -0.9673 -1.671 -4.397
2.065 -11.96 -8.442 7.65 2.902 -5.32 -5.54 4.573 10.02 7.606 6.243 11.26 6.507 11.43 7.914 2.022 5.012
2.07 -10.82 -8.881 5.979 2.154 -6.067 -6.991 4.089 8.617 7.255 11.08 7.298 4.836 13.1 12.66 4.309 10.99
2.075 -5.54 -4.265 1.451 0.1759 -3.517 -4.968 0.8354 3.429 6.243 11.34 3.605 2.462 10.02 11.26 5.1 11.7
2.08 0.8793 2.462 -5.32 -3.341 0.6595 -1.407 -4.924 -4.485 4.617 5.716 0.7914 0.08793 4.397 5.1 3.517 7.914
2.085 5.012 6.639 -12.4 -7.518 3.341 0.04397 -11.26 -12.18 2.418 -3.781 -2.726 -3.166 -1.143 -2.11 -0.8793 2.374
2.09 4.836 4.704 -17.32 -10.68 1.847 -3.385 -15.83 -16.58 -0.2638 -12.57 -8.53 -7.123 -4.924 -6.947 -6.859 -2.11
2.095 1.055 -2.462 -18.6 -11.65 -3.781 -10.9 -17.28 -16.4 -2.814 -16.27 -15.48 -10.64 -6.595 -8.354 -11.52 -4.748
2.1 -4.748 -10.86 -16.49 -10.16 -10.99 -18.91 -16.4 -12.44 -4.397 -13.98 -20.75 -12.31 -7.035 -6.859 -12.13 -5.628
2.105 -10.29 -15.87 -12 -7.079 -16.49 -23.35 -15.08 -7.694 -4.617 -8.969 -21.98 -11.61 -7.386 -3.781 -8.881 -5.276
2.11 -14.33 -15.83 -7.167 -4.045 -18.03 -22.34 -15.21 -5.144 -4.001 -5.54 -18.82 -9.321 -8.53 0 -4.397 -4.309
2.115 -15.65 -11.65 -4.001 -2.638 -15.12 -16.49 -16.58 -6.331 -3.605 -4.836 -12.84 -7.211 -10.29 3.957 -1.495 -2.814
2.12 -13.81 -5.804 -3.693 -3.341 -8.837 -8.09 -17.45 -10.16 -4.133 -4.485 -5.716 -5.979 -11.78 7.562 -0.7914 -1.143
2.125 -8.705 -0.3078 -6.023 -5.452 -0.8354 0.4397 -15.56 -13.59 -4.968 -1.055 1.935 -4.309 -11.7 9.936 -0.5276 0.7035
2.13 -2.022 4.001 -8.837 -7.035 7.079 7.43 -10.07 -13.28 -4.573 6.595 10.2 -0.1759 -9.145 10.11 1.055 2.55
2.135 4.221 6.991 -9.013 -6.023 13.01 12 -2.374 -7.826 -1.759 15.3 18.29 6.243 -4.397 8.178 4.221 3.166
2.14 7.65 8.442 -4.66 -1.495 15.56 13.63 4.836 1.231 3.034 20.05 23.83 11.96 0.6155 4.748 7.035 1.407
2.145 7.386 8.134 3.913 5.848 14.29 12.4 8.793 10.55 7.782 17.59 24.27 14.07 4.221 0.6155 7.035 -2.902
2.15 4.309 6.507 13.54 13.28 10.29 9.673 8.881 16.88 9.761 9.673 18.73 12.31 5.804 -3.605 3.869 -7.65
2.155 0.3517 5.056 20.36 17.94 5.584 7.342 6.991 18.77 8.046 1.055 9.409 8.969 6.507 -7.035 -0.2638 -9.849
2.16 -2.462 5.012 22.07 18.47 2.198 6.727 6.155 17.02 3.605 -3.869 0.5276 6.595 8.09 -8.178 -2.814 -7.211
2.165 -3.605 6.727 19.48 15.39 1.099 7.606 7.958 13.37 -0.8793 -4.133 -4.748 6.155 10.99 -5.979 -2.902 -0.4397
2.17 -2.638 8.969 14.9 10.73 1.935 8.31 11.08 8.969 -3.605 -2.286 -6.067 6.683 13.28 -1.055 -1.583 7.035
2.175 -0.08793 9.893 10.16 6.243 3.957 7.255 12.49 4.001 -4.353 -1.319 -5.1 5.979 12.05 4.133 -0.7035 10.29
2.18 3.429 8.486 5.804 2.55 6.243 4.089 9.453 -1.407 -4.177 -2.374 -4.309 2.726 6.155 6.155 -0.8793 7.035
2.185 6.155 4.88 1.759 -0.5276 7.826 0.2638 2.462 -5.979 -4.397 -4.045 -4.485 -2.11 -2.374 3.693 -1.495 -0.6155
2.19 6.683 0.2198 -1.715 -2.858 7.958 -2.682 -4.88 -7.606 -4.836 -4.045 -5.364 -6.067 -9.057 -1.495 -1.583 -7.738
2.195 3.957 -4.441 -3.341 -3.825 6.155 -3.825 -8.53 -5.012 -4.485 -1.847 -5.804 -7.562 -10.46 -5.364 -0.6155 -10.38
2.2 -1.319 -8.09 -2.506 -2.946 2.77 -3.869 -6.903 0.4397 -2.902 1.231 -5.54 -7.298 -6.331 -4.573 0.9673 -7.914
2.205 -7.386 -10.38 -0.3957 -1.319 -1.231 -4.177 -2.066 5.1 -1.099 2.902 -5.188 -6.331 -0.1759 0.7914 2.462 -2.374
2.21 -11.34 -10.95 0.2638 -0.8793 -4.617 -5.232 2.286 5.452 -1.275 2.374 -5.276 -5.012 4.133 7.65 4.133 3.693
2.215 -11.78 -9.585 -2.638 -3.385 -6.155 -6.023 3.605 0.6595 -5.012 0.9673 -5.012 -2.902 4.485 11.96 6.859 9.233
2.22 -8.881 -6.815 -8.442 -8.222 -5.716 -5.364 2.594 -6.727 -11.74 0.6155 -3.254 0.1759 1.847 11.96 10.46 14.07
2.225 -5.012 -4.133 -13.67 -12.88 -4.353 -3.034 1.671 -12.31 -18.47 2.11 0.6155 3.957 -1.319 8.53 13.54 17.67
2.23 -2.374 -3.385 -14.68 -14.33 -3.166 -0.5276 2.11 -13.45 -21.81 4.309 5.54 6.947 -3.341 3.781 13.63 18.11
2.235 -2.022 -5.408 -10.42 -11.34 -2.682 0.3957 2.946 -10.29 -20.22 5.276 8.881 7.386 -4.485 -0.6155 9.233 13.1
2.24 -3.605 -9.101 -2.902 -5.144 -2.506 -1.187 1.979 -5.276 -15.12 3.869 8.442 3.781 -5.276 -4.397 1.143 2.374
2.245 -4.66 -12.05 4.265 1.407 -1.979 -4.089 -1.583 -0.6595 -9.717 0.6155 3.781 -2.638 -5.979 -7.386 -8.266 -10.73
2.25 -3.605 -12 8.486 6.243 -0.8354 -6.243 -6.155 2.814 -6.639 -2.462 -3.341 -9.057 -5.364 -9.321 -15.65 -20.66
2.255 0.5276 -8.222 9.145 8.486 0.6595 -5.892 -8.486 5.276 -6.331 -3.957 -9.849 -12.57 -2.726 -9.409 -18.64 -23.3
2.26 6.683 -2.022 7.298 8.661 1.891 -3.517 -6.771 6.683 -6.771 -3.957 -13.19 -12.22 1.407 -7.474 -17.06 -18.82
2.265 12.31 4.089 4.617 7.386 2.374 -0.7035 -1.715 6.727 -5.32 -3.429 -12.57 -8.617 5.364 -4.397 -12.22 -10.38
2.27 15.56 8.046 2.418 5.1 2.374 1.231 4.265 5.276 -1.011 -3.254 -9.233 -3.254 7.65 -1.759 -6.419 -1.935
2.275 15.65 9.409 2.154 2.638 2.726 2.638 9.277 3.913 4.792 -3.429 -4.309 2.198 7.914 -0.5276 -1.407 3.869
2.28 13.37 9.013 4.529 1.055 4.001 4.88 13.1 4.573 9.541 -2.99 1.055 6.595 7.211 -0.5276 1.935 6.331
2.285 9.761 7.606 8.925 1.143 5.584 8.354 16.05 7.826 11.3 -1.583 6.155 9.497 6.419 -1.143 3.517 6.507
2.29 5.804 5.408 12.66 2.374 5.892 11.52 17.37 11.7 10.38 0.3517 9.849 10.82 5.276 -1.495 4.221 5.364
2.295 1.583 2.11 12.31 2.902 3.649 11.65 15.48 12.22 8.222 2.374 11.26 10.38 3.078 -0.9673 4.66 4.045
2.3 -2.374 -1.935 6.155 1.099 -1.231 7.474 9.233 7.079 6.551 3.166 9.849 7.474 -0.2638 0.4397 5.364 3.166
2.305 -5.364 -5.496 -4.089 -3.21 -7.079 0.4397 -0.08793 -2.682 5.496 2.55 6.331 2.55 -4.045 2.374 6.155 3.254
2.31 -6.067 -6.991 -14.03 -8.266 -11.04 -5.892 -9.057 -12.79 4.089 0.6155 2.374 -2.286 -6.859 3.781 6.331 4.66
2.315 -3.957 -5.584 -19.35 -11.3 -10.77 -8.09 -14.11 -18.77 1.583 -1.759 -0.2638 -5.452 -8.178 3.693 5.716 6.155
2.32 0.2638 -1.979 -18.69 -10.99 -6.199 -5.804 -13.89 -18.91 -1.627 -3.781 -1.055 -6.771 -8.617 1.935 4.045 5.892
2.325 4.573 1.803 -13.85 -7.738 0.2198 -1.583 -10.24 -14.68 -3.561 -4.309 -0.8793 -6.859 -8.793 -0.8793 1.319 3.078
2.33 6.859 3.737 -7.87 -3.298 5.32 1.099 -5.716 -8.617 -2.77 -2.374 -1.495 -6.419 -8.442 -3.429 -2.022 -1.319
2.335 6.419 3.341 -2.462 0.9233 7.211 0.9233 -1.627 -2.242 1.231 1.847 -3.254 -5.628 -6.155 -4.309 -5.628 -5.628
2.34 4.309 1.715 2.55 4.441 5.76 -0.8354 2.462 4.573 6.771 7.211 -4.836 -4.133 -0.8793 -2.99 -8.354 -8.266
2.345 2.198 0.6155 7.562 7.079 2.638 -1.759 7.298 11.78 11.56 11.26 -4.573 -0.6155 6.947 -0.3517 -8.969 -8.53
2.35 1.143 1.187 11.61 8.486 -0.3517 -0.1759 12.35 18.03 14.2 12.31 -1.759 5.452 14.95 2.902 -6.507 -6.683
2.355 1.583 3.605 12.84 8.046 -2.154 3.737 15.78 20.66 14.29 10.02 2.902 12.84 20.14 5.804 -0.8793 -3.078
2.36 2.726 7.035 10.16 5.672 -2.506 8.266 16.09 18.25 12.71 5.628 7.826 18.64 21.02 7.738 6.155 1.319
2.365 3.605 10.11 4.924 2.594 -1.715 11.7 13.19 11.87 10.2 1.055 11.26 20.66 17.67 8.266 12.05 5.54
2.37 3.869 11.48 -0.04397 0.5716 0.04397 12.71 8.574 4.441 6.991 -1.847 11.96 17.67 11.52 6.507 14.33 8.09
2.375 3.078 10.02 -2.594 0.4836 2.154 10.82 3.561 -1.407 3.21 -2.814 10.02 10.11 3.693 2.462 12.05 7.211
2.38 1.231 5.672 -2.506 1.583 3.737 5.979 -1.451 -5.188 -0.6595 -2.374 5.892 -0.7914 -4.66 -2.374 6.067 2.55
2.385 -1.671 -0.5716 -1.583 2.286 3.693 -0.9233 -6.507 -7.518 -3.649 -1.231 0.2638 -12.31 -12.4 -5.804 -1.495 -4.045
2.39 -4.66 -6.771 -1.275 1.627 1.671 -7.914 -10.64 -9.145 -4.924 0 -5.54 -20.58 -17.5 -6.243 -8.09 -9.321
2.395 -6.419 -10.2 -1.627 0.1319 -1.143 -11.74 -11.87 -9.321 -4.265 1.319 -9.761 -22.86 -18.03 -3.781 -12.13 -10.64
2.4 -5.364 -9.101 -1.319 -0.7914 -3.21 -10.6 -8.486 -6.947 -2.33 3.078 -10.64 -18.73 -13.63 0.08793 -12.93 -8.002
2.405 -1.671 -3.869 0.2198 -0.1319 -3.254 -4.836 -1.407 -2.11 -0.08793 5.012 -8.354 -10.2 -6.243 3.693 -10.9 -3.429
2.41 2.99 2.946 2.022 1.319 -1.539 2.066 5.496 3.078 1.715 6.067 -4.573 -1.319 0.7914 6.155 -7.123 0.4397
2.415 6.155 8.398 2.418 1.627 0.3957 6.507 7.386 5.408 2.77 4.66 -1.759 4.221 4.924 7.386 -2.814 2.198
2.42 5.804 10.16 0.3078 -0.5276 0.9233 6.419 1.891 3.254 3.034 -0.6155 -1.143 4.397 5.1 7.298 1.055 1.583
2.425 2.286 7.65 -4.001 -4.836 -0.4836 2.418 -9.013 -2.33 2.55 -9.145 -2.286 0.9673 2.726 5.54 3.869 -0.08793
2.43 -2.55 2.11 -8.398 -9.145 -3.034 -2.77 -19.83 -8.222 1.275 -17.76 -3.781 -2.638 0 2.022 5.012 -1.495
2.435 -6.595 -4.397 -10.86 -11.12 -5.364 -6.683 -24.97 -11.21 -0.4397 -21.46 -4.133 -3.869 -1.583 -1.495 4.573 -1.847
2.44 -8.354 -9.673 -10.02 -9.717 -6.287 -8.178 -21.9 -10.11 -1.891 -17.15 -3.078 -2.814 -1.759 -2.902 2.902 -1.143
2.445 -7.826 -12 -5.936 -5.364 -5.716 -7.606 -12.4 -5.716 -2.198 -6.243 -1.583 -0.9673 -1.055 -0.9673 0.5276 0.5276
2.45 -6.067 -10.77 0.2638 0 -4.309 -5.848 -0.8354 -0.1319 -1.187 5.54 -0.5276 0.6155 -0.1759 2.462 -1.583 2.814
2.455 -3.517 -6.507 6.639 4.353 -2.726 -3.429 8.486 4.704 0.4836 11.7 0.1759 1.759 0.5276 4.045 -2.814 4.66
2.46 -0.8793 -0.6595 10.86 6.155 -1.143 -0.6155 13.28 7.606 1.671 8.881 1.407 2.902 0.9673 1.583 -2.55 4.748
2.465 1.759 4.748 11.08 5.1 0.2198 2.242 13.41 8.266 1.671 -0.1759 3.254 4.924 1.231 -4.045 -0.9673 2.902
2.47 3.781 8.31 7.562 2.11 1.319 4.573 10.46 7.255 0.6595 -9.409 4.836 7.826 1.671 -8.969 1.495 0.1759
2.475 4.397 9.805 2.55 -0.9233 2.11 5.936 6.199 5.276 -0.4397 -13.98 5.1 10.55 2.374 -9.936 3.957 -1.583
2.48 3.693 9.936 -0.4836 -2.198 2.77 6.551 2.022 3.517 -0.2638 -13.28 3.693 11.7 3.341 -6.331 6.331 -1.143
2.485 2.726 9.497 0.04397 -0.8354 3.605 6.639 -1.363 2.55 1.671 -10.55 1.231 11.17 4.397 -0.7914 8.354 1.319
2.49 2.638 8.53 3.034 2.198 4.836 6.375 -4.001 2.022 4.573 -8.442 -0.5276 9.761 4.485 3.517 9.585 4.397
2.495 3.869 6.683 5.276 4.66 6.551 5.716 -6.067 0.9673 6.639 -6.947 -0.7914 8.002 2.726 5.452 8.969 5.628
2.5 5.892 4.045 3.825 4.441 8.222 4.441 -7.914 -1.231 6.375 -3.869 0 5.54 -1.055 5.452 6.067 3.693
2.505 7.211 1.319 -1.319 1.231 9.013 2.682 -9.233 -4.133 3.517 1.495 0.3517 1.759 -6.243 4.485 1.055 -0.5276
2.51 6.683 -0.4397 -7.43 -3.385 8.046 0.9673 -9.585 -6.375 -0.3517 6.683 -0.7035 -2.726 -10.55 2.726 -3.957 -4.485
2.515 4.133 -0.6155 -11.04 -6.991 5.364 -0.1759 -8.53 -6.639 -3.166 7.826 -2.55 -6.419 -11.87 0 -6.067 -5.364
2.52 0.6155 0.1319 -10.55 -8.046 1.495 -0.4397 -5.848 -4.924 -3.781 3.078 -3.078 -7.562 -9.057 -3.166 -3.341 -2.374
2.525 -3.166 0.1319 -7.474 -6.727 -2.814 -0.3517 -2.682 -2.594 -2.814 -4.485 -1.143 -5.276 -3.078 -5.364 3.078 3.078
2.53 -7.035 -1.935 -4.485 -4.573 -6.727 -0.8354 -0.4836 -1.407 -2.286 -9.761 2.286 -0.5276 3.166 -5.628 9.585 8.002
2.535 -10.9 -6.331 -3.473 -3.21 -9.629 -2.858 -0.5716 -2.198 -3.781 -8.793 4.485 3.254 6.771 -4.66 11.78 9.673
2.54 -14.33 -12 -4.309 -3.078 -11.21 -7.079 -3.078 -4.265 -6.859 -2.814 2.99 2.462 6.243 -3.957 7.65 7.211
2.545 -16.71 -17.54 -5.32 -3.913 -11.34 -13.28 -6.463 -6.331 -9.321 3.781 -2.726 -4.221 2.55 -4.66 -1.231 2.726
2.55 -16.97 -21.9 -5.54 -4.924 -9.893 -20.09 -8.661 -7.474 -8.793 7.298 -10.11 -13.89 -1.935 -5.54 -10.99 -0.5276
2.555 -14.95 -24.09 -5.1 -5.628 -6.727 -25.02 -8.002 -7.562 -5.056 8.09 -15.12 -21.72 -4.66 -4.924 -17.41 -0.9673
2.56 -10.73 -23.04 -4.529 -5.628 -2.154 -25.02 -4.133 -6.595 -0.08793 8.705 -14.51 -23.57 -4.836 -2.198 -18.55 0.08793
2.565 -5.452 -17.54 -3.429 -4.221 2.946 -18.38 1.979 -4.265 3.869 11.08 -8.266 -17.94 -3.254 0.8793 -15.39 0.6155
2.57 0.5276 -7.386 -0.4836 -0.7474 7.738 -5.76 8.486 -0.1319 5.672 13.98 1.055 -6.771 -1.407 2.022 -9.936 -0.9673
2.575 7.386 5.892 5.408 5.188 11.61 9.541 14.03 6.067 6.419 14.33 10.11 5.892 0.1759 0.5276 -4.309 -3.957
2.58 14.68 19.13 13.63 12.44 14.33 23.17 17.94 13.06 7.782 10.38 16.71 15.83 2.286 -1.847 0.4397 -6.419
2.585 21.1 28.36 21.02 18.6 15.92 31.39 19.79 18.29 10.2 3.429 20.05 20.75 5.364 -2.198 4.045 -6.507
2.59 24.36 31.22 24.05 20.97 16.14 32.8 19.35 19.43 12 -2.286 20.22 20.93 9.145 0.3517 6.419 -4.133
2.595 22.95 28.09 20.84 18.16 14.95 28.62 16.58 16.05 11.12 -3.869 18.03 18.03 12.31 4.485 7.562 -0.7914
2.6 17.23 21.54 12.84 10.95 12.27 21.68 11.96 9.936 6.903 -0.9673 14.25 13.54 13.72 7.914 8.09 1.583
2.605 9.409 14.33 3.957 2.374 8.266 14.51 6.639 3.957 1.187 3.693 9.497 9.057 12.93 9.761 8.178 2.726
2.61 2.286 8.266 -1.935 -4.221 3.869 8.31 2.33 0.3957 -3.341 7.65 4.573 5.628 10.73 10.29 7.914 3.429
2.615 -2.374 3.561 -3.21 -6.859 -0.3517 3.385 0.1319 -0.3078 -5.012 9.673 0.4397 3.166 7.914 10.2 6.771 3.957
2.62 -4.309 -0.3957 -1.231 -5.54 -4.221 -1.055 -0.04397 0.4397 -4.309 9.849 -2.55 0.6155 5.012 8.881 4.397 3.869
2.625 -5.364 -4.353 1.011 -2.154 -8.002 -5.54 0.7035 0.5276 -3.166 8.09 -4.748 -2.99 1.495 5.1 1.055 2.638
2.63 -7.298 -8.442 0.8354 0.4836 -12.13 -10.46 0.5276 -1.451 -3.561 4.397 -6.771 -7.65 -2.99 -0.9673 -1.847 0.6155
2.635 -10.82 -12.62 -2.726 0.4397 -16.36 -15.61 -2.066 -5.892 -5.979 -0.8793 -8.969 -12.4 -8.266 -7.65 -2.99 -1.583
2.64 -15.3 -16.75 -8.837 -2.594 -19.74 -20.62 -7.606 -11.96 -9.673 -6.859 -11.34 -16.44 -13.81 -12.13 -2.198 -3.605
2.645 -18.99 -20.44 -15.17 -7.211 -21.24 -24.53 -14.9 -17.94 -13.28 -11.17 -13.45 -18.55 -18.47 -13.19 -0.7914 -5.716
2.65 -19.79 -22.64 -19.39 -11.04 -20.14 -26.03 -21.37 -21.59 -15.65 -11.96 -14.68 -17.76 -21.19 -11.78 -0.4397 -8.002
2.655 -16.27 -21.76 -19.61 -11.96 -16.18 -23.7 -23.52 -20.71 -15.39 -8.705 -14.07 -13.54 -20.58 -9.936 -1.319 -10.11
2.66 -8.53 -16.36 -15.17 -9.233 -9.673 -16.44 -18.77 -14.55 -11.52 -2.726 -10.46 -6.771 -15.56 -7.914 -2.374 -10.46
2.665 1.143 -6.727 -6.991 -3.693 -1.451 -4.924 -7.43 -4.617 -4.309 3.869 -3.957 1.319 -6.947 -4.748 -2.286 -7.914
2.67 9.497 4.529 2.55 2.418 7.167 8.134 6.639 5.54 4.045 9.409 3.429 8.881 2.726 0 -1.231 -2.902
2.675 13.98 14.11 10.38 7.211 14.42 19.17 18.11 12.31 10.46 12.75 9.321 13.1 9.321 4.836 -1.055 1.583
2.68 14.16 19.57 14.25 9.409 18.77 24.71 22.73 13.59 12.13 13.37 11.34 11.78 10.29 7.123 -3.429 2.814
2.685 12.31 20.49 13.85 9.409 19.52 23.79 20.22 10.55 8.574 10.9 9.233 5.54 6.243 5.188 -8.002 0.3517
2.69 11.52 18.29 10.86 8.046 17.41 18.03 13.94 6.331 2.418 5.979 4.573 -2.022 1.055 0.6155 -12.13 -2.902
2.695 12.93 15.04 7.65 6.375 14.11 10.64 8.09 4.089 -2.638 -0.2638 0.08793 -7.298 -1.143 -3.341 -13.01 -4.133
2.7 15.04 11.74 5.584 4.66 10.51 4.133 4.573 4.309 -4.573 -6.067 -2.902 -8.705 0.7914 -4.309 -10.29 -2.374
2.705 14.42 7.606 4.177 2.638 6.463 -1.055 2.374 5.276 -3.605 -10.2 -5.012 -7.738 4.573 -2.462 -6.243 0.5276
2.71 9.057 1.803 2.198 0.1319 1.143 -5.848 -1.055 4.573 -1.715 -11.52 -7.386 -6.683 6.771 -0.3517 -3.957 2.11
2.715 0 -5.276 -1.055 -2.682 -5.672 -10.51 -6.155 1.495 -0.7914 -9.761 -9.673 -6.331 5.892 0.7914 -3.429 2.11
2.72 -8.969 -11.74 -5.056 -5.012 -12.4 -13.89 -10.64 -2.594 -1.011 -5.276 -9.233 -5.54 3.517 1.495 -1.847 2.726
2.725 -14.42 -15.56 -8.178 -6.507 -17.19 -14.29 -11.3 -5.452 -1.891 0.5276 -4.397 -2.022 2.462 3.254 4.221 6.419
2.73 -16.09 -16.49 -9.629 -7.079 -18.69 -11.65 -7.342 -6.067 -2.594 5.188 4.045 4.924 3.341 5.804 14.77 13.1
2.735 -16 -15.87 -9.585 -7.43 -17.54 -7.694 -1.451 -5.232 -3.21 6.507 12.13 12.13 4.133 6.859 25.41 18.91
2.74 -16.62 -15.74 -9.057 -7.958 -15.26 -5.364 2.286 -4.704 -4.221 3.429 15.3 15.04 2.198 4.573 30.51 19.43
2.745 -17.94 -16.66 -8.442 -8.31 -13.01 -5.716 1.627 -5.188 -5.276 -2.638 11.87 11.61 -2.902 -0.5276 27 13.45
2.75 -17.41 -17.06 -7.255 -7.518 -10.02 -7.035 -1.847 -5.76 -5.188 -8.617 4.133 4.66 -8.442 -5.1 16.71 4.133
2.755 -12.31 -14.51 -4.704 -5.188 -4.88 -6.023 -4.353 -4.836 -2.99 -11.26 -2.99 -0.9673 -10.82 -5.804 4.66 -3.957
2.76 -2.726 -8.002 -0.7035 -1.495 2.726 -1.099 -3.122 -1.627 0.7035 -9.849 -6.331 -2.814 -8.617 -2.814 -4.836 -8.354
2.765 8.178 0.6595 3.517 2.638 10.99 6.111 1.275 2.77 4.045 -6.683 -6.243 -2.198 -4.221 0.4397 -10.99 -9.849
2.77 15.92 8.222 6.155 5.672 16.8 11.52 5.716 6.067 4.88 -4.397 -5.716 -2.286 -1.143 0.8793 -15.65 -10.73
2.775 18.03 11.96 6.507 6.947 18.11 12.57 7.518 6.639 2.682 -4.485 -6.683 -5.54 -1.055 -1.935 -20.49 -12.31
2.78 15.65 11.65 5.452 6.771 15.26 9.717 6.243 4.968 -0.7914 -6.155 -8.53 -11.17 -2.814 -5.012 -24.8 -13.98
2.785 11.52 9.189 4.704 6.111 10.64 5.76 3.913 2.814 -2.814 -7.65 -8.617 -15.56 -3.781 -5.364 -26.03 -13.89
2.79 8.354 6.595 5.056 5.716 6.375 3.166 2.286 1.935 -1.979 -7.474 -5.892 -15.56 -2.374 -2.55 -22.86 -11.08
2.795 6.683 4.792 6.067 5.54 3.166 1.891 1.495 2.638 1.143 -6.155 -1.583 -11.34 0.4397 0.7035 -16 -7.035
2.8 5.452 3.385 6.111 4.968 0.2198 0.3517 0.1759 3.649 4.001 -5.1 1.407 -5.892 2.902 2.11 -8.09 -3.781
2.805 3.166 1.671 4.045 3.298 -3.254 -2.594 -2.374 3.429 4.529 -4.924 1.143 -1.407 3.869 1.495 -1.143 -1.319
2.81 -0.5276 -0.4836 -0.08793 0.3957 -7.035 -5.804 -4.924 1.363 2.594 -5.1 -1.319 2.638 4.397 1.055 4.66 2.462
2.815 -4.836 -2.462 -5.188 -3.561 -9.849 -6.859 -5.144 -1.715 -0.1759 -3.869 -2.55 7.826 6.331 2.814 10.38 9.057
2.82 -8.793 -3.605 -9.849 -7.65 -10.86 -4.529 -1.891 -4.265 -1.715 -0.6155 -0.2638 14.16 10.02 6.419 16.36 17.76
2.825 -11.17 -3.473 -12.97 -10.82 -10.6 -0.3957 3.693 -4.836 -1.407 3.957 5.364 20.05 14.33 9.761 21.28 24.97
2.83 -11.34 -1.847 -13.59 -11.96 -10.2 2.858 8.617 -2.814 0.4836 7.65 11.26 23.3 16.8 10.82 23.3 27.44
2.835 -8.881 1.583 -10.95 -10.2 -10.16 3.957 10.42 1.319 2.77 8.705 14.86 23.39 16 9.585 21.72 23.65
2.84 -4.397 6.507 -4.88 -5.408 -9.936 3.825 8.969 6.419 4.792 6.419 15.56 21.1 12.13 7.123 17.59 15.12
2.845 0.1759 11.61 3.122 1.231 -8.31 4.353 5.892 10.6 6.419 2.198 14.42 17.76 6.331 3.869 12.66 5.364
2.85 2.726 14.38 9.98 7.386 -4.924 5.76 2.55 11.74 7.167 -1.583 12.66 13.54 -0.3517 -0.9673 7.65 -3.166
2.855 2.198 12.79 11.91 10.16 -0.7474 6.375 -1.319 8.266 5.936 -2.902 9.936 7.035 -7.386 -7.386 2.198 -9.673
2.86 -0.7914 6.947 7.211 7.958 2.638 3.957 -6.639 0.9673 2.154 -1.319 5.1 -2.902 -13.81 -13.54 -4.133 -14.33
2.865 -3.693 -0.3517 -1.715 1.891 4.045 -1.583 -13.28 -7.562 -3.254 1.671 -2.462 -14.07 -17.85 -15.74 -10.2 -16.71
2.87 -4.133 -5.408 -9.585 -4.617 3.737 -7.386 -18.55 -13.01 -7.826 3.869 -10.82 -21.46 -17.76 -11.87 -13.89 -15.21
2.875 -1.143 -5.628 -10.77 -7.474 3.034 -9.629 -18.99 -12.05 -8.617 4.221 -16.62 -21.63 -12.66 -3.429 -13.37 -9.936
2.88 3.429 -1.539 -3.517 -4.66 2.99 -6.595 -13.01 -4.748 -4.66 3.166 -17.15 -15.39 -4.573 4.573 -9.761 -2.638
2.885 6.683 3.913 8.53 2.33 3.605 -0.5716 -2.946 4.968 1.759 2.198 -13.28 -7.738 2.902 7.562 -5.979 2.814
2.89 6.419 7.211 18.29 9.453 3.913 4.265 5.408 11.39 6.947 2.814 -8.178 -3.341 6.155 5.012 -4.836 4.221
2.895 2.726 6.727 19.52 12.18 2.902 4.968 6.903 10.51 7.782 4.397 -5.012 -4.045 3.781 0.4397 -6.067 2.022
2.9 -2.638 2.946 10.9 8.793 0.7474 1.715 0.7914 2.418 4.309 5.54 -4.397 -7.298 -2.198 -1.671 -6.683 -0.6155
2.905 -7.474 -2.33 -3.385 1.011 -1.715 -2.946 -9.189 -8.53 -0.7035 4.836 -4.221 -8.881 -8.002 -0.08793 -3.166 -0.2638
2.91 -10.38 -7.562 -16.22 -6.771 -3.122 -6.199 -16.97 -16.84 -4.045 2.902 -1.935 -5.628 -9.761 3.078 4.836 4.309
2.915 -10.9 -11.21 -21.72 -10.77 -3.166 -6.683 -18.16 -18.64 -4.221 1.231 2.902 1.847 -6.419 4.485 13.89 10.38
2.92 -9.409 -12 -18.16 -9.453 -2.242 -4.836 -12.57 -13.59 -1.759 1.055 8.617 10.02 0.4397 3.254 19.61 13.63
2.925 -6.683 -9.321 -8.442 -4.133 -1.187 -1.847 -3.561 -4.529 1.891 2.11 11.78 15.83 7.386 1.407 19.17 11.34
2.93 -3.429 -3.473 2.242 2.242 -0.4397 1.407 4.529 4.573 5.364 3.341 11.08 18.38 11.08 1.407 13.89 4.397
2.935 -0.7035 3.561 9.673 7.211 0.3517 4.573 8.881 10.51 8.046 4.397 7.914 18.03 10.29 3.605 7.386 -3.957
2.94 0.4397 9.013 11.87 9.409 2.242 7.167 9.497 12.09 9.409 6.243 5.012 14.95 5.979 5.628 2.814 -10.38
2.945 0 10.77 9.629 8.749 5.408 8.574 7.87 9.849 8.925 9.761 4.221 9.321 0.7035 4.836 0.4397 -12.93
2.95 -1.407 8.661 5.188 6.111 9.233 8.442 5.848 5.408 6.155 13.89 4.924 2.198 -3.078 1.055 -1.495 -11.87
2.955 -2.022 4.968 0.9673 2.682 11.96 7.255 4.441 0.6155 1.759 15.65 4.836 -5.012 -4.748 -3.166 -4.748 -9.145
2.96 -1.055 2.242 -1.407 -0.3957 12.13 5.628 3.561 -2.858 -2.55 12.13 2.198 -10.99 -4.924 -4.748 -9.497 -6.771
2.965 1.319 1.407 -1.495 -2.154 9.365 3.649 2.594 -4.441 -5.144 3.605 -3.254 -14.95 -5.452 -2.814 -14.51 -6.243
2.97 3.517 1.231 0.1759 -2.154 4.66 0.7914 0.7474 -4.485 -5.364 -6.067 -10.02 -17.15 -6.947 0.3517 -17.85 -7.386
2.975 4.133 -0.1759 2.198 -1.143 -0.1759 -3.649 -2.286 -3.957 -4.265 -11.87 -15.83 -18.03 -8.881 1.495 -18.91 -9.497
2.98 2.638 -3.561 2.726 -0.5716 -3.473 -9.101 -5.892 -3.869 -3.21 -12.05 -18.82 -18.38 -9.585 -0.5276 -17.76 -10.9
2.985 -0.08793 -7.958 0.3517 -1.715 -4.353 -13.81 -8.925 -4.792 -2.946 -8.793 -18.03 -17.15 -7.474 -4.045 -14.77 -9.761
2.99 -2.462 -11.34 -4.617 -4.66 -3.122 -15.56 -10.11 -6.375 -3.21 -5.892 -14.07 -13.1 -2.638 -5.979 -10.46 -4.573
2.995 -3.429 -12.09 -10.33 -8.002 -1.011 -13.37 -9.013 -7.87 -3.166 -5.188 -7.826 -6.507 3.517 -4.485 -4.924 3.957
3 -3.078 -10.73 -13.81 -9.805 0.4836 -8.442 -5.979 -8.134 -2.462 -5.452 -1.319 0.2638 8.705 0.08793 1.319 13.01
3.005 -2.638 -8.969 -13.01 -8.793 0.3517 -3.825 -2.286 -6.639 -1.231 -4.309 3.254 4.836 11.34 4.748 7.035 19.26
3.01 -3.166 -8.661 -8.134 -5.188 -1.891 -2.242 0.7474 -3.473 -0.1759 -0.8793 4.397 5.892 10.9 6.859 10.73 20.58
3.015 -4.836 -9.936 -1.363 -0.6595 -5.276 -4.133 2.594 0.5276 0.6595 2.55 2.462 4.309 8.09 5.012 11.61 16.44
3.02 -6.771 -10.95 4.573 2.99 -7.738 -7.342 3.693 4.573 1.759 3.693 -0.5276 2.022 4.045 0.1759 9.849 8.617
3.025 -6.859 -9.541 7.914 4.924 -7.167 -8.31 5.1 7.782 3.385 1.847 -1.671 0.9673 0.2638 -5.716 6.507 0
3.03 -3.693 -4.001 9.057 5.672 -2.286 -4.309 7.694 9.761 5.364 -0.7035 0.5276 2.726 -2.374 -9.849 2.638 -6.771
3.035 3.517 5.496 9.497 6.199 5.848 4.792 11.74 10.82 7.211 -1.495 5.892 7.211 -2.99 -10.9 -0.3517 -10.11
3.04 13.01 16.8 10.51 7.079 14.99 16.44 16.44 11.56 8.134 0 12.66 12.49 -1.671 -8.793 -2.11 -10.38
3.045 21.72 26.42 12 8.222 22.2 26.34 20.27 12.13 7.738 2.11 18.29 16.88 0.7914 -5.012 -2.198 -8.705
3.05 26.29 31.17 12.88 8.837 25.24 30.78 21.63 12.22 6.199 3.166 20.93 18.82 3.078 -1.759 -0.9673 -6.331
3.055 25.59 29.41 12.35 8.266 23.57 28.4 19.61 11.26 3.869 2.638 19.96 17.41 3.693 -0.3517 0.3517 -4.66
3.06 19.96 21.85 10.11 6.287 18.16 20.66 14.47 9.013 1.231 1.143 15.56 12.49 2.198 -0.7035 0.7914 -4.397
3.065 12.13 11.21 6.463 3.254 10.68 10.29 7.386 5.452 -1.275 -0.9673 8.617 5.1 -1.143 -1.671 -0.6155 -5.54
3.07 4.924 0.9673 1.847 -0.04397 2.946 0.3957 -0.04397 0.8354 -3.473 -4.133 0.2638 -2.374 -4.836 -1.935 -3.869 -7.123
3.075 0.5276 -5.979 -3.561 -3.473 -3.825 -7.123 -6.595 -4.221 -5.188 -8.793 -7.65 -7.65 -6.947 -1.055 -7.474 -7.65
3.08 -0.9673 -8.53 -9.057 -6.419 -8.398 -11.48 -11.08 -8.749 -6.199 -13.37 -13.28 -9.673 -5.804 0.7914 -9.497 -5.804
3.085 -0.5276 -7.562 -12.93 -8.222 -10.64 -12.79 -12.88 -11.43 -6.155 -15.3 -15.65 -8.705 -0.7914 3.078 -8.442 -0.6155
3.09 0.4397 -5.496 -13.59 -8.178 -11.34 -12 -11.96 -11.39 -4.748 -12.93 -15.12 -5.54 6.683 5.452 -4.66 7.298
3.095 0.6155 -4.573 -10.29 -6.111 -12 -10.16 -9.013 -8.486 -2.286 -7.914 -12.84 -2.022 13.45 7.474 0.4397 15.04
3.1 -0.6155 -5.804 -4.88 -2.946 -13.63 -8.661 -5.628 -4.221 0.2638 -4.221 -10.2 0 15.92 8.354 4.924 18.91
3.105 -3.605 -8.881 -0.5276 -0.3517 -16.22 -8.705 -3.429 -0.9233 1.187 -4.748 -8.002 -0.7914 12.13 7.035 7.65 16.53
3.11 -7.562 -12.13 0.2638 0.4836 -18.47 -10.6 -3.254 -0.5716 -0.6155 -8.09 -6.683 -3.693 3.166 2.99 8.705 8.354
3.115 -10.99 -13.76 -2.198 -0.4836 -18.55 -13.01 -4.265 -2.858 -5.056 -9.585 -5.452 -7.474 -7.298 -2.814 8.617 -2.022
3.12 -11.7 -12.31 -4.748 -1.715 -14.95 -13.5 -3.957 -5.364 -9.673 -6.155 -3.429 -10.02 -14.77 -8.09 7.826 -10.46
3.125 -8.354 -7.474 -3.561 -0.7914 -7.738 -9.936 -0.7035 -5.408 -11.65 1.495 0.1759 -9.936 -16.88 -10.11 6.419 -14.42
3.13 -0.8793 -0.1319 2.77 3.561 1.407 -1.935 5.408 -1.891 -9.013 8.705 5.276 -6.067 -13.98 -7.474 4.485 -13.98
3.135 8.705 8.222 12.18 10.42 10.16 8.705 12.13 4.089 -2.462 11.34 11.17 0.6155 -8.442 -1.583 2.374 -11.17
3.14 17.41 15.56 20.14 16.8 16.36 18.47 16.4 10.02 4.88 8.881 15.92 7.035 -2.462 4.573 0.8793 -8.09
3.145 21.63 19.79 22.91 19.65 18.33 23.39 16.53 13.76 9.673 4.66 16.88 10.2 2.55 8.53 0.1759 -5.012
3.15 20.05 19.26 19.65 17.67 15.61 21.46 12.75 14.42 9.893 2.374 12.75 8.881 6.243 8.881 -0.7035 -1.407
3.155 13.45 13.85 12.35 11.78 9.101 13.37 6.903 12.44 6.155 2.462 4.485 3.517 8.002 6.419 -2.726 2.726
3.16 5.012 5.628 4.485 4.573 0.9673 2.418 0.9233 8.837 0.9673 2.638 -4.573 -3.078 7.386 3.341 -6.067 5.892
3.165 -1.935 -2.022 -1.231 -1.319 -6.331 -7.035 -4.001 4.573 -2.814 0.8793 -10.46 -7.65 4.924 1.671 -8.881 6.771
3.17 -5.188 -6.243 -3.473 -4.397 -10.68 -11.48 -7.255 0.9233 -3.737 -2.374 -10.99 -7.123 2.462 2.198 -9.321 5.628
3.175 -4.836 -5.804 -2.594 -4.573 -11.43 -9.936 -8.134 -0.8354 -1.891 -4.66 -6.859 -1.935 2.198 4.133 -6.331 4.045
3.18 -2.814 -2.286 0.04397 -2.902 -9.233 -4.177 -6.595 0.08793 1.055 -3.781 -0.8793 4.66 4.924 5.628 -1.143 3.517
3.185 -1.495 0.9233 2.55 -0.5276 -5.804 1.979 -3.429 2.55 3.385 -0.2638 3.869 9.057 9.233 4.924 3.693 4.397
3.19 -2.198 1.011 3.254 0.9673 -2.77 5.496 -0.7914 4.133 3.869 4.309 6.155 9.497 12.31 1.759 5.979 5.716
3.195 -4.309 -2.33 0.8793 0.5716 -1.187 4.968 -0.9673 2.55 2.594 8.266 6.155 6.243 11.61 -2.198 6.243 5.452
3.2 -6.419 -7.255 -4.221 -2.154 -1.451 1.143 -4.704 -2.638 0.4836 11.26 4.397 0.9673 6.947 -4.66 6.067 3.517
3.205 -7.386 -11.17 -10.16 -6.463 -3.605 -4.309 -10.6 -9.233 -1.583 13.28 1.055 -4.66 -0.08793 -3.781 6.507 0.5276
3.21 -7.562 -12.88 -14.38 -10.6 -7.123 -9.717 -15.83 -13.94 -3.166 13.37 -4.221 -9.409 -7.738 -0.9673 6.771 -2.198
3.215 -7.914 -12.4 -14.77 -12.31 -10.68 -13.5 -17.59 -14.51 -4.353 10.02 -10.38 -13.01 -14.68 0.7035 4.836 -4.836
3.22 -8.266 -10.07 -10.95 -10.38 -11.91 -14.16 -14.68 -10.95 -5.012 3.341 -14.25 -15.04 -19.79 -1.759 -0.1759 -8.002
3.225 -7.474 -5.76 -3.825 -5.056 -8.837 -10.33 -7.826 -5.012 -4.836 -4.133 -12.93 -14.16 -21.63 -7.826 -6.771 -11.34
3.23 -3.957 0.6595 4.133 1.583 -1.099 -2.154 1.099 1.011 -3.254 -8.53 -5.979 -9.321 -18.73 -13.89 -11.43 -12.93
3.235 2.286 8.53 10.46 6.991 9.057 8.31 9.629 5.936 -0.2198 -7.562 3.781 -1.495 -11.17 -15.21 -11.61 -10.2
3.24 9.145 15.34 13.01 8.881 17.85 17.45 15.39 9.057 3.078 -2.726 11.96 6.331 -1.407 -9.761 -7.211 -3.166
3.245 13.19 18.47 10.99 6.727 21.81 21.9 16.75 9.893 4.836 1.759 15.56 11.08 6.683 -0.4397 -0.6155 5.716
3.25 12.75 16.8 5.012 1.847 20.09 20.66 13.59 8.31 3.957 3.078 14.95 12.66 9.936 7.65 5.276 12.84
3.255 8.617 12.22 -2.374 -3.473 14.77 16.22 7.694 5.1 1.055 1.759 12.93 12.4 8.442 10.38 8.705 15.56
3.26 4.045 8.134 -8.178 -6.771 9.101 11.78 1.803 1.495 -1.759 0.5276 11.34 12.05 4.924 7.738 9.145 13.81
3.265 1.495 6.551 -10.2 -6.947 5.056 8.749 -1.935 -1.319 -2.858 1.231 9.321 11.34 2.462 3.693 6.859 9.849
3.27 0.9673 6.815 -8.749 -4.748 2.55 5.892 -3.869 -3.385 -2.066 3.166 4.133 8.881 1.759 2.198 1.847 5.979
3.275 0.7035 6.111 -6.199 -2.374 0.04397 1.319 -5.672 -5.672 -0.8793 3.693 -4.66 3.693 1.495 4.133 -4.748 3.078
3.28 -1.583 2.374 -5.276 -1.759 -3.122 -5.188 -8.574 -8.969 -0.8354 0.9673 -13.63 -3.078 0.3517 6.947 -10.46 0.8793
3.285 -6.243 -4.265 -7.211 -3.693 -6.463 -11.3 -11.74 -12.44 -2.462 -3.869 -17.59 -8.002 -1.583 7.298 -12.05 -0.6155
3.29 -11.7 -11.39 -10.46 -6.859 -8.574 -13.81 -12.79 -13.98 -4.748 -7.826 -13.54 -7.738 -2.286 3.957 -7.738 -0.1759
3.295 -15.83 -16.22 -12.62 -9.409 -8.442 -11.91 -10.2 -12.09 -6.155 -8.354 -3.781 -2.462 -0.6155 -0.9673 1.143 2.374
3.3 -17.41 -17.59 -12.05 -9.849 -6.639 -7.87 -4.924 -7.211 -5.936 -5.188 5.628 3.869 2.726 -4.309 10.82 5.892
3.305 -16.36 -16.44 -9.233 -8.354 -4.836 -5.276 -0.3078 -2.022 -4.792 -0.5276 9.233 6.859 5.012 -4.221 16.97 8.09
3.31 -13.98 -14.42 -6.067 -6.287 -4.485 -6.375 0.8793 0.6155 -3.517 3.693 5.716 4.836 3.957 -2.022 17.32 7.123
3.315 -11.34 -13.01 -4.221 -4.88 -5.716 -10.16 -1.847 -0.3078 -2.726 6.683 -1.407 -0.9673 -0.1759 -0.6155 12.57 2.814
3.32 -9.585 -12.79 -4.045 -4.573 -7.606 -13.59 -6.023 -3.254 -2.198 8.266 -7.035 -7.562 -5.188 -1.847 5.188 -2.902
3.325 -9.321 -13.5 -4.441 -4.748 -8.661 -14.25 -8.442 -5.76 -1.539 7.914 -8.442 -12.4 -8.178 -4.924 -2.11 -7.474
3.33 -10.2 -13.76 -4.001 -4.397 -7.738 -11.56 -7.342 -5.804 -0.7035 5.1 -6.331 -13.72 -7.65 -7.123 -7.562 -8.969
3.335 -10.46 -11.74 -2.022 -3.034 -4.177 -6.111 -3.034 -2.814 0.2198 0 -2.286 -10.73 -4.045 -5.716 -9.673 -7.298
3.34 -7.738 -5.804 1.407 -0.4397 1.539 1.099 3.429 2.374 1.451 -5.892 2.638 -3.781 1.583 -0.7035 -8.09 -3.517
3.345 -1.143 3.781 5.716 2.814 8.046 8.925 10.73 8.617 3.254 -9.761 8.09 5.716 7.65 5.804 -3.341 1.143
3.35 7.562 13.98 9.98 6.155 12.88 15.48 17.19 14.11 5.716 -9.673 13.01 15.04 12.75 10.2 1.847 5.364
3.355 14.33 20.22 13.15 8.881 14.07 18.51 20.71 16.93 8.222 -5.628 15.04 20.05 15.12 10.29 4.485 7.562
3.36 15.39 19.39 13.94 10.2 10.95 16.4 19.21 15.83 9.629 -0.08793 12.05 17.94 13.98 6.419 2.726 6.243
3.365 10.2 12.05 11.78 9.497 4.968 9.365 12.31 10.9 9.365 3.957 4.309 9.233 9.673 1.319 -2.11 1.671
3.37 2.022 2.11 7.035 6.815 -0.9673 0.4836 2.374 4.221 7.65 5.276 -5.276 -1.319 4.133 -2.198 -6.683 -3.869
3.375 -4.66 -5.716 1.099 2.858 -4.485 -6.683 -5.892 -1.539 5.1 4.045 -12.31 -8.881 0 -2.462 -7.123 -7.035
3.38 -7.562 -9.277 -4.089 -1.143 -5.056 -9.936 -8.969 -4.529 2.418 2.022 -14.07 -10.9 -1.583 -0.4397 -2.638 -6.331
3.385 -7.474 -9.321 -7.298 -4.485 -4.001 -9.849 -6.507 -5.188 -0.3078 0.4397 -11.43 -8.53 -1.847 1.319 4.309 -2.814
3.39 -6.595 -7.87 -8.002 -6.419 -3.254 -8.398 -1.627 -5.232 -3.166 -0.8793 -7.211 -4.221 -2.902 0.9673 9.585 0.5276
3.395 -6.067 -5.716 -6.331 -6.595 -3.21 -6.639 1.715 -5.936 -5.32 -2.374 -4.133 -0.7035 -5.979 -1.847 10.55 0.7035
3.4 -4.485 -2.11 -2.814 -4.88 -2.902 -4.353 1.935 -6.815 -5.54 -4.573 -2.462 0.6155 -9.936 -5.1 7.123 -2.814
3.405 -0.7035 3.254 1.583 -1.627 -1.231 -1.055 0 -6.595 -3.166 -7.123 -1.495 0.1759 -12.31 -6.507 1.583 -7.826
3.41 4.573 8.398 5.144 1.979 1.539 2.462 -2.11 -4.924 0.9233 -8.793 -0.5276 -1.495 -11.52 -5.276 -3.957 -11.52
3.415 8.354 9.936 5.848 3.649 3.957 4.573 -3.561 -3.166 4.221 -8.354 0.2638 -3.781 -8.442 -2.99 -8.178 -12.57
3.42 7.474 6.111 2.594 1.979 4.309 3.517 -5.1 -3.298 4.309 -5.979 0.2638 -6.067 -5.628 -1.495 -10.9 -12.13
3.425 2.198 -1.363 -3.517 -2.55 2.418 -0.2638 -7.43 -5.804 1.099 -3.517 -0.6155 -7.298 -5.012 -2.022 -12.13 -11.08
3.43 -4.133 -7.914 -9.145 -7.211 0.08793 -4.265 -9.805 -8.793 -3.166 -2.55 -1.495 -6.243 -5.979 -3.254 -11.87 -8.881
3.435 -7.035 -9.321 -10.55 -8.793 -0.7914 -5.804 -10.07 -9.409 -5.804 -3.517 -1.407 -2.55 -5.804 -3.166 -9.497 -4.045
3.44 -4.485 -5.012 -6.287 -5.936 0.9233 -3.825 -6.551 -6.287 -5.408 -5.188 0 2.198 -2.198 -0.7035 -4.924 3.605
3.445 1.319 1.759 1.187 -0.4836 3.869 0.2638 -0.1319 -0.9233 -2.902 -5.716 1.847 6.331 4.221 3.341 0.8793 12.31
3.45 6.243 6.463 7.386 4.045 5.716 3.869 6.023 3.825 -0.5716 -4.133 2.726 8.969 10.38 6.595 5.628 18.29
3.455 7.386 6.727 8.617 4.924 4.792 5.1 8.705 5.584 0.1759 -1.583 1.495 9.409 12.75 7.123 7.386 18.29
3.46 4.836 3.254 5.144 2.682 1.583 3.429 6.639 4.704 -0.2638 0.1759 -1.583 7.298 9.936 5.452 5.716 12.22
3.465 1.407 -1.099 0.3517 0.4397 -2.242 -0.2198 1.451 3.166 -0.3957 0.6155 -5.452 2.638 3.781 3.341 1.759 2.902
3.47 0 -4.133 -1.407 1.055 -4.177 -4.177 -3.737 2.726 0.7914 0.9673 -8.354 -3.166 -2.638 2.022 -2.198 -5.276
3.475 1.143 -5.012 1.143 4.792 -2.99 -7.123 -6.771 3.122 2.682 3.078 -8.793 -8.354 -6.947 1.407 -3.957 -9.585
3.48 3.429 -4.397 5.76 8.749 0.5716 -8.09 -6.991 2.682 3.649 6.507 -6.419 -11.52 -8.617 0.08793 -2.55 -10.46
3.485 4.573 -3.517 8.398 9.365 4.045 -7.298 -5.364 0.08793 2.55 8.793 -2.726 -11.87 -8.881 -2.99 0.4397 -9.145
3.49 3.166 -3.298 6.639 5.54 5.144 -5.496 -3.122 -4.265 -0.4397 7.123 0 -10.11 -8.881 -7.562 2.638 -7.298
3.495 0.08793 -3.825 1.671 -0.4836 2.946 -3.341 -0.9233 -8.09 -4.001 1.583 0.3517 -7.738 -8.617 -11.78 2.022 -5.54
3.5 -2.638 -4.045 -2.506 -4.924 -1.143 -1.011 1.363 -8.793 -6.639 -3.957 -0.9673 -6.067 -7.474 -13.98 -1.143 -4.573
3.505 -2.99 -2.682 -2.594 -4.924 -4.792 1.979 3.649 -5.452 -7.167 -5.1 -1.759 -5.012 -4.924 -13.37 -5.188 -4.485
3.51 -0.4397 0.6155 1.539 -0.8793 -5.716 5.672 5.452 0.5716 -5.496 -0.6155 -0.1759 -3.429 -1.407 -9.849 -8.002 -5.1
3.515 3.957 4.66 6.771 4.221 -3.605 9.101 5.76 6.507 -2.066 6.419 3.429 -1.143 2.198 -4.309 -8.617 -5.716
3.52 7.826 7.167 8.925 6.859 -0.04397 10.24 4.001 9.541 2.022 10.64 6.155 0.7914 5.012 2.374 -7.211 -5.188
3.525 9.233 6.287 6.067 5.54 2.374 7.826 0.9673 8.749 5.54 9.497 5.54 1.319 6.507 8.793 -4.924 -2.814
3.53 7.65 2.682 0.1319 1.539 2.154 2.902 -1.363 5.188 6.991 4.924 1.759 0.9673 7.035 12.84 -2.286 1.407
3.535 4.924 -0.4836 -4.704 -2.11 -0.2198 -1.011 -1.099 1.583 5.804 1.407 -2.11 1.495 6.859 13.19 0.8793 5.892
3.54 2.814 0 -4.924 -2.902 -3.166 -0.9233 2.594 0.4836 2.77 1.055 -2.55 3.693 6.507 10.2 4.397 9.233
3.545 2.11 4.441 -0.4397 -0.5276 -5.496 3.254 8.266 2.506 -0.1319 2.462 0.8793 7.035 6.507 6.419 7.562 10.82
3.55 1.583 9.189 5.056 3.034 -7.386 7.826 12.75 6.067 -1.187 2.286 5.276 9.585 7.035 3.693 9.321 11.87
3.555 -0.7035 9.409 7.035 4.88 -9.585 8.486 13.54 8.442 -0.3517 -0.6155 6.771 9.761 8.09 2.462 9.585 13.28
3.56 -5.012 3.517 3.166 3.122 -12.31 3.561 10.24 7.782 1.055 -4.397 4.573 7.474 8.793 1.407 9.849 14.51
3.565 -9.321 -5.408 -4.573 -1.671 -14.38 -4.133 5.408 4.265 1.451 -5.804 1.319 5.012 8.442 -1.495 11.78 14.33
3.57 -10.82 -11.3 -11.34 -6.639 -14.25 -9.629 2.462 0.4836 0.5276 -3.254 0.4397 4.66 6.859 -5.452 15.48 12.05
3.575 -8.002 -9.805 -12.66 -8.31 -11.08 -9.453 3.298 -0.6595 -0.5716 1.583 3.341 6.331 4.748 -8.002 19.08 8.178
3.58 -2.022 -1.847 -7.386 -5.012 -6.067 -4.177 7.386 1.847 -0.2638 5.804 8.002 7.65 3.078 -6.243 19.61 3.957
3.585 3.517 7.474 1.539 1.803 -1.627 2.374 11.56 6.243 1.627 7.298 10.38 6.243 2.198 -0.6155 15.12 0.4397
3.59 5.54 12.75 9.013 8.574 0.1319 6.551 12.49 8.881 3.825 6.771 8.266 2.286 0.7914 5.188 6.155 -2.638
3.595 3.693 11.91 10.77 11.3 -0.9673 6.947 8.354 6.859 4.221 5.1 2.902 -2.286 -2.198 6.859 -4.309 -6.243
3.6 0.3517 7.035 6.155 8.486 -3.254 4.792 0.3078 0.3957 2.286 2.902 -2.462 -5.276 -6.947 2.902 -12.75 -10.55
3.605 -1.671 1.627 -1.847 1.803 -4.792 1.803 -8.661 -7.474 -0.5276 0.2638 -5.188 -5.979 -11.34 -4.045 -17.15 -13.98
3.61 -1.319 -1.803 -9.013 -4.88 -4.177 -0.8354 -15.17 -12.57 -2.198 -2.198 -5.012 -4.836 -12.57 -9.497 -17.15 -13.54
3.615 0.7035 -2.99 -12 -8.354 -1.495 -3.034 -17.1 -12.18 -1.803 -2.462 -3.078 -3.078 -9.145 -10.99 -14.16 -8.442
3.62 2.55 -2.33 -10.02 -7.342 2.198 -4.529 -14.16 -6.903 -0.3957 0.7035 -0.7035 -1.671 -2.638 -8.969 -9.673 -0.6155
3.625 3.254 -0.3078 -4.617 -3.473 5.408 -4.617 -8.046 0.2638 0.3957 5.54 1.055 -0.8793 3.429 -6.155 -5.276 6.155
3.63 3.429 2.77 1.539 0.7035 7.079 -2.858 -1.363 5.979 0.04397 8.09 2.022 -0.08793 6.243 -4.573 -2.11 8.793
3.635 3.605 6.375 6.419 3.385 7.035 0.1759 3.254 8.134 -0.4836 4.836 1.495 0.4397 5.276 -4.045 -1.143 6.947
3.64 4.221 8.925 8.749 4.309 5.628 2.946 4.792 7.035 0.2198 -3.693 -0.2638 0.2638 2.55 -2.814 -2.286 2.374
3.645 4.133 8.749 8.178 4.045 3.473 3.605 3.298 4.221 2.242 -12.49 -3.078 -0.2638 0.4397 0.08793 -4.221 -1.935
3.65 2.11 5.188 4.617 2.99 1.143 1.539 -0.5276 0.8793 3.781 -15.65 -5.452 -0.5276 -0.1759 3.957 -5.1 -4.309
3.655 -2.022 -0.3957 -1.143 1.011 -0.4836 -2.154 -5.452 -2.638 2.99 -11.17 -5.716 0.2638 -0.4397 6.947 -3.693 -4.573
3.66 -6.507 -5.672 -7.386 -2.154 -0.8793 -5.584 -10.2 -6.155 0.04397 -2.462 -3.254 1.231 -1.583 7.826 -0.08793 -4.221
3.665 -8.793 -8.178 -11.7 -5.452 0.4397 -6.727 -13.41 -8.793 -2.77 4.748 1.143 1.495 -4.045 6.595 3.957 -4.133
3.67 -7.386 -6.859 -11.78 -6.991 3.517 -4.924 -13.59 -9.233 -2.77 7.123 5.364 0.7914 -6.419 4.133 6.419 -4.397
3.675 -3.078 -2.55 -7.606 -5.232 7.562 -1.055 -10.16 -6.683 0.3517 5.54 7.65 -0.4397 -7.123 1.759 6.067 -5.012
3.68 1.583 2.286 -1.539 -0.8354 10.99 2.946 -4.001 -1.935 3.913 3.078 7.298 -1.671 -5.628 0.2638 3.693 -5.628
3.685 4.045 4.968 2.726 3.385 11.87 5.056 2.506 2.418 4.704 2.022 4.485 -2.374 -2.726 0.08793 0.8793 -5.628
3.69 3.078 3.957 2.814 4.485 9.629 4.265 6.859 3.781 1.583 2.198 0.4397 -1.935 0.6155 1.143 -0.7035 -3.869
3.695 0.2638 0.2638 -0.3078 1.803 5.936 1.847 7.914 1.803 -2.99 2.11 -2.902 -0.7035 3.781 2.99 -0.5276 0.08793
3.7 -1.231 -3.254 -2.902 -2.11 3.605 0.6595 6.727 -1.187 -5.188 1.055 -3.429 0.9673 6.771 4.66 0.7035 5.716
3.705 0.1759 -3.341 -1.759 -3.649 4.968 2.814 5.584 -2.066 -3.078 0.1759 -0.5276 2.99 9.233 5.628 2.022 11.26
3.71 4.397 0.5276 3.21 -1.055 9.497 7.738 5.584 0.5276 1.759 0.7914 4.045 4.924 10.29 5.54 2.55 14.77
3.715 8.354 5.936 8.398 3.693 13.89 12.09 5.979 4.529 5.276 2.462 7.474 5.892 8.53 4.573 2.286 14.77
3.72 9.233 8.574 9.233 6.375 14.29 12 5.012 6.287 4.353 2.99 7.123 4.748 4.309 2.902 1.671 11.34
3.725 5.892 5.76 4.133 4.177 9.189 6.419 1.935 3.429 -0.7474 0.5276 2.726 2.022 -0.6155 0.7914 1.231 6.419
3.73 -0.08793 -1.495 -4.045 -1.803 0.7035 -1.935 -1.847 -2.638 -6.507 -4.66 -3.166 -0.5276 -3.781 -1.231 1.055 2.55
3.735 -5.979 -9.013 -9.98 -7.43 -6.683 -8.31 -3.869 -7.738 -8.969 -9.409 -6.683 -1.055 -3.429 -2.286 0.8793 0.3517
3.74 -8.881 -12.35 -9.893 -8.486 -9.057 -9.277 -2.594 -7.958 -6.771 -10.9 -5.979 0.2638 -0.4397 -1.407 0.1759 -0.6155
3.745 -8.354 -10.29 -4.133 -4.309 -6.023 -5.32 0.4836 -3.078 -1.627 -8.178 -2.022 1.847 2.726 1.407 -1.143 -1.583
3.75 -5.628 -4.924 3.254 1.935 -0.3957 -0.08793 2.418 3.517 3.429 -2.902 1.759 2.022 3.605 4.836 -2.902 -3.429
3.755 -2.286 0.3517 7.958 6.199 4.265 2.814 1.055 7.518 6.067 2.198 2.99 0.5276 1.495 6.331 -4.045 -5.628
3.76 0.7035 3.605 8.09 6.199 6.023 2.638 -2.726 6.903 5.716 5.364 1.935 -1.583 -2.11 4.397 -3.517 -7.386
3.765 3.254 4.836 5.232 3.341 5.408 1.231 -5.936 3.298 3.781 6.595 0.4397 -2.022 -4.836 -0.1759 -0.7914 -7.211
3.77 4.924 5.408 2.242 0.6155 4.133 0.7035 -5.804 0.2198 1.891 6.683 0.1759 0.5276 -5.1 -4.66 3.605 -4.309
3.775 5.012 5.628 1.319 0.1319 3.385 1.759 -1.803 0.2638 1.231 6.155 1.231 5.012 -2.462 -6.771 8.705 0.7914
3.78 2.99 4.748 2.418 1.451 2.946 3.298 3.869 3.166 1.935 4.748 2.374 9.145 1.935 -5.54 12.66 6.683
3.785 -1.055 1.847 4.001 2.638 1.759 3.605 8.222 6.859 3.341 2.11 2.198 10.82 6.947 -2.286 14.42 11.61
3.79 -5.892 -2.77 4.089 1.891 -0.5276 2.198 9.453 8.837 4.265 -0.7914 0.9673 9.761 10.9 1.055 13.45 14.33
3.795 -9.233 -7.211 1.715 -0.9673 -3.078 0.4397 7.87 8.046 3.473 -2.902 -0.08793 6.859 12.31 3.166 9.761 14.07
3.8 -9.497 -9.145 -2.638 -4.441 -4.221 -0.4397 4.836 4.88 0.3517 -3.429 0.2638 2.638 9.761 3.517 3.869 10.38
3.805 -6.507 -7.606 -7.65 -6.727 -3.034 0 1.363 0.1759 -4.441 -2.55 1.495 -2.462 2.814 1.495 -3.693 3.605
3.81 -1.847 -3.561 -11.26 -6.771 -0.3957 0.4836 -2.682 -5.54 -9.233 -1.671 1.319 -8.53 -7.562 -3.166 -11.96 -5.276
3.815 2.462 0.5276 -12.05 -4.968 1.715 -0.6595 -7.518 -11.52 -12.27 -2.022 -2.11 -15.12 -18.47 -10.2 -19.35 -14.77
3.82 4.836 2.638 -9.717 -2.462 1.187 -3.869 -12.53 -16.27 -12.49 -4.133 -8.881 -21.28 -25.94 -16.62 -24.09 -22.77
3.825 4.573 1.715 -5.496 -0.5276 -2.242 -8.266 -16.14 -17.81 -10.29 -6.771 -16.71 -25.06 -27.26 -18.99 -24.89 -27.17
3.83 2.55 -1.451 -1.583 0.2198 -6.947 -11.7 -16.49 -14.73 -6.859 -8.705 -21.9 -24.27 -22.34 -15.3 -21.54 -26.47
3.835 -0.3517 -5.188 0.3078 -0.5276 -10.24 -12.35 -12.79 -7.782 -3.561 -8.442 -21.46 -18.29 -13.19 -6.947 -15.39 -21.02
3.84 -2.902 -7.782 -0.3957 -2.33 -10.24 -9.629 -6.199 0.04397 -1.187 -5.804 -14.68 -8.442 -3.517 1.847 -8.705 -12.84
3.845 -4.924 -8.486 -2.726 -4.441 -7.474 -5.144 0.7035 5.452 0.5716 -1.759 -4.133 2.022 3.869 7.386 -3.166 -5.1
3.85 -6.507 -7.738 -4.836 -5.628 -4.133 -1.319 5.408 6.463 1.891 2.286 5.979 9.849 7.738 8.617 0.3517 0.3517
3.855 -7.211 -6.595 -5.056 -5.012 -2.462 0.2638 6.815 4.221 3.078 4.924 12.13 12.75 8.705 7.65 2.638 2.726
3.86 -6.331 -5.056 -2.506 -2.154 -2.858 -0.1759 5.979 1.891 3.957 5.452 13.37 10.73 8.09 7.035 4.836 2.726
3.865 -3.341 -2.55 2.902 2.814 -3.781 -0.6155 4.968 2.198 4.704 4.045 11.34 6.419 6.771 7.211 7.914 1.847
3.87 1.759 1.891 10.02 8.793 -2.99 1.143 5.32 5.584 5.408 2.022 8.53 3.517 5.628 6.243 11.43 1.143
3.875 7.298 7.914 16.75 13.94 0 5.452 6.991 9.893 6.067 0.4397 6.419 3.869 4.748 2.99 14.16 0.8793
3.88 11.26 13.59 20.71 16.36 3.957 10.2 8.09 11.96 6.507 -0.08793 4.485 5.804 3.605 -1.671 14.42 0.4397
3.885 11.7 16 20.14 15.08 6.243 11.78 6.463 9.805 6.375 0.08793 1.143 6.067 1.671 -4.924 11.26 -0.7035
3.89 8.705 13.06 14.82 10.16 5.1 8.178 1.627 3.605 5.232 0.2638 -4.221 2.198 -1.671 -4.924 5.1 -2.374
3.895 3.693 5.144 5.804 2.814 0.9233 0.2198 -4.924 -4.397 2.902 -0.2638 -10.29 -5.364 -5.979 -2.286 -2.286 -3.693
3.9 -1.583 -5.1 -4.221 -5.012 -4.397 -8.793 -10.38 -11.65 -0.4397 -1.847 -13.98 -13.37 -10.11 0.4397 -8.53 -3.781
3.905 -5.892 -14.03 -12.62 -11.39 -9.189 -15.21 -12.62 -15.96 -4.221 -4.133 -13.63 -17.94 -11.78 1.671 -11.87 -2.022
3.91 -8.793 -18.86 -17.06 -14.68 -12.57 -17.02 -11.21 -16.22 -7.386 -6.859 -10.02 -16.53 -9.673 1.583 -11.61 1.407
3.915 -9.673 -18.42 -16.22 -14.03 -14.25 -14.42 -7.562 -12.35 -8.793 -9.936 -5.628 -10.02 -4.133 1.759 -8.617 5.1
3.92 -8.266 -13.37 -10.38 -9.849 -13.98 -9.189 -3.605 -5.672 -7.914 -12.75 -3.166 -2.198 2.022 3.078 -4.66 7.123
3.925 -4.045 -5.76 -1.539 -3.385 -11.39 -3.781 -1.143 1.319 -5.012 -14.25 -3.517 3.166 5.804 4.221 -1.671 6.771
3.93 1.847 1.407 6.727 2.55 -6.507 -0.2638 -0.7035 5.848 -1.319 -13.01 -5.54 3.869 5.276 3.341 -0.7035 4.573
3.935 7.562 5.54 10.77 5.848 -0.6155 0.6595 -2.11 5.936 1.451 -8.178 -6.947 0.7914 1.143 0.1759 -1.847 2.198
3.94 10.46 5.716 9.101 5.54 4.836 -0.2198 -4.089 2.242 2.374 -0.4397 -5.716 -3.781 -3.341 -3.429 -3.693 1.055
3.945 10.02 3.517 3.737 3.078 8.354 -0.8354 -5.1 -2.374 2.022 7.65 -1.495 -6.067 -5.628 -4.836 -4.573 1.407
3.95 7.826 1.891 -0.9673 1.143 9.761 1.407 -3.561 -4.353 1.803 13.45 5.1 -3.166 -4.045 -2.814 -2.814 2.814
3.955 6.243 3.649 -1.319 1.759 9.673 7.474 1.231 -1.759 3.034 15.48 12.75 5.54 0.7035 0.9673 2.55 4.836
3.96 6.595 8.53 3.341 4.748 8.661 15.61 8.134 4.573 5.408 13.89 19.87 16.71 7.211 4.66 10.9 7.298
3.965 7.914 13.76 10.07 8.002 6.727 21.32 14.86 11.74 7.694 10.11 24.27 25.76 14.07 7.123 20.05 11.17
3.97 8.178 15.56 14.47 9.057 3.517 21.06 18.91 16.58 8.574 5.716 24.53 28.75 20.4 8.969 26.56 16.36
3.975 6.155 12.71 14.11 7.035 -0.3957 14.73 19.21 17.63 7.518 1.495 20.49 25.06 24.71 11.17 27.7 21.19
3.98 2.902 7.518 10.02 3.341 -2.946 6.067 16.4 15.39 5.54 -1.671 13.98 16.8 25.68 13.28 22.6 22.16
3.985 0.5276 3.473 5.056 0.1319 -2.55 0.2638 12.22 11.21 3.825 -3.078 7.826 8.002 21.72 13.1 12.84 16.53
3.99 0.4397 2.462 1.627 -1.451 0.9233 -0.3517 7.914 6.111 2.814 -1.583 3.693 2.022 12.75 8.969 1.583 5.012
3.995 1.407 3.254 -0.3957 -1.891 5.012 2.286 3.473 0.6155 1.847 2.726 1.055 -1.495 1.055 1.143 -8.266 -8.354
4 0.8793 2.33 -2.462 -2.462 6.023 3.429 -1.671 -4.836 -0.2198 7.562 -2.638 -5.188 -9.936 -7.65 -15.39 -18.73
4.005 -2.814 -2.55 -5.452 -3.693 1.627 -0.8354 -7.87 -9.365 -3.473 8.881 -9.761 -11.61 -17.23 -13.89 -20.14 -22.69
4.01 -8.969 -10.55 -8.661 -4.792 -7.43 -10.38 -13.72 -12.05 -6.771 4.133 -19.96 -19.87 -19.96 -15.92 -23.21 -20.66
4.015 -14.42 -17.59 -10.07 -4.485 -17.02 -20.49 -17.19 -12.27 -8.925 -5.892 -29.28 -26.82 -19.08 -14.33 -24.36 -15.48
4.02 -15.21 -19.08 -8.134 -2.022 -21.98 -25.41 -16.22 -10.16 -9.057 -16.27 -32.1 -28.75 -16.36 -10.99 -22.07 -10.29
4.025 -9.936 -13.28 -3.254 1.187 -18.91 -22.07 -10.77 -6.815 -7.694 -20.93 -25.24 -24.01 -12.57 -7.738 -15.39 -5.452
4.03 -0.7035 -2.814 1.715 2.946 -8.705 -12.18 -3.078 -3.605 -6.067 -16.36 -10.55 -13.81 -7.65 -4.836 -5.188 0.4397
4.035 8.002 6.639 3.21 0.8793 4.045 -0.7914 3.429 -1.847 -5.496 -4.221 6.067 -2.022 -1.407 -1.671 6.155 8.881
4.04 11.34 10.11 -0.6595 -5.32 13.81 7.167 6.067 -2.066 -6.375 9.673 18.11 7.474 5.188 2.11 15.39 17.85
4.045 7.298 5.804 -8.925 -13.5 16.49 9.321 4.265 -3.913 -7.474 19.35 22.16 13.1 10.11 5.54 20.66 23.92
4.05 -1.759 -2.99 -17.5 -19.52 12.18 7.386 0.1319 -6.067 -7.035 22.07 19.52 16.18 11.61 7.298 21.98 23.92
4.055 -10.55 -10.2 -21.15 -19.52 4.397 5.276 -3.034 -6.595 -3.517 18.99 14.42 18.47 9.585 6.331 20.93 17.5
4.06 -13.98 -10.42 -16.66 -12.05 -2.154 5.672 -3.122 -4.529 2.638 13.19 10.11 19.7 5.628 3.078 18.38 7.474
4.065 -10.46 -2.946 -5.496 0.3517 -4.66 8.09 -0.3517 -0.6155 9.233 6.947 6.683 18.2 1.583 -0.6155 14.42 -2.198
4.07 -2.198 7.606 7.123 12.4 -3.254 9.321 2.726 2.814 12.93 0.9673 2.638 12.49 -1.671 -3.429 8.354 -8.793
4.075 5.628 14.99 15.12 18.77 0.04397 6.771 3.605 3.605 11.34 -4.485 -2.55 3.078 -4.221 -5.012 0.2638 -11.96
4.08 9.761 15.26 15.61 17.37 3.298 0.8793 2.154 1.759 5.1 -8.354 -6.859 -6.771 -6.155 -5.804 -7.914 -13.1
4.085 9.761 9.805 10.51 10.68 5.892 -4.617 0.6595 -0.3957 -2.418 -8.617 -7.211 -12.93 -7.123 -6.595 -13.81 -13.19
4.09 7.65 3.254 4.748 3.825 8.09 -5.848 1.759 0 -7.123 -3.781 -2.462 -12.66 -5.892 -7.298 -15.74 -12.05
4.095 5.892 -0.3517 2.198 0.9233 10.16 -1.847 6.243 3.869 -7.035 4.221 4.573 -7.123 -2.11 -7.386 -14.16 -8.969
4.1 4.836 -0.3517 3.21 2.286 11.52 4.441 12.09 9.277 -3.517 11.61 9.497 -0.6155 2.814 -5.892 -10.73 -4.748
4.105 3.429 1.011 5.276 5.056 11.3 8.705 15.87 13.01 0.1759 14.51 8.881 2.726 7.035 -3.429 -7.298 -0.3517
4.11 1.319 1.627 5.54 5.848 9.673 8.749 15.56 12.93 1.803 12.05 3.517 2.55 8.617 -1.231 -4.836 2.902
4.115 -0.3517 1.363 3.693 3.429 7.782 5.979 11.61 9.673 1.187 6.419 -2.462 0.7035 7.826 -0.1759 -3.341 4.397
4.12 0.08793 1.583 1.407 -0.3078 6.771 3.298 6.243 5.408 0.4836 1.055 -5.716 -0.4397 6.067 0.1759 -2.286 4.309
4.125 2.638 2.814 0.08793 -3.034 6.375 1.979 0.8354 1.891 1.407 -2.374 -5.716 -0.1759 4.924 1.407 -1.671 3.341
4.13 5.012 3.21 -0.9233 -3.825 5.276 0.6595 -4.88 -0.8354 3.605 -4.66 -4.836 0.7914 4.221 4.924 -1.583 2.11
4.135 4.133 0.4397 -3.605 -3.737 2.33 -2.594 -11.48 -3.869 5.056 -7.123 -4.924 1.495 2.814 9.936 -1.231 1.055
4.14 -0.7035 -5.232 -9.101 -4.836 -1.891 -7.298 -18.25 -7.782 4.133 -10.11 -5.452 1.935 -0.08793 14.16 0.3517 0.6155
4.145 -7.298 -10.77 -15.96 -7.87 -5.452 -10.46 -22.64 -11.56 1.055 -11.87 -4.573 2.814 -4.133 14.86 3.781 1.231
4.15 -12.22 -12.27 -20.8 -11.65 -6.683 -9.189 -22.07 -13.45 -2.242 -10.64 -1.671 4.748 -7.65 11.34 7.826 3.254
4.155 -13.19 -8.793 -20.62 -13.72 -5.716 -3.605 -16.31 -12.57 -3.913 -6.595 1.231 6.331 -9.409 5.188 10.29 5.188
4.16 -11.08 -2.99 -15.08 -12.31 -4.221 2.462 -8.046 -9.409 -3.869 -2.022 0.8793 5.012 -9.585 -1.055 9.057 4.748
4.165 -8.178 0.9673 -6.155 -7.518 -3.561 4.704 -1.099 -5.496 -3.122 0.1759 -4.133 -0.1759 -9.145 -5.716 4.045 0.7914
4.17 -5.892 1.099 2.858 -0.7914 -3.737 1.803 2.022 -2.242 -2.594 -1.055 -11.34 -7.211 -9.145 -8.354 -2.902 -5.628
4.175 -3.957 -1.275 9.453 5.628 -3.166 -3.473 1.935 0.3078 -2.242 -4.045 -15.65 -12.31 -8.793 -9.585 -8.617 -11.26
4.18 -1.407 -3.517 12.44 9.849 -0.9673 -7.255 1.187 2.33 -1.231 -6.243 -13.63 -13.01 -6.947 -9.761 -10.9 -13.28
4.185 1.671 -4.001 12.22 11.26 2.506 -7.386 2.022 4.441 0.6595 -6.243 -6.155 -9.936 -2.814 -8.793 -9.849 -10.99
4.19 4.397 -2.902 10.6 10.64 5.979 -4.397 5.188 6.991 2.99 -4.397 2.462 -5.54 2.726 -6.771 -7.474 -6.243
4.195 5.979 -0.8354 10.24 10.11 8.881 0.2198 10.16 10.42 4.836 -2.022 8.617 -1.935 8.002 -4.748 -5.979 -2.462
4.2 7.386 3.298 13.15 11.52 11.7 6.023 15.87 15.17 6.155 0.1759 11.08 0.2638 11.61 -3.429 -6.243 -1.407
4.205 9.673 10.33 19.43 15.21 14.77 13.06 21.28 20.44 7.738 2.55 11.34 2.462 13.37 -2.638 -7.211 -2.374
4.21 12.31 18.91 26.25 19.26 16.97 20 24.67 24.01 10.24 4.924 10.82 5.54 13.63 -0.6155 -7.65 -2.902
4.215 12.75 24.09 28.75 20.18 15.7 23.21 23.92 22.64 12.53 6.419 9.321 8.53 12.22 3.869 -6.771 -1.319
4.22 7.914 20.49 22.99 15.43 8.617 18.55 16.88 14.33 12 5.276 5.54 8.266 8.178 9.497 -5.1 1.671
4.225 -2.198 6.375 8.617 4.924 -3.298 5.012 3.649 0.08793 6.859 0.3517 -1.055 2.99 0.7914 12.93 -3.781 3.693
4.23 -14.07 -13.41 -10.33 -8.398 -15.96 -12.93 -12.97 -16.31 -2.11 -7.474 -8.617 -5.716 -9.233 10.73 -3.429 2.814
4.235 -22.25 -29.81 -27.48 -19.87 -23.92 -27.57 -27.48 -29.37 -11.43 -14.77 -13.54 -13.72 -19.08 3.078 -3.166 -0.7914
4.24 -23.13 -35 -36.89 -25.72 -24.05 -32.01 -34.6 -35.04 -16.71 -18.11 -13.01 -16.97 -24.97 -5.979 -1.319 -5.1
4.245 -17.5 -27.44 -35.79 -24.36 -17.19 -24.84 -31.88 -32.05 -15.78 -15.65 -7.035 -13.54 -24.8 -11.08 3.693 -7.474
4.25 -8.705 -11.83 -25.11 -16.66 -7.342 -10.38 -20.8 -21.94 -9.805 -8.53 1.231 -4.397 -18.73 -9.585 11.34 -6.595
4.255 -0.2638 4.573 -8.749 -5.056 1.275 4.748 -5.584 -7.958 -2.066 0 8.266 6.859 -9.233 -3.693 18.99 -3.517
4.26 6.243 16.53 8.134 7.079 6.331 15.48 8.705 6.287 4.001 6.331 11.52 15.65 0.8793 1.759 23.21 -0.6155
4.265 10.46 22.2 20.58 16.31 7.562 19.92 18.25 17.76 7.123 8.09 10.82 19.26 9.936 3.429 21.81 0.6155
4.27 11.87 22.12 25.15 19.65 5.979 18.86 21.19 24.05 7.606 5.54 7.65 17.76 16.97 2.11 15.74 0.7035
4.275 9.761 17.28 20.84 16.14 2.55 14.07 18.03 24.01 6.375 1.055 4.133 13.28 21.46 1.407 8.705 1.319
4.28 3.957 8.749 9.717 7.079 -1.759 6.991 10.86 17.89 3.913 -2.198 1.671 8.266 22.77 4.221 4.485 4.133
4.285 -3.517 -1.363 -3.869 -3.869 -6.111 -0.5276 2.858 8.002 0.3957 -2.55 0.7035 4.397 20.49 10.11 4.573 9.057
4.29 -9.497 -9.98 -15.26 -12.93 -9.585 -6.859 -3.122 -2.594 -3.737 0.5276 0.7914 2.286 14.86 15.48 6.859 13.98
4.295 -11.08 -13.89 -21.19 -17.41 -11.34 -10.24 -5.716 -11.04 -7.43 5.716 1.143 0.8793 7.123 16.97 7.562 15.74
4.3 -8.354 -12.13 -21.1 -17.06 -11.3 -10.29 -5.32 -15.7 -9.541 11.43 1.055 -1.759 -1.055 14.25 4.397 12.31
4.305 -3.693 -7.079 -16.58 -13.37 -9.936 -8.442 -3.869 -16.62 -9.585 15.83 0.2638 -6.331 -8.442 9.233 -1.759 4.573
4.31 -0.3517 -2.814 -10.51 -8.354 -8.09 -6.771 -3.385 -14.99 -8.222 17.85 -1.231 -11.43 -13.98 4.133 -7.826 -3.693
4.315 0.6155 -2.066 -5.452 -3.473 -6.551 -6.463 -4.704 -12.4 -6.639 16.53 -2.462 -14.86 -16.97 -0.6155 -10.64 -8.53
4.32 -0.08793 -4.177 -2.726 0.3957 -5.496 -6.859 -6.419 -9.717 -5.32 11.52 -2.726 -15.04 -16.88 -5.54 -9.673 -8.09
4.325 -0.5276 -5.936 -2.11 2.726 -5.012 -5.936 -6.331 -7.079 -4.001 3.341 -1.671 -11.7 -13.54 -10.64 -6.419 -3.517
4.33 0.5276 -4.001 -1.979 3.341 -5.1 -2.198 -2.902 -4.001 -1.935 -5.276 0.6155 -5.628 -7.826 -14.25 -3.166 2.286
4.335 2.462 2.198 -0.9673 2.55 -5.364 3.693 3.122 0.04397 1.055 -11.08 3.078 1.583 -1.671 -14.33 -0.6155 6.155
4.34 4.573 10.2 1.715 1.143 -5.54 9.277 9.365 5.012 4.001 -11.78 4.66 7.738 2.814 -10.46 1.759 6.419
4.345 5.892 16.4 5.496 0.5276 -5.276 11.7 12.79 10.24 5.848 -8.178 4.309 11.34 4.397 -5.012 4.573 3.429
4.35 6.331 18.38 8.925 1.451 -4.529 10.11 12.09 14.38 6.287 -3.166 1.935 12.22 3.605 -1.495 6.595 -0.7914
4.355 6.243 16.53 10.99 3.913 -3.034 6.243 8.574 16.53 6.067 -0.08793 -1.231 11.08 2.198 -1.671 6.331 -4.748
4.36 5.716 13.1 11.43 6.815 -0.7914 3.166 5.144 16.58 6.199 0.2638 -3.429 8.793 1.759 -4.221 2.814 -7.211
4.365 4.66 10.29 10.86 8.617 1.759 2.726 3.957 14.82 6.991 -0.7914 -3.166 6.595 3.166 -5.804 -2.022 -7.123
4.37 3.166 8.046 9.365 8.046 3.957 4.089 4.924 11.74 7.386 -1.231 -0.1759 5.54 5.892 -4.045 -5.188 -3.429
4.375 1.143 5.276 6.639 4.704 4.836 4.748 5.936 7.782 5.76 -0.08793 3.957 5.804 9.057 0.5276 -4.045 3.341
4.38 -0.3517 1.275 2.242 -0.7035 4.265 2.726 4.529 3.429 1.979 1.759 7.386 5.979 11.87 5.804 0.8793 11.34
4.385 -0.7914 -3.122 -2.902 -6.331 2.946 -1.539 0.5716 -0.2638 -2.242 2.814 8.53 5.012 13.45 9.673 6.331 17.41
4.39 0.08793 -5.496 -6.859 -10.02 2.242 -5.76 -4.177 -2.374 -4.309 3.341 7.035 2.902 13.28 11.61 8.793 19.17
4.395 2.374 -4.353 -7.738 -10.51 3.341 -6.991 -7.211 -2.11 -2.946 4.66 4.045 0.7914 11.34 12.84 6.859 15.92
4.4 5.452 -0.1759 -5.54 -8.134 5.672 -4.704 -7.782 -0.3078 0.7474 6.595 1.143 -0.5276 7.914 14.16 2.374 9.585
4.405 7.738 4.089 -2.638 -5.012 7.562 -0.9233 -7.386 0.9233 4.001 7.123 -1.231 -0.7035 3.781 14.86 -2.286 3.078
4.41 7.65 5.144 -1.935 -3.429 7.079 1.407 -8.486 -0.6595 4.485 3.517 -3.341 -0.7035 -0.4397 13.45 -5.364 -1.231
4.415 5.1 2.022 -4.792 -4.265 4.045 0.7914 -12.35 -5.584 1.627 -4.66 -5.892 -2.022 -4.748 8.793 -7.211 -3.254
4.42 1.319 -3.781 -9.453 -6.331 0.1319 -2.33 -17.45 -12.18 -2.462 -13.81 -9.057 -6.067 -9.145 1.671 -8.969 -4.485
4.425 -1.671 -9.013 -12.53 -7.474 -2.33 -6.023 -20.58 -17.37 -5.452 -18.64 -12.13 -12.22 -13.28 -5.628 -10.82 -6.419
4.43 -2.286 -11.3 -11.65 -6.287 -2.418 -8.354 -19.35 -18.51 -5.979 -16.44 -14.25 -17.59 -16.09 -10.38 -11.34 -8.881
4.435 -0.6155 -10.2 -7.079 -3.166 -0.7035 -8.617 -13.59 -14.82 -4.397 -9.057 -14.51 -19.26 -16 -11.61 -9.145 -11.08
4.44 1.759 -6.815 -0.7035 0.3078 1.055 -6.903 -5.232 -7.606 -1.891 -1.935 -12.57 -16.44 -12.4 -10.29 -4.573 -12.13
4.445 3.078 -2.858 5.364 3.298 1.671 -3.957 3.21 0.6595 1.011 0.7914 -9.145 -10.82 -6.683 -8.442 0 -12.49
4.45 2.726 0.2638 10.29 5.892 1.275 -0.6155 10.11 7.958 4.221 0 -5.54 -5.452 -1.407 -7.65 1.407 -12.66
4.455 1.055 1.671 14.03 9.057 0.7914 2.33 14.86 12.66 7.342 -0.08793 -2.374 -2.638 1.407 -8.09 -1.231 -13.1
4.46 -1.407 1.143 16.4 12.75 0.8793 3.913 17.15 13.98 9.585 3.693 0.5276 -2.99 1.671 -8.793 -6.067 -13.28
4.465 -4.133 -1.451 16.31 15.21 1.187 3.649 16.66 11.56 9.453 9.497 3.605 -4.66 0.7035 -8.354 -9.321 -12.05
4.47 -6.771 -5.452 12.66 14.38 1.231 2.066 13.01 6.067 6.683 12.31 7.298 -4.397 0.5276 -6.155 -8.354 -8.617
4.475 -8.53 -9.145 5.716 9.277 0.8793 0.2638 6.551 -1.011 2.198 8.881 11.34 -1.319 1.671 -3.078 -3.605 -4.045
4.48 -8.53 -10.9 -2.242 1.759 1.011 -0.6155 -0.9673 -7.342 -1.671 0.9673 13.89 3.166 3.254 -0.4397 1.935 -0.3517
4.485 -6.243 -9.98 -8.442 -4.968 2.022 -0.5716 -7.035 -10.29 -3.341 -5.628 13.37 6.155 4.221 1.143 4.836 1.319
4.49 -2.55 -7.123 -10.51 -8.046 3.429 -0.3957 -9.541 -8.705 -2.462 -6.067 8.705 6.155 4.573 1.935 3.693 1.847
4.495 0.5276 -3.605 -8.31 -6.947 4.309 -0.5276 -7.958 -3.605 -0.3078 -0.7914 1.407 3.869 5.188 3.254 0 3.078
4.5 1.495 -0.6155 -3.781 -3.561 3.561 -0.7474 -3.869 2.198 1.231 5.188 -5.716 0.7914 6.331 5.628 -3.429 5.804
4.505 0.2638 1.363 0.2198 -0.7035 1.539 -0.7914 -0.1759 5.452 1.055 6.683 -10.55 -1.583 6.595 8.793 -4.66 8.881
4.51 -1.935 1.759 1.187 -0.4397 -0.7474 -0.5716 0.1759 3.869 -0.8793 2.55 -12.31 -2.99 3.605 11.08 -3.869 10.29
4.515 -3.341 0.3957 -1.715 -2.99 -2.506 -0.8354 -3.649 -2.11 -3.869 -3.254 -11.87 -4.309 -3.078 10.64 -2.11 8.969
4.52 -3.517 -2.638 -7.167 -6.815 -3.473 -2.33 -9.629 -9.541 -6.683 -6.419 -10.55 -5.979 -11.08 7.298 -0.1759 5.892
4.525 -3.078 -6.243 -11.87 -9.409 -4.089 -4.88 -13.37 -14.11 -8.046 -5.364 -8.793 -6.683 -15.83 2.374 2.022 4.133
4.53 -2.902 -8.442 -12.05 -8.749 -4.397 -6.463 -10.99 -12.62 -6.903 -1.847 -5.54 -4.133 -13.72 -2.022 5.628 6.067
4.535 -2.638 -7.342 -6.111 -4.089 -3.781 -4.924 -2.066 -5.012 -3.649 1.495 0.2638 2.462 -5.54 -4.924 10.64 10.46
4.54 -1.583 -2.77 3.781 2.99 -1.363 0.2198 9.717 5.364 0.5716 4.133 8.442 10.9 4.045 -6.243 15.56 13.28
4.545 0.7914 3.166 12.84 9.541 2.682 7.298 18.38 13.76 4.001 7.386 16.71 17.06 9.673 -6.859 17.85 10.73
4.55 3.869 7.606 16.58 12.88 6.859 13.1 19.74 16.88 5.276 11.96 21.98 18.38 9.409 -7.035 15.74 3.166
4.555 6.155 8.881 13.98 12.22 9.365 15.26 14.38 14.99 4.968 16.53 22.51 15.04 6.243 -6.507 9.761 -5.012
4.56 7.035 7.562 8.178 9.497 9.497 13.41 7.255 11.3 4.441 17.85 18.55 9.585 4.748 -4.836 2.462 -9.057
4.565 6.771 5.76 4.089 7.474 8.046 9.233 3.254 9.013 4.617 14.16 11.87 4.924 6.947 -2.462 -3.605 -7.298
4.57 6.683 5.056 4.309 7.65 6.507 4.66 3.737 8.749 5.1 6.331 4.397 2.726 10.73 -1.143 -7.386 -2.902
4.575 7.562 5.496 7.123 8.925 5.76 0.8793 5.32 8.178 4.001 -1.671 -2.726 2.11 11.43 -2.462 -9.761 -1.143
4.58 8.793 6.067 8.266 8.354 5.452 -2.11 3.913 4.748 0.5276 -6.947 -9.145 0.9673 6.507 -6.419 -12.05 -5.1
4.585 8.705 5.496 4.617 4.045 4.441 -4.573 -1.935 -1.847 -4.353 -8.617 -14.33 -1.847 -2.022 -10.29 -14.42 -12.4
4.59 5.892 3.254 -2.858 -2.99 1.847 -6.947 -9.585 -8.837 -8.002 -8.09 -17.76 -5.1 -9.057 -10.9 -15.3 -17.15
4.595 0.7914 -0.4836 -10.33 -9.453 -1.891 -9.321 -14.6 -12.49 -8.442 -6.683 -18.82 -7.298 -10.64 -6.683 -13.28 -15.39
4.6 -5.012 -5.188 -14.11 -12.18 -5.628 -11.96 -14.95 -11.61 -6.111 -4.66 -17.85 -8.09 -7.562 0.7914 -8.354 -8.354
4.605 -10.02 -10.24 -13.41 -10.9 -8.178 -14.82 -12.22 -8.266 -3.869 -2.374 -15.83 -8.793 -4.66 7.65 -3.166 -1.407
4.61 -12.84 -14.29 -10.42 -7.826 -9.277 -17.15 -9.717 -6.595 -4.265 -0.3517 -13.81 -10.38 -6.683 10.29 -0.7035 0.6155
4.615 -13.01 -15.61 -8.002 -5.979 -8.793 -16.93 -8.881 -8.354 -7.65 0.1759 -11.34 -12.4 -13.54 7.738 -1.583 -2.638
4.62 -10.73 -12.84 -7.255 -6.199 -6.507 -12.44 -8.002 -11.87 -11.78 -1.143 -6.947 -13.37 -20.58 2.638 -3.341 -6.771
4.625 -7.123 -6.639 -6.903 -7.474 -2.858 -3.869 -4.573 -13.1 -13.45 -3.254 0.7914 -10.82 -21.72 -0.9673 -1.759 -6.331
4.63 -3.693 0.1319 -5.32 -7.562 1.011 6.331 1.803 -9.409 -11.17 -3.957 10.82 -3.693 -14.07 -0.8793 5.892 1.231
4.635 -1.759 4.177 -2.374 -5.628 3.473 14.11 8.398 -1.847 -5.804 -2.286 20.49 7.123 -0.2638 2.814 17.85 12.84
4.64 -2.11 3.957 0.4397 -2.726 2.99 16.49 11.74 6.155 0.2198 0.8793 26.12 17.85 13.98 7.474 28.75 23.04
4.645 -3.605 1.011 1.803 -0.3517 -0.08793 13.41 10.86 11.17 5.232 3.254 25.68 24.71 23.39 10.55 32.89 27.44
4.65 -4.221 -1.451 1.891 1.055 -3.649 7.826 7.958 12.35 8.486 3.517 19.87 25.59 26.03 10.9 27.7 25.41
4.655 -2.022 -0.7914 2.33 2.506 -4.968 3.429 6.551 11.26 9.761 2.11 11.08 20.58 23.21 9.057 15.04 19.17
4.66 3.166 3.21 4.485 4.88 -2.55 2.506 7.43 9.629 9.013 0.4397 2.374 11.26 17.15 5.892 0.2638 11.17
4.665 9.145 8.574 8.09 7.826 2.242 4.221 8.222 7.43 6.375 -1.407 -4.836 0.5276 9.409 2.022 -11.78 2.902
4.67 13.1 12.44 11.08 9.761 6.639 6.199 5.628 3.781 2.814 -4.133 -10.29 -8.354 1.055 -2.374 -18.55 -5.452
4.675 13.37 13.5 11.21 9.101 8.31 6.287 -1.187 -1.715 -0.1759 -8.266 -14.25 -13.37 -6.947 -6.771 -20.58 -13.19
4.68 10.73 11.7 7.87 5.76 7.167 4.045 -9.233 -7.43 -1.451 -12.49 -16.09 -15.12 -13.1 -10.46 -20.22 -19.7
4.685 7.211 8.002 2.638 1.363 4.836 0.2638 -14.25 -11.04 -1.407 -14.25 -15.83 -15.83 -16.97 -12.66 -20.14 -24.09
4.69 4.309 2.946 -2.154 -1.935 2.858 -4.001 -14.25 -11.34 -1.539 -12.05 -14.51 -17.5 -18.99 -13.28 -21.54 -25.85
4.695 2.198 -2.946 -4.968 -3.122 1.363 -7.826 -10.64 -9.453 -3.078 -6.947 -13.28 -20.14 -20.22 -12.93 -23.39 -24.97
4.7 -0.3517 -8.705 -5.76 -2.77 -1.055 -10.9 -6.595 -7.43 -5.408 -2.11 -13.19 -22.07 -20.66 -11.7 -22.77 -21.1
4.705 -4.221 -12.66 -5.056 -2.198 -5.144 -12.84 -4.221 -6.111 -6.287 -0.4397 -13.63 -19.96 -18.64 -9.145 -16.71 -13.45
4.71 -8.53 -13.63 -3.429 -2.066 -10.16 -13.1 -2.77 -4.133 -3.649 -2.11 -13.01 -11.61 -12.05 -4.573 -4.397 -2.11
4.715 -11.52 -11.65 -1.055 -2.066 -13.72 -11.21 -0.3078 0.2638 1.891 -4.836 -9.409 1.583 -1.143 1.231 11.52 11.08
4.72 -12.05 -8.134 1.715 -1.539 -13.54 -7.474 3.693 7.035 7.386 -6.507 -2.814 14.77 10.82 6.595 25.85 21.9
4.725 -10.02 -4.88 4.265 -0.4397 -9.497 -3.034 7.386 13.15 9.541 -6.595 5.364 22.69 19.35 9.321 33.68 27.17
4.73 -7.298 -3.034 5.32 0.2638 -3.385 0.9233 8.661 15.17 7.43 -5.364 12.57 23.74 21.81 8.617 33.5 26.38
4.735 -5.1 -2.154 4.045 -0.08793 2.374 4.397 7.298 11.96 3.166 -2.374 17.85 20.4 19.26 5.979 27.87 22.69
4.74 -3.341 -0.6595 1.099 -1.451 6.507 8.002 5.54 6.111 0.1319 3.605 21.72 16.53 15.74 4.485 21.19 19.35
4.745 -1.055 2.55 -1.495 -2.55 9.145 12.4 5.848 1.627 0.5276 12.22 24.97 14.77 14.16 5.628 16.18 17.67
4.75 2.726 7.298 -2.066 -1.847 10.77 16.88 8.266 0.8354 3.737 20.58 27.08 14.86 14.42 8.354 12.31 15.74
4.755 7.386 12.22 -0.1759 0.9233 11.48 19.65 10.16 2.55 7.167 23.83 26.56 13.89 13.54 9.849 7.123 10.38
4.76 10.82 15.48 2.77 4.353 10.77 18.91 8.486 3.605 8.31 18.99 21.81 9.145 8.969 7.298 -0.9673 0.4397
4.765 11.43 15.96 5.144 6.287 8.486 14.2 2.902 1.803 6.463 7.914 12.93 0.7035 1.055 0.7035 -10.99 -11.61
4.77 9.321 13.15 5.584 5.408 5.452 7.167 -3.561 -1.979 2.506 -2.99 2.11 -8.53 -7.035 -7.298 -19.87 -20.93
4.775 5.804 7.87 3.957 2.11 2.99 0.3517 -7.123 -5.76 -1.759 -8.178 -7.826 -15.56 -12.13 -13.1 -25.68 -24.18
4.78 2.902 1.231 0.6595 -2.066 1.803 -4.441 -6.727 -8.002 -5.276 -6.947 -15.04 -19.79 -13.81 -14.33 -28.05 -22.25
4.785 1.231 -4.968 -3.869 -5.628 1.011 -7.342 -4.748 -9.541 -7.211 -3.693 -19.17 -21.98 -14.33 -11.34 -28.58 -18.38
4.79 -0.08793 -9.101 -8.925 -7.694 -0.7474 -9.189 -4.88 -11.61 -7.43 -3.078 -21.1 -23.3 -15.92 -6.771 -27.87 -15.74
4.795 -1.935 -9.717 -12.75 -7.738 -3.825 -10.2 -8.09 -13.81 -5.936 -5.804 -20.75 -22.77 -18.47 -3.078 -24.97 -14.77
4.8 -3.781 -6.067 -12.62 -5.144 -6.815 -9.321 -11.3 -13.32 -3.078 -8.002 -17.67 -18.73 -18.91 -1.407 -17.76 -13.45
4.805 -3.869 1.055 -6.331 0.3078 -7.562 -5.188 -9.98 -7.211 0.4836 -5.979 -11.17 -9.497 -14.25 -0.8793 -5.804 -9.321
4.81 -1.319 9.497 5.144 7.65 -4.88 1.935 -1.935 4.045 3.913 0.08793 -1.935 4.133 -3.869 0.8793 8.793 -1.055
4.815 2.726 16 16.93 13.89 0.08793 10.07 10.02 16.09 6.111 5.804 8.266 18.99 8.881 4.924 21.9 10.2
4.82 5.364 17.89 22.64 15.12 4.748 16.09 19.96 22.69 6.375 6.683 16.97 30.07 19.52 10.73 30.34 21.72
4.825 4.221 14.55 18.6 9.453 7.079 17.89 23.3 20.58 4.441 3.254 22.51 34.12 24.89 15.74 32.98 31.04
4.83 -0.8793 7.342 6.507 -0.9673 6.551 15.48 19.74 11.78 0.6595 0.6155 24.09 31.04 24.53 16.97 30.78 36.23
4.835 -7.211 -0.9233 -7.079 -11.17 3.869 10.51 12.66 1.539 -4.045 3.781 21.98 23.39 20.4 13.01 25.5 35.88
4.84 -11.78 -7.782 -15.48 -16 0.08793 4.485 5.584 -5.54 -8.046 11.78 16.44 13.45 14.25 5.1 18.03 29.02
4.845 -12.93 -12.05 -16.05 -13.89 -4.617 -2.594 -0.1759 -8.354 -9.805 18.29 7.914 2.902 6.771 -3.693 8.09 16.09
4.85 -11.78 -14.16 -11.12 -7.386 -10.11 -10.55 -5.76 -8.969 -8.661 16.62 -2.638 -7.211 -1.671 -10.46 -3.869 0
4.855 -9.849 -14.51 -5.1 -0.6155 -14.77 -18.03 -11.48 -9.409 -5.32 6.155 -12.84 -15.83 -9.936 -13.89 -15.74 -15.12
4.86 -7.211 -12.57 -0.4836 3.913 -15.74 -21.68 -15.43 -9.189 -1.143 -6.947 -19.79 -21.28 -15.3 -13.98 -24.18 -24.97
4.865 -2.638 -7.342 3.385 6.727 -11.04 -18.6 -14.6 -6.111 2.594 -15.04 -21.63 -22.34 -15.12 -11.87 -26.47 -27.52
4.87 4.66 1.055 7.87 9.453 -1.451 -8.925 -7.694 1.011 5.276 -14.95 -18.73 -18.47 -9.409 -8.617 -22.69 -23.57
4.875 12.93 10.02 12.66 12.44 8.749 3.078 2.55 9.98 6.727 -10.11 -13.45 -12.05 -1.671 -5.188 -16.09 -16.8
4.88 18.2 15.48 15.04 13.89 14.77 11.39 10.86 16.09 6.683 -6.331 -8.53 -7.035 3.166 -2.726 -10.73 -11.78
4.885 17.06 14.03 12.57 11.74 13.98 11.56 13.1 15.65 4.88 -6.067 -5.452 -6.419 1.935 -2.11 -9.233 -10.9
4.89 9.409 5.628 5.716 5.892 7.562 4.045 8.749 8.442 1.275 -6.155 -3.869 -9.409 -4.748 -2.99 -10.73 -13.81
4.895 -0.6155 -6.067 -1.935 -0.9233 -0.4836 -6.639 0.8354 -2.11 -2.99 -2.11 -2.55 -12.4 -13.1 -4.133 -11.61 -17.59
4.9 -8.09 -15.87 -6.947 -5.76 -6.815 -15.08 -7.035 -11.48 -6.375 5.892 -0.7035 -11.87 -18.82 -3.693 -8.617 -19.79
4.905 -10.2 -19.83 -8.442 -7.518 -10.2 -18.29 -13.19 -16.8 -7.474 12.31 1.143 -6.859 -20.31 -0.8793 -1.231 -18.73
4.91 -8.178 -17.85 -8.837 -8.002 -11.7 -16.66 -17.76 -17.85 -6.507 10.64 1.935 0.7035 -18.11 3.341 8.09 -13.98
4.915 -5.364 -12.4 -10.9 -9.541 -12.4 -12.27 -20.66 -15.78 -5.144 -0.08793 1.055 8.002 -13.63 7.211 15.92 -5.804
4.92 -4.485 -6.551 -14.95 -12.97 -12.13 -6.727 -20.4 -11.43 -4.748 -13.45 0.08793 12.84 -6.771 10.46 20.49 5.188
4.925 -5.452 -1.627 -18.03 -16.36 -9.805 -0.6155 -15.08 -5.144 -5.188 -20.22 0.8793 16.09 3.429 14.16 22.86 18.2
4.93 -5.892 2.594 -17.19 -16.97 -5.188 5.672 -4.924 2.242 -4.792 -16 3.869 19.35 16.27 19.08 24.45 31.04
4.935 -3.869 6.199 -11.78 -13.59 0.04397 10.6 6.155 8.574 -2.198 -4.221 7.386 22.34 27.96 23.74 24.89 39.22
4.94 0.2638 8.617 -4.485 -7.211 3.605 11.65 12.75 11.12 2.462 6.771 8.354 21.81 33.15 24.62 21.9 38.34
4.945 4.309 7.826 1.319 -0.4397 3.781 6.947 11.26 8.749 6.947 11.08 4.221 14.33 28.31 18.99 12.75 27.08
4.95 5.452 2.462 4.221 5.012 0.6595 -2.814 2.99 3.078 9.057 8.881 -4.66 0.3517 15.12 8.09 -1.935 8.969
4.955 3.166 -6.287 5.276 8.617 -3.737 -14.03 -6.815 -2.242 8.661 4.485 -15.12 -15.04 0.08793 -3.078 -17.23 -8.969
4.96 -1.319 -14.42 6.595 10.9 -6.991 -21.24 -11.96 -3.561 7.255 1.407 -22.07 -25.32 -9.585 -9.233 -26.73 -20.31
4.965 -4.573 -16.84 9.145 12.44 -7.123 -20.4 -9.145 0.2198 6.947 -0.5276 -21.9 -25.94 -10.99 -9.233 -26.56 -22.69
4.97 -3.605 -10.38 12.22 13.32 -3.561 -10.51 0.7035 7.298 8.178 -3.166 -13.98 -17.15 -6.331 -6.947 -18.2 -18.82
4.975 1.759 3.429 14.68 13.5 2.99 5.452 13.63 14.25 9.365 -6.155 -0.8793 -3.869 -0.5276 -7.123 -7.035 -13.19
4.98 9.585 19.21 16 13.41 10.99 21.76 24.75 18.47 8.837 -6.507 13.19 7.914 3.166 -10.99 1.671 -9.321
4.985 15.83 29.9 16.58 13.1 17.45 32.1 30.47 18.91 6.331 -2.198 23.92 14.51 4.66 -14.51 5.979 -7.211
4.99 17.41 30.73 16.4 12.31 19.48 32.62 28.89 16.05 3.385 5.012 28.23 16.18 5.452 -13.01 6.947 -4.924
4.995 13.19 21.72 14.51 9.98 15.7 23.43 20.62 10.68 1.583 9.761 25.59 14.51 5.979 -5.628 6.859 -2.198
5 5.364 7.606 9.673 5.364 7.43 9.057 8.31 3.561 0.7035 8.002 17.94 10.73 4.485 3.254 6.771 -0.5276
5.005 -2.462 -5.188 2.022 -0.8354 -1.671 -4.265 -3.825 -4.353 -0.7474 0.9673 8.705 5.364 -0.9673 7.386 5.979 -1.935
5.01 -7.474 -11.96 -6.287 -6.903 -7.738 -11.43 -11.56 -11.3 -3.957 -5.1 1.143 0 -9.761 4.748 4.045 -5.54
5.015 -8.53 -11.52 -11.91 -10.64 -8.486 -10.68 -12.75 -14.86 -8.266 -4.748 -2.99 -3.605 -17.23 -1.231 2.11 -8.002
5.02 -6.331 -5.76 -12.79 -10.86 -4.397 -4.221 -7.87 -13.32 -11.34 2.11 -3.957 -3.781 -18.29 -4.485 2.022 -5.628
5.025 -2.286 1.847 -9.233 -8.222 1.671 3.473 -0.3957 -7.211 -10.99 10.02 -3.605 -0.7914 -10.73 -1.671 4.748 2.814
5.03 1.847 8.046 -4.177 -4.924 6.287 7.958 5.54 0.5716 -7.386 12.93 -4.221 3.429 2.462 4.748 9.145 14.68
5.035 4.573 9.98 -1.143 -3.078 7.123 6.683 7.035 5.848 -2.726 9.321 -6.419 5.979 15.21 9.849 12.49 24.45
5.04 4.309 6.419 -1.979 -3.869 3.517 0.1319 3.605 6.111 0.3517 2.374 -9.409 4.836 22.07 10.29 12.57 27.52
5.045 -0.1759 -1.891 -6.067 -6.595 -2.99 -9.145 -2.902 1.671 1.011 -3.781 -11.7 0.1759 21.19 6.859 8.881 23.04
5.05 -7.562 -12.13 -10.64 -9.453 -9.541 -17.19 -9.585 -4.353 0.5716 -7.914 -12.31 -5.364 14.6 2.99 2.814 13.28
5.055 -14.6 -19.57 -13.06 -10.11 -12.97 -20.4 -13.28 -8.442 0.6595 -11.08 -11.17 -8.969 5.804 1.319 -3.869 1.935
5.06 -17.06 -20.14 -11.61 -7.474 -10.99 -16.97 -12.22 -8.53 1.847 -14.07 -8.354 -9.673 -2.374 1.759 -9.057 -7.738
5.065 -12.75 -12.84 -6.727 -1.891 -4.089 -8.002 -6.595 -5.32 3.341 -15.12 -4.133 -8.002 -8.442 2.198 -11.78 -13.63
5.07 -2.99 -0.8354 -0.1759 4.353 4.485 3.034 1.231 -1.055 4.001 -11.61 1.055 -4.924 -11.96 1.143 -11.43 -14.68
5.075 7.562 10.6 5.848 9.013 10.9 12.05 8.266 2.154 3.605 -3.429 6.859 -1.495 -12.57 -1.231 -7.914 -11.7
5.08 14.51 17.15 9.629 10.6 12.57 15.96 11.78 3.913 2.99 6.067 12.05 1.319 -10.73 -3.605 -2.726 -7.035
5.085 15.65 17.54 10.6 9.189 9.805 14.86 11.21 4.66 3.122 11.96 15.39 2.99 -7.474 -5.188 1.935 -3.517
5.09 12.13 13.45 8.969 6.199 4.836 10.42 7.826 4.836 3.693 11.87 15.83 3.605 -4.221 -5.804 4.397 -2.286
5.095 6.155 7.518 5.232 2.77 0.1319 5.056 3.473 3.957 3.473 7.914 13.45 3.254 -2.11 -5.804 4.133 -2.726
5.1 -0.1759 1.363 0 -0.6595 -3.781 0.04397 -0.7035 0.9673 1.231 3.957 8.793 1.759 -1.495 -5.1 2.11 -2.726
5.105 -6.067 -4.617 -6.199 -4.485 -7.386 -4.836 -4.924 -4.441 -2.858 1.759 2.726 -1.055 -2.286 -4.309 -0.2638 -0.9673
5.11 -10.9 -10.11 -12.22 -8.574 -11.43 -9.893 -9.98 -11.04 -7.211 0.1759 -4.221 -5.012 -3.957 -4.133 -2.902 2.198
5.115 -13.98 -14.33 -16.66 -11.91 -15.08 -14.51 -15.96 -16.58 -9.936 -2.814 -11.34 -9.409 -6.243 -5.1 -5.892 4.397
5.12 -14.51 -15.87 -18.16 -12.93 -16.71 -17.37 -21.59 -18.82 -9.805 -7.738 -17.32 -13.72 -8.178 -6.683 -9.409 3.957
5.125 -12.13 -13.85 -16.18 -10.82 -15.04 -17.1 -24.49 -16.71 -6.859 -11.52 -20.66 -16.44 -8.617 -7.035 -11.96 1.495
5.13 -7.562 -8.705 -11.17 -6.067 -10.2 -13.32 -22.77 -10.95 -2.066 -10.38 -20.4 -15.83 -5.979 -4.66 -11.87 -0.1759
5.135 -1.583 -1.671 -4.617 -0.6595 -3.825 -6.771 -16 -3.254 2.858 -2.814 -16 -11.43 -0.6155 0 -8.266 0.9673
5.14 5.1 5.716 1.495 3.605 2.902 1.231 -5.76 4.177 6.155 8.705 -8.178 -4.836 5.452 4.045 -2.55 4.133
5.145 11.7 11.91 5.672 5.452 8.442 9.013 4.792 8.881 6.683 18.38 1.143 1.495 9.233 4.045 2.11 7.035
5.15 16.18 14.99 6.683 4.748 11.65 14.47 12.22 9.057 4.177 20.93 8.881 5.364 8.442 -0.5276 3.781 7.474
5.155 16.27 13.54 4.221 2.286 11.48 15.65 13.94 4.792 -0.2198 14.51 12.49 6.067 3.957 -6.947 2.726 5.364
5.16 11.17 7.386 -0.4397 -0.7914 7.386 11.65 9.673 -1.803 -4.617 1.759 10.55 4.309 -1.319 -10.9 1.231 2.462
5.165 2.462 -0.9233 -4.748 -3.034 0.6595 3.825 1.759 -6.727 -6.815 -11.17 4.221 1.759 -4.397 -10.46 1.319 0.4397
5.17 -5.276 -7.518 -5.848 -3.341 -5.496 -4.089 -5.628 -6.903 -6.023 -17.5 -2.902 0.6155 -4.221 -7.298 3.429 -0.7914
5.175 -8.002 -8.837 -2.242 -0.9233 -7.606 -7.738 -8.486 -1.407 -3.21 -13.81 -6.419 2.11 -1.847 -4.485 5.892 -2.374
5.18 -4.309 -4.177 5.32 3.693 -3.869 -4.265 -4.924 7.255 -0.1319 -2.286 -3.166 6.243 0.6155 -3.693 7.123 -4.836
5.185 2.638 3.825 13.5 8.837 3.913 5.364 3.825 15.08 1.891 10.46 5.979 11.7 2.638 -3.957 6.507 -6.683
5.19 8.53 11.17 18.69 12.22 12.09 16.84 13.98 18.55 2.506 17.67 17.06 16.97 4.397 -2.55 5.188 -5.276
5.195 10.82 14.73 18.95 12.53 16.97 25.11 21.32 16.97 2.286 16.27 24.71 20.4 6.507 1.231 4.221 0.1759
5.2 9.849 14.16 14.9 9.717 17.67 26.95 22.99 11.91 1.847 8.793 25.85 20.05 8.354 5.892 3.869 7.298
5.205 8.178 10.68 8.793 5.012 15.48 21.94 18.42 5.54 1.319 1.055 20.31 15.04 8.09 8.617 3.166 11.96
5.21 6.683 5.276 2.594 0.04397 12.13 12.09 9.233 -0.5276 0.4836 -2.814 10.73 6.507 4.485 8.266 1.055 11.17
5.215 4.573 -1.583 -2.99 -4.089 8.486 0.3957 -1.847 -5.716 -0.7474 -2.374 0.4397 -3.078 -1.495 5.804 -2.374 4.924
5.22 0.7914 -9.277 -7.738 -6.639 4.66 -10.24 -11.34 -9.233 -2.242 -0.2638 -8.178 -11.17 -7.211 3.429 -5.892 -3.517
5.225 -4.397 -15.87 -10.86 -7.035 1.055 -17.37 -16.05 -10.11 -3.298 0.7035 -13.81 -15.74 -9.585 2.286 -8.266 -9.936
5.23 -7.826 -18.51 -10.99 -5.1 -1.539 -19.39 -14.42 -7.738 -3.825 -0.2638 -16.18 -15.74 -7.474 1.759 -8.793 -11.61
5.235 -7.035 -15.56 -7.123 -1.187 -2.418 -16 -7.342 -2.814 -3.561 -2.638 -15.12 -11.43 -2.286 1.319 -7.123 -8.442
5.24 -2.374 -8.486 -0.2198 3.473 -1.979 -9.013 1.627 2.418 -2.462 -5.1 -11.26 -4.924 3.429 1.495 -3.166 -2.286
5.245 2.374 -1.275 6.683 6.859 -2.286 -1.979 8.354 5.716 -0.4836 -7.474 -6.067 1.583 7.562 3.869 2.638 4.309
5.25 2.814 1.627 10.2 7.167 -4.968 1.451 9.849 5.979 2.33 -9.145 -1.759 6.507 9.409 8.793 9.321 10.02
5.255 -2.198 -1.231 8.705 4.221 -9.409 -0.08793 6.287 4.353 5.012 -9.057 0.3517 8.969 9.497 14.42 14.6 13.63
5.26 -9.409 -7.123 4.089 -0.2638 -12.66 -4.66 0.9673 3.034 6.331 -6.683 0.6155 8.969 8.881 16.97 16.62 14.95
5.265 -13.28 -11.21 0 -3.869 -11.48 -8.53 -2.418 3.517 5.364 -2.638 0.7035 7.211 7.826 13.98 14.6 13.72
5.27 -10.2 -9.98 -0.9233 -4.529 -4.704 -8.222 -1.715 5.364 2.418 1.407 1.847 5.628 6.507 6.067 10.02 11.17
5.275 -1.231 -3.298 1.231 -2.286 4.968 -2.858 1.891 6.375 -1.099 4.133 4.309 5.452 4.924 -2.99 5.364 7.914
5.28 8.881 5.496 3.957 1.099 13.37 5.056 5.452 4.485 -3.737 5.628 7.211 6.243 2.55 -9.057 2.638 4.397
5.285 14.77 12 4.353 3.21 16.58 11.61 5.76 -0.7035 -4.792 6.595 8.793 6.419 -0.9673 -10.46 1.231 0.2638
5.29 13.89 13.15 1.583 2.682 13.67 13.15 2.022 -7.43 -4.748 6.771 7.474 4.485 -5.892 -8.442 -0.9673 -4.836
5.295 7.826 9.057 -2.638 0.4836 6.551 9.057 -4.309 -12.57 -4.089 4.133 2.99 0 -11.43 -5.804 -5.804 -10.9
5.3 0.7914 2.726 -5.496 -1.451 -1.363 1.275 -10.38 -13.54 -3.078 -2.99 -3.781 -6.507 -15.92 -4.221 -13.01 -16.8
5.305 -3.693 -2.374 -5.32 -1.495 -7.211 -6.991 -13.59 -10.02 -1.363 -13.01 -11.34 -12.93 -17.23 -3.429 -20.4 -20.66
5.31 -4.133 -4.485 -2.902 0.1759 -9.541 -12.71 -13.32 -3.913 0.8793 -20.31 -17.41 -16.8 -14.51 -1.847 -24.8 -20.84
5.315 -1.847 -3.737 -0.7035 1.583 -8.574 -14.33 -10.51 1.539 2.814 -19.52 -19.7 -16.97 -8.793 0.7914 -24.71 -17.41
5.32 0.7914 -1.847 -0.5716 0.9673 -5.496 -12.13 -6.859 3.957 3.078 -10.02 -16.97 -14.68 -2.726 3.254 -20.75 -12.22
5.325 1.583 -0.6155 -2.242 -2.11 -2.11 -7.826 -3.649 2.726 1.363 2.462 -10.11 -11.43 0.9673 3.341 -14.86 -7.562
5.33 0.2638 -0.6595 -3.737 -5.54 -0.1319 -3.254 -1.407 -0.1319 -1.011 10.2 -1.847 -8.266 1.583 0.6155 -8.53 -4.748
5.335 -1.935 -1.231 -3.166 -6.683 -0.2638 0.3517 0.1319 -1.935 -1.935 9.233 4.66 -5.276 0.2638 -3.078 -1.935 -3.254
5.34 -3.957 -1.143 -0.2638 -4.441 -2.242 2.594 1.407 -1.099 -0.1759 2.726 8.002 -2.022 -0.8793 -4.573 5.012 -1.935
5.345 -5.188 -0.04397 3.298 -0.4836 -4.66 3.429 2.55 1.759 3.254 -2.814 8.266 1.407 -0.6155 -1.847 11.61 0.3517
5.35 -5.716 1.451 5.056 2.154 -6.287 3.385 3.517 4.792 5.76 -3.341 6.771 4.748 0.7914 3.517 16.09 3.429
5.355 -6.155 2.374 4.001 1.451 -6.639 2.55 4.353 5.848 5.232 -0.08793 4.924 7.123 1.847 7.562 16.44 5.804
5.36 -6.683 2.11 0.9673 -1.803 -6.067 1.055 5.1 4.089 1.935 2.462 2.99 7.211 1.671 6.419 12.49 6.243
5.365 -7.123 0.6595 -2.242 -5.276 -5.584 -0.9673 5.584 0.5276 -1.847 1.759 0.6155 4.573 0.5276 0.2638 6.155 4.573
5.37 -6.947 -1.407 -4.353 -6.419 -5.76 -3.122 5.056 -3.21 -3.561 -0.9673 -2.374 0.6155 -0.5276 -6.859 0.3517 2.55
5.375 -5.979 -3.561 -5.452 -5.056 -6.375 -4.792 2.638 -6.155 -2.374 -2.638 -5.012 -2.374 -0.6155 -9.849 -2.726 1.407
5.38 -4.309 -4.968 -6.067 -2.814 -6.331 -5.188 -1.671 -8.002 0.3078 -2.022 -5.892 -3.341 0.1759 -6.859 -3.078 1.407
5.385 -2.374 -4.88 -6.375 -1.407 -4.88 -3.913 -6.551 -8.574 2.55 -0.7914 -4.397 -2.022 0.5276 -0.5276 -2.462 1.055
5.39 -0.4397 -3.122 -5.54 -0.7914 -2.066 -1.539 -9.453 -7.606 3.385 -0.8793 -1.671 0.5276 -0.1759 3.605 -3.166 -0.7035
5.395 1.319 -0.04397 -2.33 0.5276 1.627 1.363 -8.266 -4.397 3.429 -1.935 0.8793 2.462 -1.407 2.726 -5.892 -3.693
5.4 2.814 3.693 3.341 3.693 5.056 3.869 -2.638 1.099 3.869 -1.759 1.583 2.022 -1.847 -1.407 -9.585 -6.331
5.405 3.781 7.211 9.936 8.134 7.342 5.54 5.408 7.782 5.144 0.7914 0.08793 -0.7914 -0.5276 -4.045 -12.57 -6.771
5.41 4.573 9.629 14.82 11.61 8.002 6.331 12.4 13.41 6.023 3.957 -2.99 -4.045 2.55 -1.847 -13.54 -4.309
5.415 4.836 10.77 15.87 11.65 6.683 6.375 15.21 15.48 5.408 4.485 -6.067 -5.628 5.716 3.869 -12.05 -0.7035
5.42 4.133 10.16 12.57 7.782 3.781 5.584 12.88 12.71 3.078 1.407 -7.211 -4.836 6.859 8.09 -8.09 1.847
5.425 1.583 6.903 6.243 1.935 0.08793 3.517 6.419 5.892 0.5716 -2.374 -5.276 -2.462 5.188 7.035 -1.935 1.935
5.43 -3.166 0.6155 -0.5716 -2.902 -3.034 0.2198 -1.187 -2.198 -0.4836 -2.286 0.08793 0 2.198 1.231 5.979 1.231
5.435 -8.705 -7.738 -5.672 -4.617 -4.573 -3.166 -6.903 -8.046 0.7035 3.341 8.002 2.11 0.3517 -4.309 14.6 2.11
5.44 -12.84 -14.95 -7.606 -3.341 -3.649 -5.188 -8.486 -9.233 2.99 11.7 16.36 3.869 1.847 -5.188 22.07 6.067
5.445 -13.37 -17.72 -6.595 -0.7474 -1.011 -4.529 -5.716 -5.584 4.573 17.5 22.25 6.067 6.331 -0.4397 26.64 12.31
5.45 -9.936 -14.6 -3.737 0.9673 1.891 -1.451 -0.3078 0.2638 4.353 17.5 23.39 8.969 11.17 6.067 27 18.11
5.455 -4.66 -7.474 -1.099 0.8354 3.517 2.33 4.704 4.66 2.374 12.93 18.99 11.43 13.1 9.673 23.21 20.58
5.46 -0.3517 -0.5716 0.04397 -0.9233 3.254 4.792 6.727 4.485 -0.2198 7.211 10.9 10.82 10.2 8.09 15.83 18.11
5.465 1.583 2.902 -0.7474 -2.858 1.671 4.704 4.529 -0.2638 -2.726 2.902 1.847 5.979 2.902 2.814 6.155 11.08
5.47 1.847 2.638 -2.418 -3.737 0.1319 2.506 -1.055 -7.342 -5.188 -0.08793 -5.452 -1.495 -5.979 -3.166 -4.397 1.759
