    T[sec] F7  F3  F4  F8  T3  C3  Cz  C4  T4  T5  P3  Pz  P4  T6  O1  O2 
41 46.02 46.02 46.02 46.02 46.02 46.02 46.02 46.02 45.02 46.02 45.02 45.02 45.02 46.02 46.02 46.02
0 7.91 14.16 -2.697 2.697 9.348 18.29 7.82 3.775 -1.627 9.438 12.66 11.96 -5.1 -3.236 10.52 -5.034
0.005 4.584 7.416 -3.955 3.416 7.281 12.9 3.281 2.112 0 7.551 10.29 7.298 -3.605 0.1798 5.933 -4.135
0.01 1.528 0.9438 -5.573 0.7191 5.258 7.416 -0.04494 -0.1348 0.6595 4.225 7.123 1.231 -3.781 0.1798 -2.607 -5.663
0.015 0.3596 -1.978 -6.112 -2.382 4.315 3.91 -1.258 -2.562 0.5276 1.079 4.133 -3.078 -5.54 -3.146 -9.888 -8.09
0.02 0.9888 -0.8989 -4.989 -2.607 4.404 2.652 -0.4045 -3.73 1.099 -0.2697 2.638 -3.341 -6.243 -5.663 -11.33 -8.09
0.025 2.337 2.517 -2.562 1.124 5.124 3.011 2.517 -1.978 3.869 0.7191 3.605 1.495 -2.638 -3.596 -5.393 -2.787
0.03 3.775 5.978 0.4045 6.966 5.888 4.584 8.045 3.326 8.925 3.326 6.683 10.38 6.155 3.326 4.315 6.562
0.035 5.124 8.09 3.775 11.69 5.798 6.921 16.22 11.28 14.11 5.034 9.936 19.7 17.23 11.87 11.42 15.19
0.04 6.382 8.764 7.865 13.12 3.82 8.629 25.03 19.64 16.88 2.876 10.55 25.32 25.76 17.53 10.43 18.07
0.045 7.461 8.764 12.99 12 -0.1348 8 31.01 26.16 16.8 -3.775 6.771 24.45 28.67 17.35 1.978 14.2
0.05 7.73 8.809 18.11 10.34 -4.809 4 30.02 28.72 15.74 -12.49 -1.407 16.8 26.2 12.13 -8.449 6.831
0.055 6.742 8.135 20.81 9.169 -8.989 -3.865 19.01 25.48 14.99 -19.69 -12.49 3.869 19.87 5.843 -15.64 0
0.06 3.955 4.899 18.29 7.461 -12.49 -15.6 -1.663 15.82 13.54 -22.92 -24.36 -11.52 10.9 2.247 -18.07 -4.045
0.065 -0.3596 -2.112 10.16 3.865 -15.87 -28.99 -26.43 1.798 9.849 -22.2 -34.56 -25.59 1.055 1.888 -17.89 -5.753
0.07 -5.393 -11.87 -0.4494 -0.7191 -19.28 -39.64 -45.53 -11.82 3.913 -19.6 -40.63 -34.29 -7.211 2.607 -17.89 -6.292
0.075 -9.618 -21.03 -8.629 -3.64 -22.29 -43.87 -50.92 -20 -2.374 -17.53 -41.24 -35.44 -11.87 2.337 -18.88 -6.202
0.08 -12.04 -26.65 -11.42 -2.876 -24.4 -40.99 -41.93 -20.63 -6.991 -17.26 -36.93 -30.86 -12.57 0.4494 -19.78 -5.124
0.085 -12.76 -27.82 -9.798 0.1798 -24.85 -33.66 -25.35 -16.27 -8.881 -17.89 -29.72 -24.36 -11.17 -2.787 -18.61 -3.236
0.09 -12.67 -25.8 -7.146 1.663 -22.88 -25.35 -10.7 -11.96 -8.881 -17.08 -21.98 -19.87 -10.46 -6.562 -15.1 -1.888
0.095 -12.58 -23.01 -6.157 -1.708 -18.7 -18.79 -4.539 -11.64 -8.925 -13.75 -15.65 -19.26 -12.4 -9.618 -10.88 -2.697
0.1 -13.12 -21.35 -7.146 -9.798 -13.93 -15.1 -6.966 -15.19 -10.51 -8.539 -11.17 -21.63 -16.53 -10.61 -8.27 -5.933
0.105 -14.11 -20.85 -8.404 -18.16 -10.29 -13.21 -12.49 -18.83 -12.44 -3.775 -7.738 -23.74 -19.79 -9.798 -7.73 -9.438
0.11 -14.74 -19.96 -8.27 -21.66 -8.315 -10.97 -14.7 -18.83 -12.57 -0.9888 -4.309 -22.69 -19.17 -8.629 -7.64 -11.06
0.115 -14.02 -17.39 -7.371 -18.79 -7.73 -7.101 -11.15 -15.06 -10.73 -1.079 -0.9673 -18.47 -15.12 -8.449 -7.101 -10.43
0.12 -12.31 -13.75 -8.135 -13.03 -8.315 -2.517 -4.404 -11.06 -9.233 -3.416 1.583 -13.19 -10.99 -9.169 -6.112 -8.809
0.125 -10.97 -10.97 -12.09 -9.978 -9.438 1.753 1.888 -9.978 -9.936 -5.843 3.957 -8.354 -8.969 -9.798 -4.315 -6.652
0.13 -10.88 -9.798 -17.08 -11.87 -9.798 6.157 7.236 -11.15 -11.48 -5.573 7.386 -2.814 -7.562 -8.809 -0.2697 -2.517
0.135 -11.24 -8.989 -18.52 -15.87 -8.494 11.37 13.48 -10.56 -10.64 -1.618 12.93 4.924 -3.869 -4.494 6.921 5.303
0.14 -10.79 -6.966 -13.26 -16.99 -5.843 16.63 21.71 -4.854 -5.496 4.494 19.43 14.6 3.341 2.966 15.46 16.09
0.145 -8.899 -3.191 -2.427 -12.27 -2.966 19.96 30.43 5.483 2.77 9.528 24.01 23.13 12.13 10.43 21.57 25.98
0.15 -6.112 0.9888 9.303 -3.146 -0.6742 20 36.27 16.13 10.46 10.97 23.83 27.08 18.73 14.02 22.02 30.11
0.155 -3.596 3.506 16.85 5.843 0.4944 16.76 36.54 22.16 13.72 8.18 18.73 24.89 20.49 12.85 16 26.88
0.16 -2.787 2.697 17.57 10.74 0.4045 11.37 31.19 21.71 11.39 2.787 11.43 18.03 17.85 9.258 6.921 19.15
0.165 -3.775 -0.7191 12.94 11.06 -0.4494 6.247 23.51 17.44 6.419 -1.708 6.067 11.08 14.6 6.292 0.809 12.49
0.17 -5.124 -4.135 7.011 9.438 -0.764 3.64 17.62 13.75 3.21 -2.787 4.924 7.65 13.81 5.303 1.438 10.7
0.175 -5.393 -4.989 3.011 8.494 0.04494 3.775 14.74 12.49 3.078 -0.3596 6.683 7.562 14.6 5.933 7.551 12.31
0.18 -4.674 -3.596 1.213 8.18 1.303 4.18 12.04 11.87 3.473 2.787 7.65 7.123 13.28 6.472 13.75 13.12
0.185 -4.404 -2.202 0 6.966 1.843 2.247 5.843 8.764 1.583 4.225 4.924 2.374 7.738 5.483 15.01 9.798
0.19 -5.213 -2.382 -1.798 4.539 1.528 -2.472 -4.584 2.517 -2.462 3.236 -1.231 -7.035 -0.2638 2.607 10.25 2.607
0.195 -6.292 -3.865 -3.506 2.472 0.6292 -8.584 -16.36 -4.764 -6.507 0.5393 -8.793 -18.73 -7.562 -0.8989 1.169 -6.202
0.2 -6.292 -4.944 -3.865 2.876 -0.5393 -14.61 -25.3 -10.11 -8.574 -2.876 -15.74 -29.72 -12.4 -3.865 -9.618 -14.74
0.205 -4.045 -4 -2.247 6.202 -1.618 -19.37 -28.9 -11.69 -8.354 -6.562 -21.19 -37.72 -15.3 -6.562 -19.96 -22.38
0.21 0.08989 -0.6742 0.764 10.52 -1.843 -21.84 -27.42 -10.47 -7.43 -9.708 -25.41 -41.68 -18.29 -9.888 -27.42 -28.58
0.215 4.225 3.461 3.281 12.36 -0.8989 -22.07 -24.09 -9.618 -7.958 -11.51 -28.4 -42.3 -22.77 -13.39 -30.38 -32.27
0.22 5.933 5.888 3.326 9.708 0.2697 -21.44 -22.65 -11.46 -10.86 -11.6 -29.81 -40.89 -28.23 -15.55 -28.76 -32
0.225 4.494 5.079 0.5393 3.955 0.764 -20.99 -24.4 -15.64 -14.47 -9.618 -28.67 -38.43 -31.57 -15.73 -24.36 -27.96
0.23 1.079 1.663 -3.236 -1.303 0.1798 -20.58 -27.01 -19.46 -16.05 -6.472 -25.06 -35 -30.43 -15.01 -20.31 -22.47
0.235 -3.056 -2.876 -6.112 -3.461 -1.573 -19.69 -26.79 -20.58 -14.6 -4.225 -20.58 -31.13 -25.24 -14.02 -19.24 -18.7
0.24 -7.011 -7.191 -6.966 -2.112 -4.404 -18.2 -22.16 -18.2 -11.39 -4.584 -16.88 -27.17 -18.47 -12.58 -21.48 -17.53
0.245 -9.798 -9.933 -5.798 1.124 -7.011 -15.96 -14.29 -13.03 -7.65 -7.101 -14.07 -22.34 -11.78 -9.978 -23.91 -16.81
0.25 -10.7 -10.07 -3.461 4.404 -7.64 -12.09 -5.393 -6.831 -3.517 -8.899 -10.2 -14.95 -5.452 -6.202 -21.57 -13.21
0.255 -9.708 -7.371 -0.809 5.978 -5.753 -6.202 2.427 -1.438 0.8354 -7.461 -3.869 -4.573 0.08793 -1.888 -12.49 -5.843
0.26 -7.011 -2.831 1.393 4.944 -2.517 0.5843 8.225 2.157 4.66 -3.146 4.485 7.123 4.397 2.067 -0.3596 2.427
0.265 -3.775 1.843 3.236 2.022 0.4494 7.191 12.4 4.539 7.298 1.708 12.93 17.76 7.65 4.315 9.079 8.09
0.27 -1.438 5.034 4.899 -1.303 2.562 13.03 16.58 6.742 8.749 4.674 19.08 25.94 10.73 4.764 13.21 10.43
0.275 -1.079 5.663 6.247 -3.326 4 17.71 21.71 9.438 9.541 5.034 22.25 31.83 14.25 5.124 13.66 11.78
0.28 -2.247 4.135 6.787 -2.472 5.079 20.72 26.74 12.45 10.2 3.955 23.65 36.23 18.38 7.64 13.93 15.1
0.285 -3.236 2.247 6.337 1.213 6.247 22.25 29.93 15.24 11.21 3.685 25.59 40.27 22.6 11.51 16.63 20.4
0.29 -2.787 1.753 4.989 5.213 7.73 23.46 30.47 16.58 12.22 5.393 28.67 43.79 25.32 13.93 21.12 24.81
0.295 -1.079 3.011 2.966 5.888 9.079 24.9 28.4 15.33 12 8.27 30.86 44.41 24.71 12.85 23.82 24.36
0.3 0.7191 5.034 0.8539 1.708 9.528 25.62 23.6 11.6 9.805 9.798 29.02 39.48 20.22 9.258 20.85 18.07
0.305 1.618 6.382 -0.6742 -4.629 8.944 23.87 16.63 7.011 6.727 8.629 21.98 28.75 14.33 5.843 12.58 9.169
0.31 1.708 6.607 -0.8989 -7.865 8.09 19.19 9.528 3.955 5.452 5.753 11.34 15.83 10.29 4.764 3.146 2.697
0.315 1.798 6.337 0.7191 -4.225 7.461 12.45 4.584 3.955 7.123 2.876 0.7914 5.452 9.673 6.652 -2.607 0.8989
0.32 3.146 6.382 3.91 5.213 6.787 5.034 2.831 6.742 10.11 0.9888 -6.859 0.1759 11.34 9.798 -4.045 2.067
0.325 5.663 6.787 7.416 14.92 5.393 -1.708 3.011 10.25 11.34 -0.809 -11.34 -0.9673 12.31 10.7 -3.775 2.067
0.33 8.09 6.876 9.708 18.92 3.191 -7.101 2.607 11.55 8.837 -3.506 -15.04 -2.022 10.02 6.562 -5.483 -1.708
0.335 9.438 5.753 9.708 15.42 0.5843 -11.78 -1.303 8.494 2.946 -7.64 -20.05 -6.595 3.341 -1.708 -11.15 -9.079
0.34 8.989 2.966 7.236 7.82 -2.247 -16.94 -9.978 1.124 -4.133 -12.4 -26.47 -15.48 -6.243 -10.16 -19.51 -16.63
0.345 7.101 -0.9438 3.056 1.573 -5.213 -22.38 -20.72 -7.91 -9.189 -15.64 -31.3 -24.71 -14.86 -14.56 -25.8 -20.31
0.35 5.213 -4.09 -0.809 0.4045 -7.146 -25.08 -27.73 -14.2 -9.761 -15.01 -30.43 -27.87 -18.2 -12.94 -25.17 -17.53
0.355 4.584 -4.584 -2.382 3.326 -6.787 -21.93 -26.16 -14.38 -6.243 -9.708 -21.98 -21.81 -14.42 -6.382 -16.54 -9.258
0.36 5.393 -2.517 -1.303 5.753 -4.27 -13.3 -16.09 -8.629 -1.495 -1.528 -8.09 -9.233 -6.243 1.888 -3.685 0.8989
0.365 6.202 0.1798 1.438 3.91 -0.764 -3.146 -2.382 -0.1798 1.583 6.382 5.716 2.814 1.847 8 7.91 9.618
0.37 6.742 2.067 5.079 -0.9888 2.787 4.27 8.404 7.236 2.638 11.87 14.07 8.442 6.947 9.618 14.38 14.56
0.375 7.101 2.921 8.719 -4.449 5.663 6.966 12.22 11.37 2.418 14.11 15.12 6.683 8.09 7.64 15.1 15.64
0.38 6.652 2.292 10.61 -3.64 6.562 5.618 9.213 11.19 1.583 14.11 10.82 0.8793 6.155 5.393 13.12 14.47
0.385 4.404 0.3146 9.079 0.3146 4.899 2.921 3.236 7.596 0.6595 13.03 5.188 -3.341 3.605 5.034 11.78 12.94
0.39 1.708 -1.618 4.494 4.404 2.292 1.933 -1.483 3.236 0.1759 11.78 1.407 -2.814 2.55 6.022 11.6 11.24
0.395 0.2697 -2.202 -1.348 5.169 0.4494 3.416 -3.281 -0.04494 -0.3078 10.25 0.7035 1.319 2.726 6.202 10.52 7.73
0.4 -0.1798 -2.112 -6.966 0.1348 -0.6292 5.213 -2.966 -3.011 -1.803 7.64 1.495 5.1 1.407 3.685 7.011 1.798
0.405 -0.6292 -2.292 -10.7 -9.213 -1.753 5.213 -2.157 -5.933 -3.737 4.225 1.759 5.804 -1.759 -0.4494 2.247 -4.135
0.41 0 -1.483 -10.29 -16.76 -1.843 4.539 -1.258 -6.966 -4.397 1.348 1.407 5.188 -3.781 -3.596 -0.8989 -7.191
0.415 2.517 1.573 -5.888 -17.57 0.08989 6.157 0.6292 -4.989 -2.902 1.438 2.462 6.771 -2.726 -3.236 0.3596 -5.483
0.42 4.494 5.483 -0.8989 -12.58 3.056 10.65 4.36 -1.708 -0.6595 5.213 6.155 11.78 0.08793 0.4494 6.831 0.5393
0.425 4.315 7.73 1.393 -5.978 5.438 15.91 8.809 0.6292 0.8793 10.97 11.52 18.03 2.99 5.034 15.46 8
0.43 4.045 8.449 1.034 -0.3146 7.416 19.69 11.28 1.888 1.671 15.64 16.44 22.69 5.452 7.461 20.85 12.67
0.435 5.303 8.629 -0.4045 2.742 9.348 20.94 9.618 2.202 1.671 17.35 19.87 23.74 6.859 6.742 20.58 12.49
0.44 6.382 8.045 -2.831 1.708 10.38 19.82 4.404 0.7191 0.9233 16.09 21.02 21.28 6.331 4.225 17.17 9.618
0.445 6.292 7.461 -5.303 -1.933 10.29 17.8 -1.708 -1.393 0.3957 13.3 20.31 17.41 4.836 2.337 14.38 7.461
0.45 7.191 9.753 -5.438 -3.146 10.79 16.99 -5.978 -1.438 1.363 10.7 18.47 14.51 4.045 2.337 13.21 6.831
0.455 10.25 15.55 -2.607 0.6742 12.27 17.44 -7.101 0.9438 3.254 9.348 16.27 12.57 2.638 2.787 12.58 5.663
0.46 12.85 21.21 1.303 6.742 12.76 16.49 -5.753 3.371 4.397 8.629 12.75 9.497 -1.055 2.067 11.42 2.607
0.465 14.02 23.91 5.348 11.96 11.28 12.4 -4.09 4.854 4.704 6.921 7.298 4.133 -5.1 0.08989 8.539 -2.247
0.47 16.09 24.67 10.2 16.09 9.798 7.236 -3.91 7.416 5.188 3.865 1.583 -1.231 -5.188 -1.708 3.416 -7.461
0.475 18.61 24.4 14.52 18.02 9.573 4.27 -4.629 10.97 5.892 0.809 -1.495 -3.781 -0.6155 -2.427 -1.079 -10.61
0.48 17.35 21.71 15.01 15.06 8.944 4.18 -4 12.54 5.892 -0.8989 -1.407 -2.814 4.748 -2.067 -1.079 -8.989
0.485 11.78 16.36 11.28 8.18 6.427 4.944 -1.303 10.97 5.232 -1.528 -0.2638 -0.08793 8.178 -0.5393 2.787 -3.326
0.49 5.753 10.47 6.247 2.112 2.472 3.91 1.528 7.64 4.265 -2.607 -0.9673 1.319 8.705 1.169 5.933 2.337
0.495 1.169 4.494 1.483 -1.258 -2.876 -0.9438 1.528 2.921 2.55 -5.303 -4.836 -0.7035 5.628 2.067 4.854 4.404
0.5 -3.775 -3.101 -3.551 -4.404 -10.11 -9.978 -2.607 -3.371 -0.2638 -9.618 -11.34 -6.595 -0.3517 1.169 0.1798 2.966
0.505 -8.539 -11.19 -8.36 -8.09 -17.12 -19.87 -9.933 -8.899 -3.254 -14.56 -18.29 -13.45 -5.54 -0.6292 -6.292 0
0.51 -10.43 -15.96 -10.83 -10.38 -20.45 -25.66 -17.35 -10.34 -5.144 -18.25 -21.9 -17.59 -6.771 -2.517 -12.58 -2.787
0.515 -9.888 -16.4 -11.01 -11.33 -19.24 -25.03 -20.99 -8.584 -6.419 -18.7 -20.4 -17.32 -6.155 -4.315 -15.28 -3.955
0.52 -9.618 -14.83 -10.38 -12.58 -15.6 -19.87 -18.79 -7.371 -7.914 -15.91 -15.48 -14.51 -7.035 -6.112 -13.03 -3.056
0.525 -8.719 -12.18 -8.719 -12.99 -10.92 -13.62 -12.58 -7.865 -9.629 -11.78 -10.2 -11.52 -9.849 -7.73 -9.169 -2.157
0.53 -4.764 -7.73 -5.169 -10.34 -5.483 -8.449 -6.562 -8.764 -11.21 -8.809 -6.507 -9.936 -13.01 -9.528 -8.899 -4.494
0.535 -0.08989 -2.966 -1.438 -6.022 -0.9888 -5.573 -3.146 -9.663 -12.53 -8 -4.66 -10.02 -15.92 -11.78 -13.3 -10.52
0.54 0.9888 -1.079 0.2247 -2.966 0.2697 -5.393 -1.663 -9.978 -12.4 -9.169 -4.748 -11.7 -17.06 -13.48 -19.6 -16.81
0.545 -1.798 -2.697 1.258 -0.1798 -1.213 -7.326 0 -7.461 -8.837 -11.51 -6.683 -14.33 -13.45 -12.04 -25.53 -19.87
0.55 -5.483 -6.607 3.82 5.124 -3.73 -10.43 2.787 -1.079 -1.715 -13.66 -9.761 -17.67 -4.924 -6.202 -30.38 -19.51
0.555 -9.438 -12.9 6.966 11.87 -6.562 -14.7 5.978 5.438 5.979 -14.56 -13.01 -21.81 4.045 1.528 -33.26 -17.44
0.56 -14.29 -21.21 7.91 15.64 -9.888 -19.82 7.685 7.775 10.73 -14.2 -15.83 -26.29 8.793 7.101 -33.71 -15.82
0.565 -17.71 -27.69 5.978 14.43 -12.45 -23.33 6.427 5.573 11.17 -13.57 -17.41 -28.84 8.354 7.91 -32.18 -16.27
0.57 -17.53 -27.96 2.292 8.764 -12.81 -22.2 2.742 1.843 8.09 -13.03 -16.36 -26.64 4.924 4.584 -28.67 -17.98
0.575 -14.38 -21.71 -1.888 0.04494 -10.88 -15.42 -0.4494 -1.124 3.957 -12.04 -11.78 -18.47 1.495 0.2697 -21.03 -17.08
0.58 -9.978 -11.78 -5.258 -8.674 -6.831 -4.315 -0.2247 -2.157 1.627 -8.989 -4.133 -5.54 1.319 -1.798 -8 -10.43
0.585 -3.506 -0.764 -6.067 -13.26 -0.08989 8.539 3.326 -0.9888 2.154 -3.056 5.716 9.585 5.364 -0.809 7.461 0.4494
0.59 4.674 8.989 -4.899 -12.58 8.719 20.13 7.371 0.2247 3.21 4.944 16.36 23.57 9.849 0.7191 20.85 10.34
0.595 11.42 15.1 -4.584 -10.52 16.67 27.51 8.674 -1.663 1.363 13.03 25.41 32.98 9.409 -0.6292 29.39 15.1
0.6 14.02 16.94 -6.562 -10.88 20.94 29.44 6.607 -7.011 -3.693 18.43 30.25 36.32 2.638 -5.663 32.54 14.74
0.605 13.66 16.45 -8.899 -13.08 21.12 26.7 2.831 -12.09 -9.409 19.24 29.28 33.85 -6.331 -11.42 30.83 11.6
0.61 12.13 15.1 -9.079 -14.61 18.38 20.22 -0.6292 -13.66 -12.84 15.73 23.13 26.91 -12.93 -13.93 25.26 8.449
0.615 9.798 12.31 -7.056 -14.02 13.89 10.79 -3.146 -12 -13.1 10.43 14.07 17.32 -15.21 -12.49 18.25 6.472
0.62 6.562 7.775 -4.404 -11.73 8.989 0.3596 -5.213 -9.124 -10.82 6.562 5.188 8.178 -13.81 -9.348 12.4 5.034
0.625 3.146 2.607 -2.472 -8.404 5.034 -7.91 -7.73 -6.787 -7.518 6.292 -0.6155 2.198 -10.73 -7.011 9.438 2.966
0.63 -0.1798 -1.798 -1.798 -4.989 2.067 -11.96 -10.43 -5.393 -4.573 9.348 -2.638 0.4397 -8.09 -5.753 9.708 0.4494
0.635 -3.685 -5.213 -2.022 -1.618 -0.4045 -11.42 -11.73 -4.449 -2.11 13.57 -1.319 1.231 -6.419 -4.225 12.13 -0.5393
0.64 -6.472 -7.64 -1.663 2.562 -2.157 -7.685 -9.933 -2.787 0.7914 16.54 1.759 2.286 -4.66 -1.708 14.65 1.169
0.645 -7.191 -8.899 0.08989 7.685 -2.202 -2.742 -5.303 -0.6742 4.001 16.9 5.276 1.671 -2.55 0.9888 15.01 4.225
0.65 -6.022 -8.944 2.517 11.6 -0.7191 1.034 -0.6292 0 5.804 14.83 7.562 -0.6155 -1.935 1.978 12.67 5.573
0.655 -4.135 -7.596 4.18 11.87 1.213 2.921 1.528 -1.528 4.88 11.6 8.002 -2.638 -3.781 0.1798 9.708 3.955
0.66 -2.067 -3.91 5.303 8.809 3.011 4.27 1.483 -3.371 2.55 9.079 6.947 -1.231 -6.067 -2.876 8.629 1.169
0.665 0.1798 2.292 7.416 5.663 4.764 7.011 1.933 -2.067 1.407 8.09 5.979 4.309 -6.155 -4.225 9.978 0.1798
0.67 2.876 9.573 11.24 5.438 6.652 11.01 4.854 3.64 2.902 7.91 6.155 11.7 -2.726 -1.708 11.51 2.427
0.675 5.573 15.42 15.6 8.584 8.629 14.61 9.393 11.46 6.067 7.101 7.738 16.8 2.55 3.236 10.52 6.382
0.68 7.91 18.07 17.89 12.36 10.52 16.31 12.63 16.81 8.837 5.483 10.2 17.85 6.859 6.562 7.371 9.708
0.685 8.989 17.08 16 12.94 11.78 15.82 12.09 15.91 9.409 3.865 12.22 16.18 7.914 6.112 4.764 10.79
0.69 8.449 13.17 10.11 8.719 11.37 13.39 7.64 9.034 7.298 3.146 12.57 14.42 5.892 3.236 5.124 10.7
0.695 6.382 7.775 3.056 1.933 8.944 9.978 2.022 0.8539 4.265 3.506 11.43 15.12 3.693 1.348 8.36 11.33
0.7 3.775 2.427 -1.708 -3.506 5.753 7.146 -0.8539 -3.146 2.638 4.674 10.2 18.73 4.221 2.157 11.87 14.02
0.705 1.079 -1.573 -2.697 -5.933 3.326 6.067 0.764 -1.079 3.166 5.303 9.849 23.3 7.65 4.944 13.12 17.89
0.71 -1.169 -3.775 -0.764 -6.292 2.202 6.382 4.944 4.809 4.485 4.135 9.673 25.85 11.52 8 10.97 20.22
0.715 -2.427 -4.045 1.573 -6.517 1.978 6.831 7.73 10.29 4.792 1.169 8.354 24.27 13.45 9.708 6.562 19.42
0.72 -2.876 -3.281 2.337 -7.64 1.573 6.382 6.966 12.13 3.781 -2.157 4.748 18.64 12.66 9.348 2.787 15.64
0.725 -3.056 -3.191 0.809 -9.124 -0.04494 3.865 3.326 9.573 2.198 -4.584 -1.055 9.936 9.409 7.461 0.5393 9.798
0.73 -3.775 -5.213 -2.472 -9.708 -3.955 -1.663 -1.573 4.18 0.3078 -6.472 -8.617 -0.7914 4.221 4.674 -2.157 2.247
0.735 -5.393 -9.258 -6.517 -9.034 -9.933 -9.978 -6.472 -1.663 -1.803 -9.258 -16.62 -12.13 -2.022 0.6292 -7.551 -6.382
0.74 -7.73 -13.44 -10.25 -8.18 -16.22 -18.38 -10.29 -6.337 -4.089 -13.3 -23.3 -21.72 -8.09 -4.764 -14.29 -14.65
0.745 -9.978 -15.28 -12.49 -8.27 -20.76 -23.33 -11.96 -9.303 -5.76 -17.35 -27.17 -26.73 -12.31 -9.978 -18.25 -19.69
0.75 -10.79 -13.57 -12.58 -8.989 -22.16 -23.01 -11.1 -10.56 -6.507 -19.42 -26.82 -26.38 -13.45 -11.51 -16.54 -19.51
0.755 -9.798 -9.348 -10.79 -8.854 -20.4 -18.25 -8.135 -10.47 -6.375 -18.25 -22.07 -22.16 -11.61 -7.82 -9.978 -14.65
0.76 -7.91 -5.438 -8.719 -7.236 -16.58 -11.51 -4.36 -10.25 -6.111 -13.66 -13.89 -17.23 -8.617 -1.348 -2.157 -8.36
0.765 -6.742 -4.135 -8.36 -5.079 -12.36 -5.978 -2.067 -11.37 -6.771 -7.73 -5.452 -14.95 -7.474 3.685 2.697 -4.584
0.77 -6.921 -5.663 -10.25 -3.865 -9.348 -3.955 -3.73 -14.43 -9.013 -3.506 -0.7035 -17.06 -9.585 4.584 1.798 -5.933
0.775 -7.91 -8.494 -12.81 -4.18 -8.449 -5.978 -9.303 -18.02 -11.65 -2.607 -1.671 -22.34 -13.54 1.798 -3.865 -10.97
0.78 -8.36 -10.25 -12.9 -4.719 -8.764 -10.02 -15.1 -18.83 -11.87 -4.494 -6.771 -27 -14.95 -1.798 -10.52 -15.73
0.785 -7.371 -9.483 -7.865 -3.551 -8.899 -13.08 -15.91 -13.93 -7.386 -6.921 -12.05 -27.61 -10.64 -2.876 -14.74 -16.72
0.79 -4.854 -6.472 1.888 0.1798 -8.135 -13.21 -9.169 -3.146 0.5276 -8.539 -13.89 -23.3 -1.055 -0.08989 -15.91 -13.57
0.795 -2.247 -2.787 12.67 4.989 -6.742 -10.2 3.191 9.888 8.486 -9.169 -11.34 -15.65 10.02 4.674 -15.1 -7.91
0.8 -0.7191 0.08989 19.64 8.539 -5.079 -4.584 16.31 20.18 13.19 -9.169 -6.419 -7.474 18.55 8.09 -13.21 -2.247
0.805 -0.3596 1.933 20.13 9.663 -3.146 2.202 25.08 23.82 13.67 -8.629 -1.847 -1.231 21.98 8.899 -10.88 1.708
0.81 -0.5393 2.562 14.88 9.034 -1.258 8 26.34 20.31 10.82 -7.551 0.4397 1.231 20.14 8.36 -8.719 3.146
0.815 -0.8989 1.663 6.831 8.18 0 10.34 20.45 12.36 6.683 -5.843 0.4397 -0.08793 15.3 8.539 -7.371 2.517
0.82 -1.528 -0.809 -0.3596 7.64 0.5843 8.539 11.06 4.494 3.341 -3.326 -0.5276 -4.045 10.38 9.258 -6.742 1.079
0.825 -2.607 -4.449 -4.315 6.652 0.764 4.045 3.011 -0.04494 1.407 -0.809 -1.759 -8.705 6.771 8.719 -6.742 0.08989
0.83 -4.225 -8.09 -4.944 3.64 0.3146 -0.9888 -0.6742 -1.124 -0.2638 -0.1798 -4.045 -13.01 3.957 5.393 -8 -0.1798
0.835 -5.663 -10.65 -3.73 -1.618 -1.034 -5.258 0 -0.764 -2.726 -2.607 -8.354 -16.97 0.6155 -0.1798 -11.42 -0.6292
0.84 -6.202 -11.19 -2.292 -6.831 -2.966 -8.27 3.191 -0.9888 -5.408 -7.371 -14.25 -20.49 -3.605 -6.112 -17.08 -2.247
0.845 -5.303 -9.483 -1.528 -8.584 -4.854 -10.52 5.933 -2.876 -7.079 -12.4 -19.87 -23.3 -8.354 -9.169 -23.73 -5.843
0.85 -3.596 -6.876 -2.022 -5.303 -6.607 -13.17 5.663 -6.157 -7.43 -15.28 -23.3 -25.41 -12.75 -7.461 -28.58 -10.25
0.855 -2.876 -5.034 -4.045 0.9888 -8.315 -16.81 1.753 -9.888 -7.123 -14.74 -23.48 -26.12 -16 -2.067 -28.22 -12.85
0.86 -3.506 -4.584 -7.011 6.472 -9.438 -19.6 -3.73 -12.49 -6.727 -11.06 -20.58 -24.62 -16.71 3.416 -20.94 -11.33
0.865 -4.584 -4.629 -9.708 7.73 -9.034 -18.88 -7.73 -13.17 -6.463 -5.753 -15.56 -20.75 -14.6 6.022 -8.629 -6.472
0.87 -4.494 -4.225 -11.33 3.82 -7.326 -13.98 -9.079 -12.4 -6.639 -1.169 -10.11 -16 -11.34 5.393 2.787 -2.157
0.875 -2.966 -3.101 -11.78 -2.876 -5.438 -7.146 -8.854 -11.1 -6.991 0.8989 -5.452 -12.4 -8.266 3.596 8.18 -2.067
0.88 -0.4494 -1.528 -10.92 -8.36 -4.225 -1.753 -8.809 -9.258 -6.375 0.7191 -2.198 -10.29 -5.54 2.427 6.382 -6.472
0.885 2.067 0.1348 -8.674 -9.393 -3.685 0.1348 -9.483 -6.517 -3.825 -0.2697 -0.3517 -8.53 -2.55 2.697 0.7191 -11.69
0.89 3.775 1.483 -5.528 -6.067 -3.416 -1.393 -10.29 -2.921 0 -0.6292 0.5276 -5.188 0.7035 3.775 -3.775 -13.66
0.895 4.404 2.292 -2.517 -1.169 -2.562 -4.36 -10.25 0.6292 3.693 0.1798 1.495 0.5276 3.693 4.225 -4.225 -10.97
0.9 4.854 3.281 -0.5843 2.202 -0.04494 -5.393 -8.674 3.461 6.111 2.517 3.693 8.793 5.804 2.697 -0.7191 -5.663
0.905 6.022 4.989 -0.3596 2.787 4.315 -2.247 -5.933 4.719 6.639 6.292 7.914 17.67 6.243 -0.1798 4.584 -1.528
0.91 7.371 7.236 -1.573 1.348 9.303 4.18 -2.966 4.36 5.056 10.7 13.54 24.53 4.748 -3.056 9.348 -0.4494
0.915 7.91 9.124 -2.831 -0.2247 12.85 10.79 -0.3146 3.82 1.979 14.65 18.64 27.26 2.286 -4.854 12.58 -0.9888
0.92 7.191 10.56 -1.753 -0.08989 14.2 15.1 3.056 5.303 -0.7035 17.08 21.72 26.2 0.8793 -6.112 14.65 -0.1798
0.925 6.292 12.13 3.146 2.157 13.8 16.67 8.494 9.978 -1.583 16.81 22.07 23.3 1.759 -7.551 15.19 3.146
0.93 6.742 14.47 11.1 5.393 12.54 16.09 15.28 16.45 -0.7914 13.3 19.7 20.22 4.397 -8.449 13.03 7.371
0.935 8.809 17.26 18.65 7.775 11.15 14.29 21.12 21.89 0.6155 7.191 15.56 18.38 7.298 -7.73 7.91 10.25
0.94 12.04 19.78 22.38 8.629 10.29 12.36 24.22 23.91 1.759 0.8989 11.7 18.11 9.497 -5.753 2.247 11.24
0.945 15.01 21.03 20.85 8.494 10.34 11.15 24.27 21.66 2.022 -2.697 9.321 19.35 10.11 -4.045 -0.3596 11.15
0.95 16.45 20.13 15.19 7.73 10.74 10.38 21.84 15.87 0.7914 -2.787 8.793 20.31 7.914 -4.674 1.438 10.34
0.955 15.46 16.9 8.09 6.247 10.47 9.303 17.26 8.315 -1.891 -0.4494 9.057 18.91 2.462 -8.36 5.843 7.73
0.96 12.49 12 2.337 3.685 8.989 7.91 10.74 1.213 -4.792 2.067 8.705 13.98 -4.836 -13.84 9.258 2.427
0.965 8.539 6.742 -0.809 0 6.562 6.742 2.831 -3.91 -6.155 3.236 6.771 6.155 -11.17 -17.26 9.169 -4.764
0.97 4.135 1.843 -2.337 -4.449 3.596 6.022 -5.348 -6.517 -5.188 2.787 3.869 -2.11 -14.07 -14.92 5.933 -11.24
0.975 -0.3596 -2.697 -4.225 -8.809 0.4944 5.348 -12.09 -6.742 -2.506 2.157 1.759 -7.826 -12.05 -7.011 2.607 -13.21
0.98 -4.584 -6.787 -7.73 -11.82 -1.888 4.764 -15.55 -5.348 0.6595 2.787 2.462 -8.002 -6.067 1.978 2.787 -9.798
0.985 -7.64 -9.843 -12.63 -12.67 -3.101 4.494 -15.55 -3.955 2.682 5.573 6.419 -2.286 0.7035 6.831 7.191 -3.685
0.99 -9.169 -11.64 -17.8 -11.82 -3.416 3.865 -14.65 -4.809 2.022 9.169 10.9 5.804 4.133 5.663 12.85 0.3596
0.995 -9.258 -12.4 -22.11 -10.25 -3.82 1.573 -16.04 -9.034 -1.495 11.51 12.49 11.61 2.462 0.809 15.73 0.2697
1 -8.539 -12.36 -24.4 -8.809 -4.584 -2.517 -20.18 -15.19 -5.848 11.15 8.969 12.4 -2.462 -3.955 14.11 -2.247
1.005 -7.101 -11.46 -23.69 -8 -5.213 -7.416 -24.31 -19.96 -8.442 8.27 1.583 8.705 -6.859 -5.843 9.169 -3.955
1.01 -5.034 -9.663 -19.82 -7.64 -5.303 -11.69 -25.08 -20.22 -8.09 3.775 -6.243 3.254 -8.442 -4.225 3.056 -3.146
1.015 -2.607 -7.236 -13.3 -7.101 -4.899 -14.16 -21.03 -15.1 -5.232 -0.5393 -11.08 -1.143 -6.859 -1.169 -1.978 -0.4494
1.02 -0.1798 -4.584 -5.213 -5.213 -3.865 -13.71 -13.3 -6.337 -0.9673 -2.607 -11.26 -2.814 -3.429 1.079 -4.674 1.888
1.025 1.708 -2.247 3.011 -0.8989 -1.843 -10.2 -4.629 2.247 3.341 -0.8989 -7.738 -2.374 0.2638 1.888 -4.854 3.056
1.03 2.787 -0.809 9.573 5.258 0.8539 -5.169 2.157 7.146 6.111 3.596 -3.254 -1.935 2.286 2.157 -4.045 3.326
1.035 2.787 -0.6742 12.58 11.28 3.281 -1.169 5.708 6.966 5.979 8.629 -0.3517 -3.254 2.11 2.427 -4.045 3.865
1.04 2.337 -0.9438 11.96 14.74 4.674 0.4045 6.831 3.461 3.122 10.97 0.1759 -5.979 0.4397 1.618 -5.753 5.213
1.045 2.607 -0.1798 9.528 14.61 4.629 0 7.506 0 -0.8354 9.169 -1.055 -7.914 -1.231 -0.7191 -8.809 7.011
1.05 3.775 2.472 8.315 12 3.146 -1.124 9.124 -0.7191 -3.869 3.865 -2.902 -7.386 -1.583 -3.236 -11.69 8.539
1.055 5.303 6.517 10.38 9.483 0.8539 -1.438 12.36 2.382 -3.737 -2.337 -3.693 -3.693 0.7035 -3.416 -12.22 10.43
1.06 6.472 10.7 15.96 9.483 -0.6742 0.764 17.66 8.944 0.7914 -6.292 -1.847 2.814 6.947 -0.08989 -9.169 13.75
1.065 7.191 13.93 22.92 12.36 -0.1798 6.067 25.08 16.9 8.969 -6.921 3.078 10.82 16.09 5.933 -3.506 18.07
1.07 7.551 15.51 27.78 15.91 1.888 12.67 32.58 23.64 17.15 -5.663 9.849 17.5 24.97 12.49 1.348 21.21
1.075 7.371 15.1 27.87 17.26 3.865 17.26 36.58 26.83 21.59 -5.303 15.56 20.14 29.9 16.9 2.607 20.85
1.08 6.652 12.99 23.33 15.33 4.27 17.48 34.25 25.8 21.02 -6.382 17.67 18.03 29.72 17.8 0.9888 17.26
1.085 5.303 9.663 16.67 11.6 3.011 13.26 25.39 21.08 17.02 -7.461 15.3 12.93 25.32 15.91 -0.1798 13.03
1.09 3.326 5.393 10.7 8.09 0.764 6.067 12.18 13.98 11.96 -6.292 9.673 7.123 18.73 13.21 1.888 10.61
1.095 0.7191 0.2697 6.472 5.753 -1.708 -1.843 -1.573 6.202 7.474 -2.607 3.254 2.638 11.96 10.97 7.101 10.79
1.1 -2.067 -4.809 3.416 4.045 -3.775 -8.045 -11.91 -0.4944 4.397 1.618 -1.495 0.7035 6.595 8.449 12.22 11.69
1.105 -4.404 -8.629 0.5843 1.933 -4.899 -10.92 -16.4 -4.944 2.462 4.135 -3.869 0.6155 2.99 5.213 13.48 10.7
1.11 -6.112 -10.2 -2.382 -0.9888 -5.213 -10.47 -15.46 -6.562 0.8354 3.506 -4.133 0.8793 0.5276 2.157 9.438 6.742
1.115 -7.281 -9.888 -5.169 -4 -4.899 -7.82 -11.28 -5.618 -0.9233 1.348 -3.429 0.3517 -0.4397 0.4494 2.787 1.618
1.12 -8.09 -8.719 -7.146 -5.573 -3.685 -4.09 -6.022 -2.921 -2.418 0.4494 -1.759 -0.2638 0.2638 0 -1.258 -1.888
1.125 -8.18 -7.551 -8.225 -5.393 -1.618 -0.2247 -1.483 0 -3.341 2.787 0.4397 -0.08793 2.462 -0.08989 0 -2.337
1.13 -7.461 -7.011 -9.213 -5.169 0 2.202 0.3596 0.9438 -4.573 6.831 2.198 0.2638 3.781 -0.6292 4.764 -1.079
1.135 -6.562 -7.326 -10.97 -7.101 -0.04494 1.753 -1.933 -1.438 -7.035 9.169 2.022 -0.8793 2.022 -2.157 8.27 -0.5393
1.14 -5.933 -7.775 -13.35 -11.55 -1.933 -1.213 -8.045 -6.697 -9.98 7.91 -0.6155 -4.485 -2.814 -4.404 7.011 -1.888
1.145 -5.843 -7.326 -14.61 -16.31 -3.685 -4.494 -15.01 -12.45 -11.52 3.865 -4.485 -9.497 -8.705 -6.112 1.348 -4.584
1.15 -5.933 -5.708 -13.08 -17.93 -3.64 -5.753 -19.33 -15.6 -10.42 -0.4494 -7.386 -13.72 -13.1 -5.843 -5.663 -7.191
1.155 -6.022 -3.416 -8.404 -14.07 -1.303 -4.225 -18.83 -14.25 -6.727 -2.966 -8.178 -15.04 -13.98 -3.416 -10.34 -8.27
1.16 -5.393 -0.8989 -1.798 -4.989 2.292 -0.764 -13.75 -8.539 -1.627 -3.056 -7.386 -12.84 -10.99 -0.1798 -10.79 -7.64
1.165 -3.146 1.933 4.944 6.247 5.663 2.517 -6.787 -0.9888 3.166 -2.517 -6.771 -8.354 -5.892 2.517 -7.73 -6.202
1.17 0.809 5.079 10.07 15.28 7.281 3.506 -1.888 4.764 5.848 -3.416 -7.826 -4.133 -1.671 4.494 -4.135 -5.393
1.175 5.483 7.775 12.31 18.97 6.787 1.528 -1.438 6.202 5.804 -6.382 -10.11 -1.759 -0.5276 5.843 -2.067 -5.843
1.18 8.989 9.258 12.04 17.35 5.348 -1.483 -3.91 3.685 4.397 -9.888 -11.26 -0.9673 -1.759 6.202 -1.708 -6.562
1.185 9.888 8.989 10.97 13.62 4.404 -2.787 -5.034 0.2247 3.561 -12.04 -9.409 -0.3517 -3.254 5.663 -2.247 -6.292
1.19 7.73 6.876 11.01 11.37 3.82 -1.258 -1.303 -0.8989 4.089 -12.04 -5.452 0 -3.429 5.124 -3.685 -4.045
1.195 2.876 3.371 13.12 12.13 2.517 1.708 7.236 1.753 5.628 -10.88 -1.935 -0.7914 -1.935 5.213 -6.022 0.1798
1.2 -2.517 -0.1798 16.67 14.79 0 4.18 17.62 7.236 7.386 -9.618 -0.9673 -3.341 0.8793 5.753 -8.809 5.213
1.205 -6.112 -2.202 20 16.36 -2.831 5.169 25.48 12.58 8.705 -8.629 -2.198 -6.331 3.781 6.202 -10.61 9.258
1.21 -6.652 -2.202 20.58 14.29 -4.584 4.809 27.28 14.61 8.442 -7.461 -3.429 -7.474 5.1 6.472 -10.07 10.7
1.215 -5.034 -1.079 16.72 8.449 -4.449 4.09 22.25 11.78 6.155 -5.483 -2.55 -5.452 3.957 6.292 -6.472 9.438
1.22 -2.787 0.08989 8.899 1.124 -2.472 4.225 12.72 5.528 2.55 -2.157 1.231 0.1759 1.319 5.124 0.1798 7.191
1.225 -0.8989 0.764 -0.4944 -4.809 0.6292 5.933 2.472 -1.213 -1.319 2.427 6.419 7.562 -1.495 3.146 8.629 5.393
1.23 0.1798 0.8539 -8.944 -8.809 3.416 8.539 -5.798 -6.517 -5.012 7.191 10.55 13.63 -4.045 0.809 16.36 4.494
1.235 0.5393 0.2697 -15.42 -12.49 4.764 10.79 -11.37 -9.843 -8.442 10.88 12.4 16.36 -6.331 -1.618 20.94 3.596
1.24 0.2697 -0.5843 -20.13 -17.44 5.079 12.4 -13.8 -11.55 -10.86 12.94 12.75 16.18 -7.65 -4.404 21.57 2.067
1.245 0 -1.034 -23.19 -23.01 5.753 14.07 -12.9 -11.82 -11.26 13.39 13.01 15.12 -7.123 -6.742 19.15 0
1.25 -0.2697 -0.6742 -24.22 -26.2 7.326 16 -9.348 -10.74 -9.365 12.58 13.54 14.51 -4.924 -6.742 14.92 -1.528
1.255 0 0.5843 -22.61 -24.13 9.348 17.26 -5.034 -8.27 -5.76 10.88 13.28 13.98 -1.495 -3.955 10.43 -1.888
1.26 1.438 2.742 -18.02 -16.63 10.79 16.85 -2.247 -4.764 -1.451 8.899 11.43 12.84 1.847 0 6.921 -0.9888
1.265 4.494 5.708 -11.28 -6.921 11.28 14.47 -1.978 -1.438 1.935 7.191 8.178 10.38 3.693 2.517 5.124 0
1.27 8.36 8.944 -4.449 -0.1798 10.65 10.7 -3.775 0.4045 3.034 6.022 4.573 6.947 2.814 1.978 4.135 -0.3596
1.275 11.42 11.78 0.1348 0.4494 9.348 6.921 -5.258 0.6742 1.451 4.944 2.55 3.957 -0.1759 -0.9888 3.236 -1.978
1.28 12.85 14.25 2.292 -3.281 8.584 5.528 -3.281 1.034 -0.7914 4.404 3.341 3.605 -2.374 -4.045 2.517 -3.506
1.285 12.94 16.67 3.506 -6.742 9.438 8.315 3.73 3.551 -1.055 4.764 6.595 7.035 -1.143 -4.584 2.337 -3.506
1.29 12.58 18.74 5.034 -5.753 11.46 14.2 13.21 8.27 1.451 5.843 10.55 12.22 3.166 -1.438 2.517 -2.517
1.295 12.13 19.24 6.517 -0.3146 12.85 19.46 19.78 12.76 5.32 6.742 12.49 15.12 7.826 2.787 1.888 -2.247
1.3 11.06 16.85 6.247 5.978 12.36 20.4 19.1 13.75 8.134 6.652 11.08 12.75 9.497 4.225 -0.2697 -4.045
1.305 8.629 11.6 3.056 8.944 9.933 15.46 11.19 9.528 7.87 5.124 6.331 5.276 6.595 0.7191 -3.865 -7.73
1.31 4.764 4.719 -2.562 6.652 6.157 5.843 -0.08989 0.8989 3.957 2.337 -0.3517 -4.748 -0.2638 -5.753 -8.09 -11.51
1.315 0 -1.933 -8.629 0.7191 1.888 -5.124 -9.438 -8.809 -2.11 -1.079 -6.683 -13.1 -8.002 -11.42 -11.24 -13.3
1.32 -3.955 -6.472 -12.22 -4.719 -1.708 -13.3 -12.72 -15.64 -7.342 -3.865 -10.38 -16.18 -12.84 -13.57 -11.6 -11.78
1.325 -5.753 -7.865 -11.78 -6.382 -3.91 -15.87 -9.393 -17.12 -9.277 -4.584 -10.46 -13.28 -13.01 -12.22 -8.449 -7.64
1.33 -5.213 -6.742 -8 -3.82 -4.809 -13.53 -2.921 -13.89 -7.782 -3.146 -7.914 -7.298 -9.936 -9.079 -3.416 -2.876
1.335 -3.506 -4.854 -3.281 0.7191 -5.169 -9.753 1.933 -8.449 -4.529 -0.4494 -5.012 -2.198 -5.804 -6.112 1.348 0.8989
1.34 -1.888 -3.685 0.3146 4.674 -5.708 -7.775 2.517 -3.416 -1.143 2.337 -3.605 -0.08793 -2.11 -4.045 4.225 3.236
1.345 -1.169 -3.73 2.157 6.831 -6.697 -8.899 -1.034 -0.5393 1.539 4.315 -4.221 -0.7035 0.5276 -2.337 4.674 4.494
1.35 -1.438 -5.079 2.202 7.506 -8.539 -12.36 -6.787 -0.5843 2.902 4.404 -6.155 -2.814 1.759 0.08989 3.056 4.764
1.355 -2.787 -7.461 0.4944 7.326 -11.15 -16.22 -12.27 -3.146 2.814 2.517 -8.002 -5.1 1.143 2.787 0.4494 4.494
1.36 -4.944 -9.978 -2.292 6.831 -13.39 -17.75 -14.88 -6.382 2.11 0.1798 -8.09 -6.507 -0.3517 3.955 -1.169 4.315
1.365 -6.652 -11.1 -4.629 6.382 -13.62 -15.15 -12.99 -7.64 1.847 -0.7191 -6.067 -6.331 -1.583 2.787 -0.2697 4.764
1.37 -7.191 -10.2 -4.719 5.978 -11.42 -9.124 -7.101 -5.348 2.462 0.3596 -2.99 -5.012 -1.847 0.8989 2.337 5.663
1.375 -6.562 -8.045 -1.708 6.247 -8.225 -3.056 -0.08989 -0.2697 3.429 2.427 -0.9673 -3.957 -1.407 0 4.674 6.112
1.38 -5.393 -6.337 3.371 7.82 -5.978 -0.1348 4.404 5.079 4.177 3.056 -1.583 -4.221 -0.8793 -0.08989 4.404 4.584
1.385 -4.584 -6.382 7.91 10.52 -5.798 -1.753 3.82 7.416 3.693 0.5393 -5.276 -6.331 -1.671 -0.9888 0.9888 0.1798
1.39 -4.764 -8.36 8.719 12.36 -7.73 -7.146 -2.022 4.854 1.055 -5.034 -11.17 -10.29 -4.836 -4.135 -4.494 -6.742
1.395 -5.663 -11.06 4.584 10.7 -10.61 -13.75 -10.52 -1.258 -3.517 -11.78 -17.06 -14.42 -9.497 -9.079 -9.528 -14.02
1.4 -6.472 -12.4 -2.067 4.539 -12.63 -18.43 -17.03 -7.146 -7.694 -16.18 -20.31 -16.44 -12.75 -13.48 -12.04 -18.79
1.405 -6.112 -10.88 -7.101 -3.73 -12.45 -18.97 -17.75 -9.169 -8.881 -16.36 -19.61 -14.95 -12.31 -14.29 -12.04 -19.69
1.41 -4.674 -7.056 -7.461 -9.933 -10.25 -15.91 -12.76 -6.966 -6.463 -13.03 -15.39 -11.43 -8.793 -10.34 -11.96 -17.44
1.415 -3.056 -3.011 -3.73 -10.65 -7.101 -11.55 -5.528 -3.236 -2.11 -8.629 -9.761 -8.617 -4.924 -3.685 -13.48 -13.84
1.42 -2.157 -0.4944 0.8989 -5.528 -3.775 -7.596 0 -1.169 1.539 -5.303 -4.397 -7.65 -2.814 1.348 -15.46 -10.07
1.425 -1.708 0.2697 3.461 1.888 -0.4045 -4.09 2.157 -1.978 2.77 -3.236 -0.08793 -7.65 -2.638 2.247 -14.56 -5.843
1.43 -1.169 0.2697 2.921 6.787 2.247 -0.764 1.573 -4.36 1.099 -1.708 3.429 -6.595 -3.429 0.08989 -8.899 -0.8989
1.435 -0.6292 -0.08989 0.5843 5.978 2.966 2.022 0.4045 -5.888 -2.11 -0.1798 6.771 -3.254 -3.254 -2.157 0.2697 4.854
1.44 -0.8989 -0.7191 -1.124 0.4944 1.348 3.955 0.6292 -4.584 -4.353 1.528 10.29 1.495 -0.7914 -2.787 9.528 10.7
1.445 -2.607 -1.663 -0.809 -5.438 -1.438 4.989 3.101 -0.6292 -3.825 3.236 13.01 5.804 3.078 -1.528 15.28 15.28
1.45 -5.573 -3.011 1.034 -8.18 -3.775 5.034 6.652 4 -1.055 4.315 13.54 7.298 6.683 0.5393 16 17.08
1.455 -8.809 -4.674 2.607 -6.742 -4.854 3.775 9.079 7.461 1.979 4.135 10.64 5.1 8.354 2.337 12.85 15.91
1.46 -10.79 -6.337 2.652 -3.056 -5.124 0.8989 8.944 8.809 4.001 2.607 4.485 0.2638 8.354 3.056 7.91 12.22
1.465 -10.88 -7.955 0.8539 -0.08989 -6.067 -3.64 6.067 8.18 4.397 -0.3596 -3.517 -5.452 7.474 2.787 2.427 7.011
1.47 -9.438 -9.978 -2.427 -0.3596 -9.213 -9.933 1.079 5.528 2.902 -4.674 -11.26 -11.34 5.716 2.157 -3.685 0.809
1.475 -7.91 -12.81 -6.876 -4.494 -14.16 -16.72 -4.404 1.213 -0.1759 -9.348 -16.27 -17.06 2.814 1.169 -9.978 -4.764
1.48 -7.011 -15.42 -11.64 -10.92 -17.93 -20.94 -8.36 -3.551 -3.825 -12.04 -17.15 -20.93 -0.1759 -0.5393 -13.39 -7.82
1.485 -6.112 -15.69 -14.92 -16.94 -17.03 -19.33 -8.719 -7.011 -6.683 -10.7 -13.63 -21.1 -2.286 -2.607 -11.33 -6.921
1.49 -4.225 -12.49 -15.19 -20.22 -10.92 -12.04 -5.573 -7.91 -8.354 -6.022 -7.65 -17.41 -3.078 -3.775 -4.944 -3.326
1.495 -1.348 -6.831 -12.22 -19.96 -2.607 -2.876 -1.079 -6.517 -8.969 -1.169 -2.462 -12.05 -2.902 -3.506 0.8989 -0.08989
1.5 1.258 -1.169 -7.551 -16.81 3.865 3.416 2.112 -4.18 -8.705 0.4494 -0.2638 -8.09 -2.55 -2.427 1.438 0.08989
1.505 2.607 1.933 -3.506 -12.58 6.562 4.809 3.011 -2.382 -7.65 -1.438 -1.231 -6.771 -2.198 -1.348 -3.775 -2.607
1.51 2.337 1.573 -2.022 -9.393 6.112 2.472 2.202 -1.483 -6.111 -4.944 -3.254 -7.035 -1.671 0.08989 -10.52 -5.663
1.515 0.8989 -1.213 -3.011 -8.27 4.854 -0.3146 1.348 -0.5843 -4.353 -6.742 -3.781 -5.979 0.1759 2.607 -12.85 -5.573
1.52 0 -3.82 -4.315 -8.18 5.213 -0.6742 2.202 1.618 -2.198 -4.764 -1.231 -1.143 4.133 5.573 -7.82 -1.079
1.525 0.809 -3.596 -3.371 -7.371 7.64 2.067 5.034 5.169 0.04397 -0.2697 3.429 6.683 9.145 7.461 1.438 5.213
1.53 3.146 0 0.2697 -5.213 10.43 5.798 8.18 8.135 1.319 3.506 7.738 13.54 12.22 6.652 8.18 8.629
1.535 5.573 5.303 4.719 -3.236 11.55 7.73 9.663 8.494 0.7035 4.135 9.321 15.74 11.08 3.056 8.449 6.742
1.54 6.831 10.2 7.596 -3.191 10.92 7.461 9.213 6.337 -1.011 2.607 8.354 13.45 6.771 -1.618 4.225 1.798
1.545 7.371 13.3 8.494 -4.809 9.798 6.697 8.135 4.09 -1.979 1.258 6.595 9.761 2.726 -4.404 1.348 -1.528
1.55 7.82 14.29 8.764 -5.843 8.674 6.337 7.416 4.135 -1.011 1.438 5.364 7.738 1.319 -3.146 3.056 -0.809
1.555 8.899 13.44 9.798 -3.685 6.831 5.169 6.472 6.562 1.495 1.618 3.869 7.474 2.462 1.348 7.281 2.966
1.56 10.25 11.51 11.51 1.933 3.371 1.663 3.91 8.854 4.045 0 0.7035 7.474 4.045 5.753 9.888 5.933
1.565 11.15 9.258 12.27 8.09 -1.258 -4.09 -0.764 7.82 4.924 -3.955 -4.485 6.243 3.517 7.101 8.18 5.124
1.57 10.7 6.876 9.978 9.888 -5.663 -10.34 -6.831 1.798 2.946 -8.449 -10.29 3.605 -0.4397 5.753 3.326 0.7191
1.575 8.899 4.36 4.09 4.899 -8.18 -14.61 -12.09 -7.461 -1.231 -10.79 -14.25 0.9673 -6.595 3.775 -1.169 -3.955
1.58 6.292 2.022 -3.191 -4.18 -7.685 -14.97 -14.07 -15.96 -5.54 -9.888 -14.68 -0.4397 -11.87 2.697 -2.966 -6.022
1.585 4.045 0.6292 -8.404 -11.1 -4.674 -11.51 -11.64 -19.91 -7.738 -6.921 -11.96 -0.7035 -14.16 2.517 -2.697 -5.303
1.59 2.427 0.3596 -9.348 -11.06 -1.169 -6.427 -6.382 -18.61 -7.43 -4.584 -8.53 -1.495 -13.37 2.697 -3.236 -3.775
1.595 1.169 0.6292 -6.831 -4.36 0.8539 -2.427 -1.348 -13.84 -5.76 -4.315 -6.331 -3.341 -10.64 3.056 -5.483 -3.236
1.6 -0.2697 0.4944 -3.371 4.09 1.258 -0.1798 1.258 -8.18 -3.254 -4.584 -5.1 -4.748 -6.067 3.865 -6.652 -2.787
1.605 -1.798 -0.4494 -1.034 8.989 1.213 1.079 1.393 -3.101 -0.08793 -3.146 -3.341 -3.341 0 5.753 -3.865 -0.8989
1.61 -3.056 -2.247 -0.809 7.91 1.079 1.843 -0.1798 0.5843 3.298 0.08989 -0.4397 0.5276 6.243 8.449 1.888 1.978
1.615 -3.955 -4.225 -2.157 2.921 0.2697 1.303 -2.517 2.652 5.804 2.876 2.198 4.397 10.11 9.888 6.562 3.685
1.62 -4.764 -5.303 -3.865 -1.348 -1.483 -0.4494 -4.09 3.416 6.551 2.966 3.429 5.892 10.38 7.64 6.831 1.978
1.625 -5.393 -4.315 -4.225 -1.483 -3.551 -1.753 -3.191 3.685 5.496 0.6292 3.341 5.364 7.65 1.798 3.596 -2.337
1.63 -5.573 -1.213 -2.202 2.921 -4.404 -0.3596 1.124 4.494 3.341 -1.888 4.221 5.188 4.221 -4.494 0.809 -5.933
1.635 -4.854 2.921 2.202 9.573 -2.966 4.494 8.539 6.831 1.627 -1.798 8.09 7.386 2.462 -7.551 1.888 -5.124
1.64 -3.056 6.607 8.315 15.87 0.809 11.6 17.12 10.7 2.022 1.528 14.95 11.52 3.781 -6.472 6.742 0.6292
1.645 -0.7191 8.629 14.43 20.36 5.663 17.93 23.91 14.79 4.573 6.022 21.63 14.86 6.507 -3.326 11.24 7.461
1.65 0.809 8.404 18.34 22.43 9.124 20.09 25.84 16.72 6.991 8.09 24.01 14.25 7.211 -0.809 10.7 10.07
1.655 0.5393 6.157 18.11 21.53 9.393 16.85 21.84 14.92 6.507 6.202 20.66 9.673 3.869 -0.6292 4.854 6.382
1.66 -1.258 3.146 14.2 17.89 7.011 10.52 14.07 10.34 2.946 1.798 14.25 4.836 -1.495 -2.607 -1.888 -0.7191
1.665 -2.697 1.348 9.124 12.63 3.955 5.124 6.652 5.843 -1.143 -2.247 9.057 3.781 -5.54 -4.944 -4.674 -6.472
1.67 -1.888 1.798 5.753 7.416 1.573 2.876 2.157 3.685 -3.034 -4.315 7.211 6.243 -6.155 -5.753 -3.056 -8.36
1.675 1.169 4.18 5.169 3.955 -0.1348 2.787 0.2697 3.865 -1.451 -4.944 6.771 8.09 -4.221 -4.674 -0.809 -7.64
1.68 4.944 7.146 6.382 3.326 -1.348 2.787 -0.809 4.899 2.594 -5.303 4.573 5.188 -2.022 -2.876 -1.888 -7.101
1.685 7.551 9.663 7.82 5.483 -1.843 1.978 -2.652 5.079 6.639 -5.933 -0.9673 -2.726 -1.231 -1.348 -7.101 -8.629
1.69 8.18 11.1 8.225 8.899 -1.348 0.7191 -5.124 3.82 8.09 -6.831 -8.09 -12.13 -2.198 0.08989 -13.93 -11.42
1.695 7.371 11.24 7.461 11.51 0 -0.2697 -7.191 1.933 6.243 -7.73 -13.19 -18.47 -3.869 1.528 -19.06 -13.3
1.7 6.022 10.16 6.337 12.04 1.663 -0.3146 -7.64 0.8989 3.122 -8.09 -13.72 -19.35 -4.133 2.427 -20.58 -12.76
1.705 4.854 8 5.663 10.38 2.921 0.4494 -6.562 1.258 1.143 -7.191 -10.11 -15.92 -2.462 2.067 -18.7 -10.16
1.71 3.506 4.719 5.034 7.056 2.966 1.169 -5.573 2.022 0.8354 -4.494 -5.452 -11.61 -0.2638 0.809 -14.92 -7.461
1.715 1.079 0.3596 3.416 3.056 1.843 1.169 -6.022 1.843 0.9673 0.4494 -2.55 -8.881 0.9673 -0.2697 -10.43 -5.573
1.72 -2.157 -3.91 0.5843 -0.3596 1.124 1.258 -7.326 0.6292 0.4836 7.551 -1.231 -7.211 1.407 -0.6292 -4.944 -3.596
1.725 -4.944 -6.427 -2.517 -2.247 2.202 2.966 -7.416 -0.5843 -0.4836 15.1 0.2638 -4.66 2.022 -0.2697 1.258 0
1.73 -6.022 -6.742 -4.899 -2.607 4.719 6.247 -5.079 -1.079 -1.275 20.4 3.166 -0.9673 3.254 0.4494 7.101 4.854
1.735 -5.753 -6.022 -6.472 -2.517 6.742 9.124 -1.708 -1.079 -1.143 21.39 6.859 2.55 4.66 0.9888 11.15 9.978
1.74 -5.393 -6.157 -7.596 -2.831 6.697 9.798 0.4045 -1.258 0.3078 18.97 9.673 5.012 6.067 1.258 13.75 14.29
1.745 -5.753 -7.685 -8.404 -3.865 4.629 8.09 -0.08989 -2.157 2.418 15.37 10.55 6.683 7.298 1.438 16.45 16.9
1.75 -6.742 -9.753 -8.539 -5.258 1.663 4.854 -2.966 -3.685 3.298 12.58 9.145 8.266 7.65 2.157 19.15 17.62
1.755 -7.191 -10.52 -7.82 -6.517 -0.8989 1.169 -6.157 -5.034 1.715 10.52 5.892 10.02 6.507 2.876 20.31 16.36
1.76 -6.022 -8.854 -5.888 -7.326 -2.247 -1.798 -7.191 -4.989 -1.451 7.73 1.935 10.99 4.221 1.708 18.34 13.57
1.765 -2.697 -4.989 -3.101 -7.551 -2.337 -3.371 -4.674 -3.191 -4.221 3.506 -1.935 10.2 1.759 -1.978 13.21 10.07
1.77 1.618 -0.7191 -0.2247 -7.191 -2.022 -3.64 0.4045 -0.4494 -5.188 -1.258 -4.836 6.947 0.08793 -6.382 6.562 6.831
1.775 5.393 1.888 1.618 -6.562 -2.157 -3.281 5.438 1.708 -4.177 -5.034 -5.892 2.374 -0.08793 -8.719 0.8989 5.034
1.78 7.371 2.607 2.427 -5.663 -2.652 -2.382 8.135 2.517 -1.935 -6.652 -4.485 -1.231 1.495 -7.82 -1.978 4.674
1.785 7.64 2.562 2.472 -4.629 -2.742 -0.9888 7.685 1.843 0.3957 -6.292 -1.847 -2.374 3.517 -4.944 -3.056 3.955
1.79 6.652 2.966 2.022 -4.315 -2.472 0 4.494 -0.1348 1.495 -5.933 -0.4397 -1.847 3.429 -2.876 -4.944 0.3596
1.795 5.034 3.685 0.809 -5.348 -2.652 -0.5843 -0.08989 -2.876 0.6595 -7.101 -2.11 -1.583 0 -3.865 -9.169 -6.652
1.8 3.416 4.225 -0.8539 -7.326 -3.326 -2.607 -4.18 -5.258 -1.099 -9.079 -5.892 -2.286 -5.188 -7.91 -14.11 -14.65
1.805 2.787 4.36 -2.382 -8.674 -3.82 -4.135 -5.798 -6.247 -2.374 -9.438 -8.354 -2.902 -8.793 -11.96 -16.27 -19.69
1.81 3.596 4.494 -3.056 -8.225 -3.326 -3.371 -4.944 -5.798 -2.814 -6.831 -6.947 -2.286 -9.145 -12.04 -13.48 -19.06
1.815 4.944 4.764 -3.236 -6.247 -1.753 -0.6292 -3.461 -4.854 -2.946 -1.618 -1.847 -0.8793 -7.035 -6.831 -6.652 -13.21
1.82 5.663 4.674 -3.64 -4.18 0.4045 2.337 -3.101 -4.315 -2.946 3.955 3.693 0.08793 -4.397 0.7191 0.9888 -4.854
1.825 4.584 3.146 -4.494 -3.371 2.247 3.551 -3.64 -4.27 -2.594 7.551 5.979 -0.4397 -2.99 6.472 5.393 2.517
1.83 1.348 -0.764 -5.213 -4 2.382 1.708 -3.101 -4.045 -1.715 8 3.693 -2.462 -2.726 8.18 4.225 7.371
1.835 -3.326 -6.921 -4.764 -4.989 0.04494 -2.562 0.4944 -2.472 -0.2198 5.573 -0.7914 -4.573 -2.022 6.831 -1.618 10.34
1.84 -8.18 -13.3 -2.652 -4.854 -3.82 -6.787 7.82 1.079 1.935 2.427 -3.341 -4.397 1.143 5.034 -8.09 13.39
1.845 -11.6 -17.21 0.4494 -3.011 -6.831 -8.18 16.36 5.798 4.441 0.9888 -1.759 -0.9673 6.683 5.124 -10.52 17.26
1.85 -12.58 -17.12 2.652 -0.6292 -7.056 -6.382 21.53 9.393 6.111 2.427 2.638 3.869 11.34 7.461 -7.371 20.4
1.855 -11.33 -13.71 2.022 0.5843 -4.09 -3.551 19.51 9.663 6.067 6.112 6.243 7.474 12.13 10.16 -0.4494 20.76
1.86 -8.18 -8.809 -1.303 0.08989 1.034 -1.663 10.88 6.742 4.792 10.25 6.859 8.53 8.881 10.88 6.382 17.62
1.865 -3.416 -3.685 -5.213 -1.393 6.742 -0.6742 0.1348 2.427 3.298 12.85 5.452 8.354 3.957 8.899 9.978 11.96
1.87 2.157 1.169 -7.551 -3.101 10.83 0.6742 -7.955 -1.303 1.495 12.76 4.836 8.793 -0.2638 5.483 9.438 5.303
1.875 7.191 5.573 -8.225 -5.258 11.96 3.191 -11.87 -4.18 -1.583 10.16 6.507 10.38 -3.693 2.067 6.382 -0.809
1.88 10.43 9.169 -8.854 -8.36 10.74 6.652 -12.85 -6.876 -6.155 6.831 9.761 12.31 -7.035 -1.079 3.506 -5.843
1.885 11.69 11.64 -10.65 -11.91 9.169 9.798 -13.08 -9.978 -11.17 4.225 11.52 12.4 -11.08 -4.584 1.798 -10.16
1.89 11.42 12.45 -13.26 -13.93 8.449 10.88 -13.26 -12.9 -14.86 2.607 9.321 9.145 -15.56 -7.64 -0.1798 -14.02
1.895 10.61 11.73 -14.65 -12.22 8.539 9.034 -12.45 -13.75 -15.43 1.079 3.693 3.078 -18.29 -8.899 -4.225 -16.9
1.9 10.07 10.65 -12.27 -5.753 8.629 5.753 -8.719 -10.29 -11.83 -0.809 -2.11 -1.935 -16.44 -7.371 -9.348 -17.35
1.905 10.43 10.65 -5.124 3.596 8.36 3.596 -1.708 -2.382 -4.88 -2.247 -4.485 -2.198 -9.761 -3.685 -11.87 -14.65
1.91 11.33 12.31 5.034 12.13 7.371 3.685 6.022 7.236 2.594 -1.888 -2.55 2.902 -1.231 0.7191 -8.989 -9.798
1.915 11.78 14.52 14.52 16.63 5.708 4.629 10.56 14.47 7.826 0.1798 1.847 10.82 5.364 3.955 -1.169 -4.494
1.92 10.79 15.33 19.96 16.76 3.865 4.809 9.843 16.4 10.11 3.236 5.979 17.41 7.914 4.944 8 0
1.925 8 13.57 20.22 14.97 2.652 3.91 5.079 12.94 10.46 5.753 8.266 19.79 7.211 4.494 14.92 3.685
1.93 3.775 9.034 15.64 13.62 2.202 2.652 -0.8989 6.292 9.629 7.101 8.705 17.76 4.573 4.584 18.07 6.921
1.935 -1.348 2.472 7.73 12.85 1.978 1.663 -6.112 -0.764 7.65 7.73 8.442 13.28 1.583 6.292 19.06 10.07
1.94 -6.022 -4.584 -1.169 11.06 1.843 1.169 -9.528 -5.708 4.66 9.169 8.354 9.497 -0.5276 8.27 21.03 13.03
1.945 -8.899 -10.11 -8.494 6.966 1.843 0.764 -11.28 -7.596 1.363 11.69 8.09 8.178 -1.319 9.079 24.9 14.92
1.95 -9.258 -12.49 -12.22 1.303 1.483 -0.4944 -11.82 -7.326 -1.539 13.75 6.683 8.617 -1.143 8.27 27.96 14.56
1.955 -7.82 -11.46 -12.31 -3.416 0.1348 -3.056 -11.78 -6.607 -3.298 12.85 3.869 8.881 -0.6155 6.742 26.7 11.42
1.96 -5.663 -7.551 -10.02 -4.989 -1.618 -5.169 -10.92 -6.787 -3.298 8.449 0.6155 7.826 -0.1759 4.764 20.67 6.292
1.965 -3.955 -2.157 -7.506 -2.966 -2.157 -4.404 -9.303 -8.36 -1.979 2.876 -1.319 5.628 -0.7914 1.978 12.58 -0.1798
1.97 -3.146 2.562 -6.517 0.4944 -0.3146 -0.3596 -7.865 -11.24 -1.143 -0.809 -1.319 2.198 -3.869 -1.708 5.753 -7.64
1.975 -3.326 4.494 -7.551 2.742 3.191 4.494 -8.27 -14.74 -2.33 -1.169 -0.2638 -2.99 -9.585 -6.202 1.258 -15.64
1.98 -4.135 2.921 -9.438 2.831 6.562 7.101 -11.19 -17.57 -4.924 0.4494 0.1759 -10.38 -15.83 -10.61 -2.517 -23.01
1.985 -4.854 -0.8539 -10.2 2.067 7.82 6.157 -15.33 -18.47 -7.123 1.528 -1.407 -19.43 -19.7 -13.57 -7.73 -28.4
1.99 -4.584 -4.315 -8.809 2.292 5.753 2.427 -18.47 -16.94 -7.562 -0.2697 -5.54 -28.31 -19.43 -14.11 -15.01 -31.19
1.995 -3.236 -5.303 -5.618 3.955 1.034 -1.753 -18.61 -12.94 -6.067 -4.854 -11.08 -34.12 -15.3 -12.31 -22.38 -31.19
2 -0.7191 -2.607 -1.258 6.382 -3.73 -4.045 -14.16 -6.472 -2.77 -9.888 -15.74 -33.85 -8.266 -9.618 -26.52 -28.58
2.005 2.697 3.236 4.225 8.584 -6.067 -3.101 -4.764 2.112 1.759 -12.67 -17.06 -26.56 0.1759 -7.011 -25.26 -23.46
2.01 6.202 10.11 10.7 10.34 -5.573 -0.1348 7.461 11.37 6.595 -12.67 -14.51 -14.51 8.266 -3.955 -19.69 -15.82
2.015 8.539 15.01 17.12 12.04 -4.135 2.157 18.88 19.01 10.38 -11.42 -9.409 -2.286 14.42 -0.2697 -13.03 -6.112
2.02 9.079 16.04 21.84 14.11 -3.461 2.337 26.29 23.19 12.53 -10.52 -3.869 6.331 17.94 2.607 -8.09 4.494
2.025 8.27 13.26 23.6 16.18 -3.73 0.809 28.4 23.24 12.75 -10.34 0 10.02 18.99 3.326 -5.213 14.2
2.03 6.472 7.82 21.93 16.58 -4.449 -1.258 26.02 20.04 11.04 -10.16 1.319 9.497 17.85 2.157 -3.596 20.67
2.035 3.506 1.124 17.62 13.75 -5.393 -3.236 20.94 15.46 8.046 -9.079 0.8793 6.771 15.21 1.079 -1.978 23.19
2.04 -0.8989 -5.528 12.45 7.82 -6.742 -4.719 15.33 11.24 5.408 -6.652 0.08793 4.573 12.66 1.708 0.5393 23.1
2.045 -6.742 -11.37 7.82 0.8539 -8.989 -5.483 10.52 7.91 4.089 -3.416 0 3.781 10.82 4.135 3.865 21.93
2.05 -13.12 -16.18 3.506 -4.989 -12.54 -6.292 6.472 4.27 3.166 -0.6292 -0.1759 3.341 8.442 6.472 6.202 20.31
2.055 -18.52 -20.22 -1.753 -8.719 -16.85 -8 2.292 -0.7191 0.8793 0.2697 -1.231 1.055 4.133 6.382 5.843 17.89
2.06 -21.39 -23.28 -8.36 -10.34 -19.91 -10.47 -1.573 -6.562 -3.166 -0.4494 -3.429 -3.605 -1.407 3.056 2.697 14.56
2.065 -20.67 -24.49 -14.56 -10.65 -19.78 -12.45 -3.506 -11.06 -7.606 -1.798 -5.892 -9.233 -5.979 -0.9888 -1.348 11.15
2.07 -16.63 -23.37 -17.8 -10.47 -16.67 -12.9 -2.382 -12.27 -10.29 -3.056 -7.562 -13.72 -7.65 -2.247 -4.854 8.18
2.075 -11.06 -20.22 -16.76 -10.56 -12.99 -12.04 0.9888 -10.02 -10.07 -4.854 -8.53 -16 -6.507 0.5393 -7.64 5.843
2.08 -5.843 -16 -12.09 -10.97 -10.83 -10.65 4.404 -5.933 -7.562 -7.82 -9.761 -16.53 -4.397 4.045 -10.43 2.966
2.085 -1.888 -11.69 -6.337 -11.51 -10.52 -9.348 5.663 -2.697 -4.617 -12.04 -12.49 -16.97 -3.957 4.045 -14.29 -1.798
2.09 0.2697 -8.404 -2.607 -12.22 -11.1 -8.719 3.551 -2.247 -3.693 -16.81 -16.8 -18.82 -6.595 -0.3596 -19.42 -8.539
2.095 0.7191 -7.056 -2.652 -13.12 -11.33 -8.809 -1.258 -4.36 -5.54 -20.58 -20.66 -21.72 -10.73 -6.292 -23.91 -14.83
2.1 -0.2697 -7.461 -5.618 -13.66 -10.43 -8.854 -6.472 -6.831 -8.002 -21.3 -21.63 -22.77 -12.49 -9.348 -24.81 -17.08
2.105 -1.798 -8.674 -8.854 -13.08 -8.719 -8.09 -9.169 -7.326 -8.31 -18.79 -18.38 -19.35 -9.233 -7.371 -21.03 -14.2
2.11 -3.146 -9.573 -9.933 -11.24 -7.64 -7.146 -8.449 -5.213 -5.496 -14.56 -13.1 -12.13 -2.198 -1.708 -15.1 -9.079
2.115 -3.506 -9.573 -8.27 -8.539 -8.27 -7.82 -5.708 -1.888 -1.363 -11.51 -9.497 -5.1 4.309 3.596 -11.6 -6.022
2.12 -2.787 -8.315 -4.719 -5.483 -9.933 -10.47 -3.101 0.809 1.847 -10.88 -10.02 -2.11 6.771 4.944 -12.58 -7.281
2.125 -0.809 -5.708 -0.6742 -2.067 -10.65 -13.35 -1.618 2.067 3.21 -11.6 -13.72 -3.869 4.924 2.247 -16 -10.79
2.13 1.708 -2.112 2.697 1.483 -9.124 -13.98 -1.169 1.933 2.814 -11.69 -16.62 -7.562 1.143 -1.438 -17.71 -12.58
2.135 3.775 1.348 4.899 4.719 -5.708 -11.06 -0.9438 1.573 1.583 -9.798 -15.04 -9.057 -0.9673 -3.506 -14.11 -9.169
2.14 4.674 4.135 5.978 6.652 -1.483 -5.124 0.1348 1.978 0.8793 -5.933 -8.002 -5.979 0.3517 -4.135 -5.124 -0.9888
2.145 4.494 6.112 6.337 6.427 2.607 1.753 2.427 3.056 0.9673 -1.258 1.671 0.6155 4.397 -4.584 6.022 8.36
2.15 3.775 7.371 5.843 3.775 6.067 6.742 4.629 3.461 0.9233 2.517 9.497 6.331 7.738 -5.213 14.74 14.65
2.155 2.697 7.73 4.045 -0.4944 8.404 7.82 4.494 1.618 -0.1759 4.944 12.05 7.474 7.562 -5.124 18.52 16.36
2.16 1.348 7.011 0.8539 -4.494 9.798 5.438 1.348 -2.337 -1.847 6.742 9.849 3.957 4.66 -3.236 18.43 15.28
2.165 -0.1798 5.124 -2.517 -6.022 10.52 1.933 -3.191 -6.652 -2.462 8.809 6.067 -0.5276 1.495 0.08989 16.81 13.84
2.17 -2.247 2.292 -4.809 -4.494 10.61 -0.4494 -6.607 -8.764 -1.627 10.88 3.869 -2.902 0.4397 3.955 15.01 12.76
2.175 -4.584 -0.764 -5.169 -1.348 9.978 -0.9888 -6.921 -7.191 -0.1319 12.13 4.836 -1.847 1.583 6.562 13.12 11.6
2.18 -6.292 -2.652 -3.596 1.258 9.573 0.764 -3.64 -2.022 1.055 12.58 8.266 1.935 4.221 6.831 11.87 10.16
2.185 -6.022 -1.753 -0.5843 1.888 10.65 5.393 1.978 4.944 1.583 13.3 13.1 7.386 7.211 5.573 12.67 9.348
2.19 -3.146 2.337 2.876 0.4494 13.48 12.36 7.551 11.19 1.363 15.37 18.47 13.01 9.321 4.584 16.09 9.798
2.195 1.708 8.404 5.933 -1.798 16.99 19.78 10.92 14.79 0.6595 18.7 23.57 17.59 10.11 4.764 20.85 11.06
2.2 7.101 14.38 8.09 -3.236 20 25.66 11.82 15.51 0.3078 22.02 27.87 20.22 9.936 4.944 23.82 10.97
2.205 11.6 18.88 9.708 -2.382 21.98 28.99 11.82 14.65 0.8793 23.64 30.16 20.14 9.057 3.596 22.02 7.101
2.21 14.2 21.39 11.24 0.6292 22.65 29.44 12.58 13.62 2.154 22.2 29.19 16.71 7.035 0.9888 14.47 -1.528
2.215 14.65 21.93 12.72 4.674 21.75 27.64 14.74 13.39 3.561 17.98 24.97 11.34 3.957 -1.438 4.045 -12.22
2.22 13.39 20.99 14.34 8.18 19.46 25.17 17.89 14.43 5.232 12.85 19.26 7.035 1.231 -2.337 -4.045 -20.58
2.225 11.06 19.33 16.27 9.933 16.27 23.42 21.12 16.4 7.342 8.449 14.33 6.331 0.1759 -1.348 -6.202 -23.55
2.23 8.629 17.35 18.02 9.303 12.54 21.98 22.7 17.71 8.793 4.944 11.17 8.53 -0.08793 0.5393 -3.056 -22.02
2.235 6.562 15.19 18.29 6.202 8.27 18.88 20.45 16.18 8.134 1.079 8.09 10.02 -1.583 1.528 1.348 -19.33
2.24 5.483 13.21 15.96 1.978 4 12.63 13.66 10.79 5.232 -4.315 2.726 7.562 -5.364 0.08989 3.236 -17.71
2.245 5.573 11.91 11.46 -1.034 0.3596 3.551 3.775 2.607 1.539 -11.15 -5.716 1.319 -10.11 -3.416 1.528 -17.08
2.25 6.382 11.24 6.517 -0.9888 -2.742 -6.607 -6.247 -5.393 -0.9673 -18.16 -15.65 -5.364 -13.28 -6.472 -1.798 -14.92
2.255 6.742 10.29 3.011 2.292 -6.112 -15.73 -13.57 -9.978 -1.319 -23.28 -23.04 -8.354 -12.4 -6.202 -3.685 -8.989
2.26 5.483 8.404 2.067 7.146 -9.573 -21.3 -16.36 -9.483 0.5276 -24.36 -24.27 -5.276 -6.771 -2.337 -1.888 0.4494
2.265 2.607 5.393 3.191 10.79 -11.96 -22.07 -14.88 -5.034 3.385 -20.94 -18.64 2.286 1.055 3.236 3.416 10.25
2.27 -0.809 1.483 4.449 10.97 -12.45 -19.01 -11.78 -0.1798 5.012 -14.29 -9.761 9.321 6.947 8 9.618 16.54
2.275 -3.955 -3.281 3.64 7.146 -11.28 -15.42 -10.16 1.753 4.265 -7.281 -2.55 11.34 8.002 10.16 13.48 17.62
2.28 -6.382 -8.494 0.4944 1.258 -9.438 -14.02 -11.06 0.2247 2.198 -2.427 -0.7035 7.211 5.012 9.348 13.84 15.19
2.285 -7.73 -13.12 -3.281 -3.73 -7.64 -15.55 -13.08 -2.831 0.4397 -0.5393 -4.133 -0.2638 1.319 6.652 11.24 12.13
2.29 -8 -16 -6.157 -6.202 -6.607 -18.61 -14.65 -5.483 -0.5716 -1.258 -9.849 -7.738 -1.319 4.045 6.831 9.618
2.295 -7.64 -16.67 -7.865 -6.607 -6.697 -20.94 -15.19 -7.101 -2.022 -3.236 -13.98 -12.57 -3.341 2.427 1.978 7.101
2.3 -7.011 -15.42 -9.258 -6.562 -7.326 -20.36 -15.06 -8.225 -4.309 -5.034 -14.16 -13.63 -5.452 0.9888 -1.798 3.865
2.305 -6.292 -13.12 -10.83 -7.461 -7.73 -15.87 -14.07 -9.258 -6.683 -5.393 -9.849 -10.55 -7.386 -0.809 -3.146 0.4494
2.31 -5.933 -10.88 -12.22 -9.708 -7.685 -8.899 -11.46 -9.618 -8.002 -4.404 -2.814 -4.309 -8.09 -2.517 -1.708 -1.528
2.315 -6.202 -9.438 -12.45 -12.81 -7.461 -2.022 -6.472 -8.27 -7.562 -2.697 4.309 3.341 -6.595 -2.787 1.978 -0.6292
2.32 -6.742 -8.27 -10.92 -15.69 -6.876 3.236 0.8539 -4.719 -5.496 -0.3596 9.761 10.46 -2.638 -1.708 6.652 2.697
2.325 -6.562 -6.517 -8.09 -17.21 -5.258 7.056 8.899 -0.2247 -3.034 2.427 12.84 15.12 1.759 0 10.61 6.112
2.33 -5.303 -4.27 -5.708 -16.76 -3.056 9.573 14.79 2.607 -1.935 5.213 13.72 15.74 3.781 1.169 12.04 6.292
2.335 -3.596 -3.146 -5.393 -14.29 -1.843 9.843 16.18 2.202 -2.902 6.921 12.49 12.22 2.11 1.438 10.43 2.697
2.34 -2.787 -4.36 -6.831 -10.34 -2.742 6.831 13.62 -0.4494 -4.529 6.742 9.585 6.595 -0.8793 0.809 6.831 -2.247
2.345 -3.326 -7.371 -7.91 -5.798 -5.303 0.9888 10.16 -2.562 -4.748 5.213 5.1 1.231 -2.11 -0.1798 2.697 -5.303
2.35 -4.315 -9.753 -6.562 -1.978 -7.91 -5.978 8.404 -1.888 -3.122 2.787 -0.8793 -2.638 -0.6155 -0.7191 -1.348 -5.393
2.355 -4.315 -9.169 -2.472 0.08989 -8.989 -11.73 8.854 1.573 -0.7474 0.08989 -8.178 -5.54 1.935 -0.809 -5.573 -3.775
2.36 -2.697 -5.034 3.146 1.079 -7.461 -13.89 10.38 6.427 1.539 -2.337 -14.95 -7.738 3.957 -1.528 -8.989 -2.337
2.365 0.2697 1.079 8.854 2.831 -3.64 -11.28 11.91 11.1 3.693 -3.775 -18.29 -8.617 5.276 -2.876 -9.798 -1.708
2.37 3.416 6.337 13.39 6.652 0.8989 -5.124 12.9 14.65 5.672 -3.416 -15.83 -7.123 6.507 -3.865 -6.652 -1.079
2.375 5.303 8.539 15.73 11.69 4.449 1.843 13.03 16.58 7.211 -0.7191 -7.826 -2.814 8.442 -3.236 -0.2697 0.3596
2.38 5.573 8 15.28 15.28 6.787 7.775 12.18 16.4 8.002 4.045 3.166 3.078 11.08 -1.348 6.022 2.607
2.385 5.213 6.607 11.82 14.83 8.764 12.22 9.978 13.44 7.738 9.798 12.84 8.354 12.57 0.2697 7.82 3.685
2.39 4.584 5.888 5.798 9.573 10.61 15.19 5.933 7.371 6.111 13.66 17.67 10.11 11.08 0.809 1.798 1.978
2.395 3.416 5.348 -1.258 1.393 11.24 16 0.1798 -0.6742 3.693 13.39 16.62 7.035 6.419 0.1798 -10.43 -2.157
2.4 1.438 3.955 -7.146 -5.888 9.798 14.65 -5.528 -7.685 2.066 9.438 12.22 1.231 1.231 -0.8989 -22.65 -5.573
2.405 -0.809 1.483 -9.798 -9.079 6.562 11.87 -9.034 -10.97 2.286 4.944 7.65 -3.781 -1.495 -1.438 -28.13 -5.483
2.41 -2.337 -1.213 -9.348 -7.685 2.562 8.539 -10.07 -10.34 3.605 2.517 5.012 -5.628 -1.847 -0.5393 -24.9 -2.157
2.415 -2.607 -3.281 -8.045 -4.27 -1.213 4.899 -10.88 -8.449 3.781 2.697 3.693 -5.012 -2.198 0.7191 -17.17 1.079
2.42 -2.337 -4.449 -8.315 -1.843 -4.36 1.079 -13.71 -8.404 1.495 3.596 1.847 -4.133 -5.012 0 -11.06 1.079
2.425 -2.517 -5.213 -10.74 -2.112 -6.697 -2.562 -18.7 -11.51 -3.078 3.146 -1.495 -5.1 -10.73 -4.315 -10.43 -2.966
2.43 -4.225 -6.427 -14.16 -4.989 -8.674 -6.022 -23.96 -16.72 -8.837 0.4494 -5.892 -8.705 -17.94 -10.97 -14.02 -8.719
2.435 -7.101 -8.27 -16.9 -8.989 -10.56 -8.944 -26.97 -21.66 -14.25 -3.506 -9.761 -13.28 -23.74 -16.81 -17.89 -12.4
2.44 -9.888 -9.933 -18.29 -12.58 -11.6 -10.56 -26.43 -24.45 -17.85 -6.292 -11.34 -16 -25.76 -19.24 -18.25 -11.6
2.445 -10.7 -10.25 -18.88 -14.52 -10.79 -10.07 -23.1 -24.85 -18.91 -6.921 -10.55 -15.12 -23.74 -17.35 -15.19 -7.82
2.45 -9.169 -9.124 -19.82 -14.7 -8.404 -8.225 -19.91 -24.13 -18.25 -6.562 -8.53 -11.52 -20.14 -12.67 -12.22 -5.303
2.455 -6.292 -7.506 -21.44 -13.66 -5.573 -6.876 -19.37 -23.46 -17.28 -6.831 -6.859 -8.09 -17.85 -8.36 -12.31 -7.371
2.46 -3.146 -6.022 -22.02 -11.64 -3.146 -6.787 -20.94 -22.29 -16.31 -8.09 -6.243 -6.859 -17.41 -7.101 -14.47 -13.12
2.465 0 -4.36 -18.92 -8.09 -0.7191 -7.056 -21.3 -18.88 -14.42 -8.539 -6.243 -8.178 -17.15 -8.719 -15.55 -18.7
2.47 2.966 -1.978 -10.74 -2.517 1.888 -6.742 -17.35 -12.09 -10.73 -7.101 -6.595 -11.26 -15.04 -9.798 -14.02 -20.13
2.475 5.124 0.3596 0.809 4.854 4.09 -6.337 -8.899 -2.652 -5.1 -5.034 -7.826 -15.21 -10.02 -7.101 -11.87 -16.27
2.48 5.393 1.079 12.22 13.21 4.854 -7.101 1.348 7.236 1.935 -4.315 -10.11 -18.91 -2.374 -0.6292 -12.49 -9.079
2.485 3.326 -0.8539 20.09 20.94 3.865 -9.573 9.843 15.24 8.969 -5.663 -12.84 -21.1 5.979 6.742 -16.54 -2.067
2.49 0.08989 -4.764 23.01 25.93 2.112 -12.72 13.93 19.64 13.85 -7.101 -14.51 -20.31 12.31 11.69 -20.76 2.337
2.495 -1.888 -7.775 21.8 26.74 1.528 -14.02 13.57 20.63 15.48 -5.124 -12.66 -14.95 15.3 13.03 -19.6 4.854
2.5 -0.6292 -6.652 18.97 23.87 4.18 -10.25 11.46 19.91 14.86 2.607 -5.452 -4.045 16.27 11.87 -9.438 8.27
2.505 4.494 -0.08989 17.03 19.69 10.34 -0.2247 11.01 19.33 14.2 14.83 6.507 11.26 17.5 10.79 7.64 13.75
2.51 11.15 9.438 16.31 16.13 17.48 12.99 13.03 18.92 14.25 26.25 20.22 26.73 19.26 11.42 24.54 19.87
2.515 15.55 17.12 14.88 13.53 21.66 23.69 15.42 17.26 13.89 31.64 31.04 37.28 20.05 12.94 34.16 23.19
2.52 15.37 18.88 10.47 10.47 20.9 27.82 15.33 12.99 11.74 30.02 35.7 40.27 18.11 12.76 35.15 21.93
2.525 11.15 14.43 2.652 5.573 16.76 25.8 11.87 6.157 7.518 24.72 33.85 37.02 13.19 9.708 31.46 16.99
2.53 5.753 7.011 -6.831 -1.169 12.4 21.17 6.157 -1.528 2.11 20.04 27.61 30.86 6.595 5.303 28.4 11.33
2.535 1.978 0.9438 -15.28 -7.82 9.978 17.44 0.2247 -7.64 -2.77 17.71 20.75 24.89 0.3517 2.247 28.13 7.73
2.54 0.9888 -0.8989 -20.13 -11.42 9.753 16.27 -4.135 -10.52 -5.628 16.27 16.36 20.49 -3.341 1.079 29.12 6.831
2.545 2.787 1.753 -20.49 -10.2 10.34 16.85 -6.876 -10.47 -6.287 13.48 15.12 17.15 -4.573 0.5393 28.76 6.831
2.55 5.753 7.011 -17.75 -5.798 10.11 16.85 -9.124 -9.618 -6.551 8.449 14.95 13.54 -5.452 -0.7191 25.17 5.213
2.555 8.539 11.96 -14.16 -2.022 8.539 14.65 -11.73 -9.753 -7.958 2.517 13.19 8.881 -7.474 -2.787 19.24 1.169
2.56 10.34 14.79 -11.01 -1.303 6.921 11.19 -13.39 -10.7 -9.805 -1.438 8.969 4.221 -9.936 -4.674 13.3 -3.865
2.565 11.33 15.87 -7.73 -2.831 7.191 9.124 -11.33 -10.47 -9.893 -1.888 3.693 0.8793 -10.64 -5.034 8.899 -7.64
2.57 11.87 16.4 -3.281 -3.326 9.663 10.02 -4.36 -7.416 -6.947 0.08989 -0.2638 -0.6155 -8.617 -3.146 5.393 -9.169
2.575 12.31 17.39 2.292 -0.08989 12.58 12.94 5.528 -1.798 -1.803 2.247 -1.319 -0.8793 -4.66 0.08989 1.798 -9.169
2.58 12.76 19.1 8 6.652 14.07 15.82 14.56 4.494 3.649 2.787 0 -0.1759 0 2.966 -1.169 -8.27
2.585 13.39 21.03 12.49 13.44 13.57 16.9 19.55 9.303 7.518 1.888 1.319 1.407 3.957 4.404 -2.427 -6.921
2.59 13.93 22.16 14.65 16 11.69 15.33 19.6 11.42 8.617 0 0.4397 3.429 6.683 4.764 -2.067 -5.573
2.595 13.3 21.03 14.52 12.49 9.079 11.06 16.27 11.33 7.123 -2.966 -3.078 4.309 7.914 4.315 -1.708 -4.135
2.6 10.88 17.03 12.9 5.438 6.292 5.303 12.4 10.7 5.056 -6.472 -6.947 3.429 8.53 2.787 -2.966 -2.607
2.605 6.472 10.97 10.97 -0.1798 3.64 0 9.888 10.74 4.617 -9.618 -8.53 1.407 9.233 0.5393 -4.944 -0.7191
2.61 0.9888 4.135 9.034 -1.213 0.8989 -3.506 7.955 11.15 6.551 -10.88 -6.947 0 9.761 -0.5393 -5.483 1.708
2.615 -4.674 -2.202 6.787 1.888 -2.157 -5.438 4.27 10.65 9.761 -9.798 -3.781 0.1759 9.936 1.169 -2.427 4.764
2.62 -9.798 -7.371 4.135 5.933 -5.169 -6.517 -2.427 8.315 12.62 -6.921 -1.671 1.759 9.497 4.944 3.326 7.73
2.625 -13.39 -10.92 1.753 7.91 -7.056 -7.461 -11.1 4.36 13.54 -4.135 -2.638 2.638 8.266 7.64 8.449 8.989
2.63 -15.28 -13.03 0.08989 6.831 -7.685 -8.989 -19.01 -0.4494 11.12 -3.685 -6.507 0.1759 5.1 6.472 8.539 7.011
2.635 -15.64 -14.43 -1.258 3.73 -7.955 -11.24 -24.09 -5.213 5.584 -6.022 -11.34 -5.804 -0.08793 1.169 3.326 2.697
2.64 -15.01 -15.55 -2.921 0.2247 -8.494 -12.9 -25.26 -8.809 -0.6155 -8.989 -14.07 -11.52 -5.364 -5.213 -2.607 -0.6292
2.645 -13.75 -16.04 -5.079 -2.787 -9.079 -11.96 -22.92 -10.38 -4.353 -9.348 -12.93 -12.05 -7.738 -8.36 -3.416 0.2697
2.65 -12.31 -15.82 -7.326 -5.798 -9.618 -8.225 -18.61 -9.933 -4.265 -6.112 -8.178 -5.892 -6.243 -5.753 2.067 5.124
2.655 -11.51 -15.37 -9.079 -9.079 -10.61 -3.91 -14.47 -8.584 -1.495 -1.798 -2.198 2.902 -2.638 0.3596 9.348 10.16
2.66 -11.69 -15.33 -9.888 -11.64 -12.4 -1.843 -11.6 -7.775 1.539 0.08989 2.286 8.002 0.08793 4.854 11.42 11.15
2.665 -12.67 -15.87 -9.933 -11.91 -14.65 -2.966 -9.708 -8.494 3.034 -2.427 3.254 5.804 -0.08793 4.404 5.393 6.382
2.67 -13.57 -16.49 -9.798 -9.663 -16.85 -5.843 -8.09 -10.7 2.154 -8.18 0.3517 -2.374 -3.254 0.4494 -5.663 -1.618
2.675 -13.75 -16.4 -9.753 -6.517 -18.34 -8.135 -6.112 -12.99 -0.3957 -14.02 -5.276 -11.17 -6.947 -2.697 -15.19 -8.449
2.68 -12.85 -14.83 -8.809 -4.404 -18.34 -7.91 -3.191 -12.94 -2.682 -16.81 -11.26 -15.12 -8.442 -2.966 -17.98 -11.06
2.685 -10.52 -11.51 -5.169 -3.82 -16.54 -5.483 1.034 -8.854 -3.166 -15.64 -15.3 -12.84 -6.595 -1.438 -14.74 -10.61
2.69 -7.011 -7.506 1.618 -3.461 -13.93 -3.64 6.067 -1.393 -1.979 -12.85 -16.88 -8.266 -3.341 -0.809 -10.79 -10.79
2.695 -2.787 -4.584 9.888 -1.798 -12 -5.169 10.61 6.517 -0.4836 -11.33 -16.27 -6.155 -1.407 -2.427 -10.34 -13.21
2.7 1.438 -3.506 16.63 1.438 -11.1 -9.573 13.8 12.18 0.7035 -11.78 -14.33 -7.211 -0.8793 -4.764 -12.58 -15.91
2.705 5.663 -3.101 19.69 5.034 -9.978 -12.85 15.73 14.25 2.066 -12.58 -11.17 -8.442 -0.08793 -4.854 -12.67 -15.1
2.71 9.438 -1.303 19.24 7.101 -7.685 -11.33 16.72 13.26 3.517 -11.78 -7.035 -6.859 2.022 -1.169 -8 -9.618
2.715 12.04 2.562 17.03 7.146 -4.539 -5.348 16.49 10.79 4.441 -9.258 -2.99 -2.902 4.66 4.315 -0.8989 -2.337
2.72 12.94 7.506 15.24 6.742 -1.933 1.258 14.74 8.36 4.309 -6.562 -0.1759 0.08793 5.892 7.281 3.236 2.157
2.725 12.31 11.19 14.79 7.685 -0.764 4.494 11.91 6.562 2.902 -5.124 0.5276 -0.7914 4.748 5.393 1.438 1.528
2.73 10.88 11.73 14.65 9.753 -1.169 2.921 9.169 5.079 0.3078 -4.854 -0.4397 -5.452 1.671 0.4494 -4.225 -2.247
2.735 8.899 8.809 13.17 10.38 -2.292 -1.528 7.685 3.64 -2.858 -4.674 -1.671 -10.11 -1.231 -3.146 -8.36 -4.584
2.74 6.562 4.494 9.888 7.551 -2.652 -5.079 8.584 2.831 -5.1 -2.966 -1.671 -10.55 -1.319 -3.326 -6.742 -2.247
2.745 4.135 1.438 6.472 2.112 -1.348 -5.258 11.73 3.326 -5.056 0.3596 -0.2638 -6.243 1.759 -0.9888 -0.7191 3.236
2.75 1.618 0.6742 4.494 -2.427 0.6742 -3.551 14.88 4.584 -3.21 3.146 0.7035 -1.407 5.54 1.258 3.416 7.101
2.755 -1.079 0.809 3.865 -3.236 1.528 -3.91 14.79 4.899 -1.539 3.056 -0.9673 -1.847 6.507 1.438 0.5393 5.933
2.76 -3.865 -0.2697 2.787 -0.3146 0.3596 -8.225 9.843 2.697 -1.671 0.3596 -5.54 -8.617 3.781 -0.8989 -7.64 1.079
2.765 -6.202 -3.506 -0.4045 2.921 -1.573 -14.29 1.933 -2.022 -3.869 -1.708 -10.2 -17.67 -0.7914 -4.315 -14.2 -2.517
2.77 -7.82 -8.18 -6.022 2.247 -2.787 -18.38 -5.213 -7.596 -7.298 -0.3596 -11.87 -22.86 -4.66 -6.382 -13.12 -0.9888
2.775 -9.438 -12.94 -12.4 -3.775 -2.966 -18.97 -8.719 -11.6 -10.33 4.494 -9.761 -21.37 -5.892 -5.843 -4.584 5.483
2.78 -11.51 -16.72 -16.81 -12.31 -2.876 -17.75 -7.64 -12.18 -11.17 9.888 -5.892 -14.95 -3.869 -3.236 5.393 12.94
2.785 -13.84 -18.97 -17.12 -18.25 -3.371 -17.39 -3.281 -9.348 -8.925 12.31 -3.429 -8.266 0.1759 -0.3596 9.708 16.36
2.79 -15.64 -19.69 -13.57 -18.43 -4.809 -19.1 1.573 -4.854 -5.144 10.07 -4.221 -5.276 3.693 1.708 5.843 13.48
2.795 -16 -18.74 -8.494 -13.89 -6.652 -21.35 4.764 -1.034 -2.374 4.854 -6.859 -6.155 4.836 2.517 -2.517 6.202
2.8 -14.56 -15.82 -4.27 -8.449 -7.056 -20.31 6.022 1.169 -1.935 0.809 -7.65 -7.298 3.781 1.708 -8.539 -0.8989
2.805 -11.42 -10.83 -2.067 -5.348 -4.494 -13.48 6.966 2.202 -3.21 1.079 -3.869 -4.836 2.11 -0.08989 -7.82 -4.494
2.81 -7.101 -4.899 -1.663 -5.393 0.5393 -2.697 8.449 2.652 -4.792 4.854 3.605 1.407 1.231 -1.079 -1.978 -3.865
2.815 -2.787 -0.3146 -2.472 -6.921 5.933 6.652 9.483 2.562 -5.54 8.809 10.46 7.914 1.407 0.2697 3.685 -0.8989
2.82 0.5393 1.573 -3.461 -7.596 9.438 10.2 8.719 1.888 -4.441 9.708 12.84 11.08 2.726 3.506 5.303 2.157
2.825 3.236 1.708 -3.371 -5.888 10.56 8.09 6.112 1.258 -1.363 7.281 10.2 9.673 4.309 6.742 3.236 4.045
2.83 5.393 2.697 -1.303 -2.112 10.02 4.18 2.876 1.618 2.462 3.685 5.012 5.628 5.1 8.18 0.08989 3.955
2.835 7.371 6.562 2.697 2.382 9.258 2.562 0.9438 3.685 5.364 1.258 1.231 2.022 4.221 7.371 -1.618 2.337
2.84 9.348 13.57 7.64 6.517 9.708 5.393 1.708 7.281 6.551 1.169 1.671 1.319 2.55 4.854 -1.258 0.2697
2.845 11.96 21.75 12 9.888 11.96 11.64 4.944 10.83 6.067 2.697 5.628 3.605 0.8793 1.528 0.5393 -0.8989
2.85 15.1 27.82 14.07 12.04 14.74 17.62 7.91 12 3.957 3.685 10.02 6.683 -0.8793 -1.258 2.427 -1.079
2.855 17.62 29.03 12.72 12.45 15.6 19.42 6.921 9.258 0.5716 2.517 11.34 7.65 -3.605 -3.146 3.685 -0.4494
2.86 18.16 24.85 8.494 11.01 12.85 15.82 0.6292 3.551 -2.462 -0.4494 8.793 5.979 -6.771 -4.045 4.854 0.1798
2.865 15.91 17.44 3.506 8.27 7.056 9.079 -8.449 -2.022 -3.473 -3.416 4.045 3.517 -8.793 -3.955 6.742 0.6292
2.87 11.06 9.798 -0.2697 5.169 0.1348 2.652 -15.82 -4.719 -2.11 -4.764 0.1759 2.902 -8.442 -1.888 8.36 0.7191
2.875 4.764 3.82 -2.202 2.382 -5.708 -1.034 -17.57 -3.64 0.3957 -4.135 -0.7914 5.188 -5.276 1.978 8.539 1.079
2.88 -1.169 -0.1348 -2.742 0.2247 -8.899 -1.213 -12.76 -0.08989 2.594 -1.978 1.231 9.673 -0.2638 5.753 7.191 2.517
2.885 -5.483 -2.562 -2.831 -1.258 -8.899 1.573 -3.955 3.506 3.254 1.348 5.276 14.16 4.397 6.742 5.483 4.944
2.89 -7.91 -4.18 -3.416 -2.337 -6.831 5.438 3.91 4.854 1.803 4.764 8.969 15.92 6.067 4.674 4.315 6.742
2.895 -9.169 -5.393 -4.764 -3.281 -4.584 7.955 6.831 3.416 -1.143 7.101 10.46 13.63 3.781 1.169 3.326 6.472
2.9 -9.888 -5.663 -6.112 -4.135 -3.056 8.225 4.404 0.764 -3.737 7.461 9.409 8.354 -0.3517 -1.258 1.888 4.045
2.905 -9.528 -4.315 -6.022 -4.674 -1.978 7.236 0.04494 -0.6742 -4.045 5.483 6.419 2.726 -3.429 -1.438 -0.809 0.5393
2.91 -7.551 -1.573 -3.865 -4.854 -1.258 5.843 -2.472 0 -1.979 1.169 2.286 -1.495 -4.045 0.3596 -5.034 -2.697
2.915 -4.494 0.6742 -0.6292 -4.854 -1.573 4 -2.112 1.933 0.6155 -4.584 -2.11 -3.693 -2.902 2.607 -10.43 -4.944
2.92 -1.798 0.764 1.438 -4.539 -3.281 1.618 0.1348 3.326 2.242 -9.888 -5.364 -4.045 -1.143 3.326 -14.92 -5.843
2.925 -0.7191 -1.528 0.9888 -3.416 -5.483 -0.5393 2.697 3.281 2.242 -12.31 -5.892 -2.11 0.4397 2.517 -16.27 -5.213
2.93 -1.438 -4.404 -1.438 -1.258 -6.697 -1.169 5.169 2.517 1.011 -10.88 -3.254 1.935 2.022 1.708 -13.57 -2.966
2.935 -2.966 -5.573 -3.64 1.348 -5.888 0.6292 8.36 2.787 -0.1759 -6.562 1.759 7.298 4.133 2.517 -7.91 0.6292
2.94 -3.416 -3.551 -2.652 3.461 -2.966 5.034 13.3 5.753 0.1759 -1.618 6.947 12.05 7.298 4.404 -1.348 5.124
2.945 -1.708 0.8989 2.472 4.225 0.8989 10.65 19.33 10.88 2.814 1.708 9.936 14.16 10.73 5.483 3.685 8.539
2.95 1.258 5.079 9.303 3.236 3.596 14.25 22.7 14.79 5.936 2.067 9.057 11.61 12.05 4.854 5.034 8.27
2.955 3.236 5.798 12.85 0.9438 3.191 12.67 19.24 13.57 6.859 -0.2697 4.573 4.397 9.057 2.517 1.978 3.056
2.96 2.697 2.157 9.708 -1.483 0.04494 5.483 7.91 5.978 4.485 -3.596 -1.759 -4.924 2.198 -1.079 -3.326 -5.034
2.965 0.08989 -3.551 1.169 -2.652 -3.506 -4.135 -7.371 -4.944 -0.08793 -5.753 -7.474 -12.66 -5.979 -5.573 -7.371 -12.13
2.97 -2.157 -8 -7.73 -2.022 -5.303 -12.09 -20.54 -14.43 -4.748 -6.022 -11.26 -16.8 -12.57 -9.888 -8.09 -14.92
2.975 -2.517 -9.079 -12 -0.3146 -4.674 -15.69 -26.83 -18.38 -7.562 -4.944 -12.57 -17.15 -15.65 -12.76 -5.573 -12.67
2.98 -0.3596 -6.876 -10.07 0.9438 -2.337 -14.16 -25.3 -16.13 -7.386 -3.056 -11.34 -14.86 -14.42 -13.39 -1.169 -6.742
2.985 3.146 -2.742 -4.404 1.124 0.6742 -8.539 -18.43 -10.11 -4.353 -0.6292 -7.123 -10.46 -9.585 -11.15 3.775 -0.08989
2.99 6.562 1.573 0.4045 0.3146 3.236 -0.8989 -10.47 -4.18 -0.1759 2.247 -0.5276 -4.485 -3.341 -6.112 8.449 4.854
2.995 8.539 5.034 1.438 -0.764 4.36 6.022 -4.899 -0.809 3.166 5.124 6.683 1.583 1.759 0.1798 12.4 7.82
3 9.258 7.416 -0.5393 -1.213 4.36 10.61 -2.742 0 5.1 7.281 12.4 6.155 4.485 4.674 15.82 9.528
3.005 9.258 9.124 -2.382 -0.5393 4.225 12.36 -2.787 -0.1798 5.804 8.36 14.51 7.474 4.748 5.124 17.8 10.7
3.01 9.169 10.2 -1.798 0.8539 4.764 11.51 -3.551 -0.809 5.188 7.91 12.22 4.748 2.726 1.888 16.45 10.34
3.015 8.899 10.38 0.4494 2.112 5.708 8.449 -4.584 -2.157 3.122 6.202 6.947 -0.6155 -0.8793 -2.607 11.24 7.64
3.02 8.539 9.573 1.888 2.697 6.652 4.719 -5.483 -4.225 0.2638 4.045 1.319 -5.54 -4.397 -6.652 4.135 2.966
3.025 8.539 8.539 1.034 2.831 7.146 2.202 -5.528 -6.067 -1.891 2.337 -2.198 -6.331 -6.155 -9.169 -1.528 -1.888
3.03 8.899 7.73 -1.573 2.966 6.697 1.573 -4.539 -6.472 -2.682 1.258 -3.341 -2.726 -5.628 -9.798 -3.865 -5.124
3.035 8.899 6.742 -4.315 2.697 4.809 1.528 -3.236 -5.034 -2.33 0.1798 -3.429 2.198 -3.517 -8.809 -3.506 -6.112
3.04 7.281 4.584 -5.888 1.438 2.067 0.6292 -2.607 -2.652 -1.275 -1.079 -4.045 5.364 -0.7035 -6.562 -2.607 -5.303
3.045 3.865 1.303 -6.202 -0.764 -0.1348 -1.258 -2.831 -0.764 0 -1.888 -5.1 5.364 2.286 -3.506 -2.787 -4.404
3.05 -0.4494 -2.292 -6.067 -3.281 -1.124 -3.191 -3.506 -0.7191 0.6595 -2.067 -5.892 3.078 4.221 0 -3.865 -5.034
3.055 -4.045 -5.169 -6.427 -4.944 -1.303 -4.18 -3.775 -2.382 0.3078 -1.528 -5.54 0.6155 4.133 2.787 -4.584 -7.011
3.06 -5.483 -6.562 -7.281 -4.854 -1.348 -3.506 -2.831 -4.494 -0.7035 -0.6292 -4.045 -0.4397 2.374 2.966 -3.506 -8.989
3.065 -4.764 -6.292 -7.73 -2.966 -1.573 -1.258 -0.3596 -5.798 -1.803 0.1798 -2.286 0.1759 -0.1759 -0.4494 -1.258 -9.618
3.07 -3.146 -5.213 -7.64 -0.5393 -2.022 1.034 2.607 -6.337 -2.902 0.4494 -1.319 1.231 -2.638 -6.112 0 -8.899
3.075 -2.427 -4.539 -7.551 0.6742 -2.742 1.798 4.494 -6.921 -4.397 -0.08989 -1.583 1.583 -4.748 -11.33 -1.079 -7.64
3.08 -3.056 -4.404 -7.91 0.04494 -3.011 1.079 4.764 -7.551 -5.672 -0.8989 -1.407 1.759 -5.54 -13.84 -3.056 -5.753
3.085 -3.865 -3.82 -8 -1.663 -1.888 1.079 4.629 -7.191 -5.672 -0.6292 1.055 3.693 -4.397 -12.85 -2.337 -2.337
3.09 -3.416 -1.663 -6.652 -3.056 0.9438 3.73 5.213 -4.899 -4.089 1.708 6.595 8.178 -1.671 -8.719 3.056 2.787
3.095 -1.348 2.022 -3.685 -3.326 4.764 8.809 6.337 -0.9438 -1.803 5.933 13.45 13.89 1.583 -2.517 11.42 9.079
3.1 1.348 6.292 0 -2.472 8.584 14.11 6.921 3.371 0.6595 11.06 18.91 18.73 4.748 3.416 18.7 14.56
3.105 3.236 9.753 3.236 -0.6292 11.37 17.35 6.562 6.966 3.517 15.46 20.66 21.28 8.002 8 21.66 17.17
3.11 3.416 11.19 5.798 1.933 12.04 16.81 5.888 9.618 6.815 17.17 18.38 20.75 11.17 11.15 19.42 16.45
3.115 1.888 9.843 8.27 5.079 9.798 12.18 6.382 12.31 10.55 15.19 13.19 17.94 14.16 13.84 14.02 13.93
3.12 -0.6292 5.888 11.51 8.315 5.303 5.258 9.303 16.09 14.77 10.61 7.386 13.98 17.32 16 8.629 12.49
3.125 -2.876 0.809 15.73 11.19 0.4944 -1.124 14.16 20.45 18.82 5.213 2.374 10.11 20.4 16.99 5.124 13.21
3.13 -4.045 -3.685 19.24 12.67 -2.921 -5.483 17.75 22.92 20.75 0.8989 -1.935 5.892 21.46 16.27 2.607 14.65
3.135 -4.045 -6.697 19.64 12 -4.584 -8.404 16.04 20.76 18.82 -2.247 -6.419 0.4397 18.29 13.39 -0.8989 13.57
3.14 -2.966 -8 16.04 9.573 -4.764 -10.79 7.955 13.71 13.06 -4.584 -10.99 -6.155 10.82 8.449 -5.753 8.27
3.145 -0.809 -7.461 10.34 6.697 -3.551 -12.36 -3.011 4.584 5.584 -6.652 -14.16 -12.49 1.055 2.697 -10.34 -0.08989
3.15 2.247 -5.348 5.393 4.404 -1.393 -12.04 -11.69 -2.787 -1.275 -8.449 -14.86 -16.71 -8.178 -1.798 -13.12 -8.989
3.155 5.483 -2.157 3.011 2.562 1.169 -9.393 -14.47 -6.427 -6.199 -9.438 -13.01 -18.2 -14.77 -4.045 -13.93 -15.73
3.16 8.09 1.753 2.607 0.3596 3.91 -4.449 -11.78 -6.697 -8.31 -8.989 -9.409 -16.8 -17.41 -4.764 -13.48 -19.69
3.165 9.528 6.067 2.067 -2.562 6.652 1.798 -7.056 -5.933 -7.914 -6.652 -5.364 -13.45 -16.71 -5.753 -12.04 -21.57
3.17 9.438 9.348 -0.3596 -5.888 8.36 7.101 -4.674 -6.787 -6.595 -3.056 -1.935 -9.936 -15.04 -7.82 -10.16 -22.65
3.175 7.371 9.618 -5.348 -8.854 7.955 8.584 -6.966 -10.38 -6.331 0.6292 0.4397 -8.178 -14.51 -10.07 -7.64 -22.83
3.18 3.596 5.753 -11.46 -10.88 5.393 5.348 -12.63 -15.64 -8.002 3.955 2.11 -8.53 -15.39 -11.51 -4.315 -20.85
3.185 -0.7191 -1.124 -16.54 -11.82 1.798 -1.034 -18.25 -20.67 -10.86 6.652 3.078 -9.936 -16.8 -11.78 -0.08989 -16.36
3.19 -4.494 -8.449 -19.24 -12.4 -1.753 -8.045 -21.39 -24.04 -13.89 8.629 2.902 -11.08 -17.85 -10.88 3.955 -10.61
3.195 -6.742 -13.57 -19.82 -13.26 -4.944 -13.66 -22.16 -25.39 -16.18 9.528 1.143 -10.9 -18.2 -9.708 7.191 -5.663
3.2 -7.551 -15.46 -19.06 -14.16 -7.326 -16.72 -21.44 -24.36 -16.8 9.528 -1.319 -8.969 -17.23 -9.169 9.798 -2.247
3.205 -7.64 -14.7 -17.53 -13.93 -8.36 -16.45 -19.51 -20.72 -15.26 9.258 -2.814 -5.452 -14.33 -9.079 12.58 0.6292
3.21 -7.551 -12.9 -15.24 -12.18 -7.91 -13.39 -16 -14.88 -12.4 9.079 -2.286 -1.055 -9.761 -7.73 15.19 4.225
3.215 -7.91 -11.6 -12.45 -9.798 -6.427 -8.854 -10.79 -8.135 -9.497 9.079 0.4397 3.166 -4.309 -3.775 16.72 9.169
3.22 -8.18 -10.61 -9.303 -7.775 -4.225 -3.64 -4.09 -1.888 -6.551 9.079 4.66 7.826 1.407 2.157 17.53 14.65
3.225 -7.281 -8.449 -5.438 -6.112 -1.393 2.247 3.416 3.236 -2.594 9.618 9.673 13.63 7.298 8.539 18.7 19.42
3.23 -4.225 -4.18 -0.5843 -3.596 2.022 8.449 10.83 7.461 2.594 10.7 14.68 20.58 12.49 13.75 20.67 21.93
3.235 0.2697 1.528 4.944 0.8989 5.798 13.8 16.94 11.24 8.002 12.13 18.91 26.64 16 16.9 22.29 21.66
3.24 4.944 7.281 10.65 7.551 9.708 17.53 21.39 15.01 12.05 13.21 21.72 29.63 17.67 16.99 21.39 18.7
3.245 8.809 12 15.87 14.74 13.48 19.64 24.45 18.7 13.85 12.85 22.34 28.75 17.32 13.75 16.36 12.85
3.25 11.06 15.55 19.64 19.6 16.04 20.54 25.75 21.03 13.06 9.888 19.96 24.62 14.77 8.449 7.461 4.225
3.255 11.51 17.75 20.85 19.78 15.91 19.96 24.4 20.72 10.33 3.955 14.77 18.91 10.55 3.596 -2.517 -5.843
3.26 10.43 18.47 19.06 15.69 12.94 17.8 19.6 17.44 7.298 -3.416 8.002 13.28 5.716 1.169 -9.438 -14.65
3.265 8.449 17.48 14.83 10.02 8.539 14.11 11.33 11.82 5.408 -9.798 1.231 8.178 1.583 1.798 -11.42 -19.51
3.27 6.292 14.47 9.034 5.933 4.09 8.584 0.08989 4.404 4.001 -13.75 -4.836 2.11 -2.462 4.135 -10.07 -19.87
3.275 4.045 9.528 2.517 4.719 0.1798 0.9888 -13.17 -4.18 1.539 -15.46 -10.99 -6.243 -7.562 5.303 -9.258 -17.62
3.28 1.618 3.551 -3.73 5.483 -3.326 -7.685 -26.25 -12.63 -2.242 -16.09 -17.23 -16.36 -13.45 2.787 -11.15 -15.1
3.285 -0.8989 -1.978 -8.539 5.978 -6.562 -15.42 -35.73 -18.92 -6.067 -16.09 -23.13 -25.24 -18.47 -2.966 -14.65 -13.3
3.29 -3.416 -6.472 -11.1 4.09 -9.483 -20.67 -39.19 -21.44 -8.398 -15.55 -27.35 -30.78 -20.66 -8.449 -17.26 -12.13
3.295 -6.112 -10.2 -11.78 -0.6292 -12.09 -23.82 -36.94 -19.91 -8.881 -14.38 -29.37 -32.89 -19.61 -9.888 -18.07 -10.52
3.3 -8.989 -13.71 -11.24 -6.652 -13.89 -25.98 -31.33 -15.73 -7.958 -12.76 -29.37 -33.15 -16.09 -7.101 -17.62 -8.18
3.305 -11.69 -16.76 -10.11 -10.97 -14.7 -27.82 -25.12 -11.01 -6.683 -11.6 -27.79 -32.8 -12.13 -3.056 -17.62 -6.112
3.31 -13.93 -18.92 -8.854 -11.69 -15.15 -29.26 -19.82 -7.775 -6.375 -11.42 -25.68 -31.83 -9.585 -1.258 -18.79 -5.303
3.315 -15.73 -20.04 -7.91 -9.393 -16.27 -29.48 -15.15 -6.652 -7.386 -12.49 -23.13 -28.93 -8.793 -2.697 -20.31 -5.753
3.32 -17.26 -20.22 -7.371 -6.607 -17.98 -27.33 -9.438 -6.517 -8.53 -13.48 -19.61 -22.69 -8.002 -5.573 -20.22 -5.753
3.325 -18.16 -19.64 -6.966 -5.618 -19.19 -21.98 -1.528 -5.483 -8.09 -12.94 -14.6 -13.72 -5.012 -6.921 -17.44 -3.865
3.33 -18.16 -18.65 -6.337 -6.921 -18.92 -14.34 7.146 -3.011 -5.628 -10.88 -8.705 -4.573 -0.1759 -4.854 -13.12 -0.2697
3.335 -17.44 -17.71 -5.438 -8.674 -17.3 -6.876 13.75 0.3146 -2.154 -8 -3.078 2.198 5.012 0 -9.079 3.865
3.34 -16.09 -16.63 -4.18 -8.18 -14.52 -1.258 16.67 3.91 1.363 -4.944 1.759 6.947 9.497 5.213 -5.213 7.91
3.345 -14.02 -14.7 -2.337 -4.27 -10.52 3.056 17.26 7.371 4.704 -1.348 6.771 12.31 13.45 8.629 0 12.31
3.35 -10.61 -11.01 0.04494 1.079 -5.213 7.551 18.29 10.52 7.386 3.236 12.49 19.79 17.15 10.52 6.921 17.35
3.355 -5.753 -5.393 2.787 4.135 0.809 12.67 21.35 13.03 8.925 7.91 18.29 27.52 20.14 11.78 13.03 21.84
3.36 0.08989 1.888 6.067 2.921 6.562 17.8 25.98 14.79 9.717 10.61 22.6 31.66 21.28 12.13 14.83 23.46
3.365 6.382 9.933 10.56 -0.3146 10.88 21.89 30.43 16.09 10.42 9.888 23.92 29.55 20.05 10.97 10.88 20.58
3.37 12.04 17.17 16.45 -0.8539 12.85 23.82 33.21 17.21 11.17 5.753 21.9 22.07 16.44 8.09 3.416 14.02
3.375 15.73 21.89 22.61 4.225 12.4 23.46 34.29 18.65 11.56 0.7191 18.11 13.54 12.31 5.213 -2.337 7.281
3.38 16.81 23.6 27.33 13.44 10.79 22.34 35.28 20.94 11.56 -2.067 15.39 9.233 10.38 3.685 -2.337 4.674
3.385 15.91 23.28 29.26 21.39 9.708 22.52 37.93 24.04 11.52 -1.528 15.3 11.34 12.13 3.955 3.056 7.64
3.39 13.75 22.43 28.27 22.47 9.034 24.13 41.75 26.74 11.21 0.2697 16.8 16.97 15.83 5.573 8.899 13.3
3.395 10.52 21.26 24.9 15.33 7.056 24.72 43.33 27.46 10.2 -0.7191 16.88 20.75 18.38 7.011 9.348 17.08
3.4 6.112 18.61 19.87 3.955 2.472 20.94 38.97 24.94 8.442 -6.472 13.01 18.99 17.85 6.742 3.685 16.36
3.405 1.348 13.08 13.35 -5.393 -3.91 11.6 26.92 18.97 6.023 -14.92 4.748 12.05 14.33 4.584 -3.775 12.13
3.41 -2.966 4.27 5.124 -9.124 -10.2 -2.202 8.315 9.933 2.638 -21.93 -6.507 2.374 8.881 1.618 -8.36 7.101
3.415 -6.112 -6.337 -4.629 -8.449 -14.83 -17.75 -13.03 -0.809 -1.891 -24.63 -18.64 -7.562 2.726 -0.809 -8.899 3.416
3.42 -8 -15.96 -14.16 -7.101 -17.57 -31.64 -31.73 -10.88 -6.595 -23.28 -29.11 -16.53 -2.902 -2.787 -8.27 0.9888
3.425 -8.809 -21.89 -20.49 -7.416 -19.01 -40.85 -42.7 -17.53 -9.629 -20.22 -36.32 -23.92 -7.123 -4.854 -10.16 -1.438
3.43 -9.258 -23.64 -21.62 -9.169 -20.13 -44.45 -44.18 -19.69 -10.24 -18.16 -39.04 -29.46 -9.849 -6.562 -15.73 -5.393
3.435 -9.978 -23.01 -18.56 -10.34 -21.08 -43.69 -38.92 -18.34 -9.101 -17.35 -37.64 -32.45 -11.26 -7.461 -21.84 -9.978
3.44 -11.06 -22.38 -14.56 -9.663 -20.54 -40.31 -32 -15.91 -7.167 -15.91 -32.89 -32.01 -11.26 -7.551 -23.82 -13.12
3.445 -11.96 -22.61 -12.67 -7.371 -17.03 -35.28 -27.55 -14.61 -5.232 -11.69 -26.38 -28.31 -10.29 -7.73 -19.69 -13.57
3.45 -11.96 -22.74 -13.75 -5.079 -11.1 -29.26 -26.88 -15.19 -4.001 -5.034 -20.05 -23.21 -9.321 -8.36 -12.85 -12.49
3.455 -11.06 -21.66 -16.22 -4.045 -4.944 -22.92 -28.04 -16.63 -3.825 1.348 -15.21 -19.43 -9.585 -8.899 -8.719 -12.22
3.46 -9.438 -18.56 -17.66 -4 -0.1798 -16.31 -27.69 -16.94 -4.309 5.213 -11.17 -17.85 -10.9 -9.079 -10.07 -14.47
3.465 -7.101 -13.48 -16.4 -3.685 3.551 -8.494 -23.06 -14.97 -4.792 7.191 -6.067 -17.06 -12.13 -8.809 -14.47 -18.43
3.47 -3.955 -7.146 -12.49 -2.382 7.865 0.8989 -14.52 -11.06 -5.012 9.528 1.231 -15.12 -12.66 -8 -16.63 -21.75
3.475 -0.4494 -0.4944 -7.146 -0.5393 13.21 10.79 -4.404 -6.427 -4.88 14.11 10.29 -10.9 -11.7 -6.921 -12.94 -21.84
3.48 2.697 6.112 -1.124 1.258 18.88 19.73 5.618 -1.348 -3.429 20.49 19.35 -4.133 -8.354 -5.663 -3.506 -17.17
3.485 5.663 12.76 5.393 3.551 23.28 27.28 15.96 4.764 0.08793 26.25 26.64 4.748 -2.022 -3.775 7.91 -8.719
3.49 8.539 19.19 12.27 6.787 25.17 33.35 26.74 11.78 4.924 28.31 31.57 14.07 5.628 -0.809 16.54 0.1798
3.495 11.51 24.58 17.89 10.7 24.49 37.75 36.13 17.75 8.705 25.44 33.77 21.37 11.43 2.607 19.51 6.202
3.5 14.38 27.78 20.36 14.07 22.74 39.91 40.63 20 9.541 19.33 33.33 24.27 12.49 4.135 17.98 7.461
3.505 16.81 28.31 19.28 15.78 21.12 38.61 37.17 16.94 7.255 13.03 29.63 21.63 8.178 1.978 15.1 4.944
3.51 17.8 26.07 15.91 15.33 19.1 32.09 25.53 9.438 3.034 8.27 21.9 13.54 0.2638 -2.787 13.03 1.438
3.515 16.45 20.99 12.31 12.99 14.61 19.24 8.764 0.5843 -1.187 4.225 10.2 2.022 -7.386 -6.562 11.96 -0.08989
3.52 12.76 13.75 9.753 9.933 6.787 2.247 -7.461 -5.753 -3.517 -0.1798 -2.814 -8.705 -10.64 -6.202 10.88 1.798
3.525 7.73 6.157 8.404 6.966 -2.337 -13.57 -17.75 -7.596 -3.078 -5.124 -13.45 -14.51 -8.178 -1.888 9.438 6.112
3.53 2.966 0.4494 7.191 4.18 -9.753 -22.7 -20 -5.618 -0.9233 -9.528 -18.91 -14.16 -2.286 3.596 7.281 9.618
3.535 -0.5393 -2.067 5.213 1.213 -13.12 -22.97 -15.91 -2.382 0.8354 -11.96 -18.82 -9.321 2.814 6.652 4.584 9.438
3.54 -2.697 -1.528 2.607 -1.753 -12.22 -15.82 -9.079 0.1348 1.275 -11.51 -14.77 -3.078 5.012 5.483 2.427 5.573
3.545 -3.146 0.5843 0.3146 -3.91 -8.449 -5.303 -2.876 1.213 0.7474 -8.629 -9.145 2.462 4.66 1.528 2.067 0.809
3.55 -2.517 2.202 -1.663 -5.079 -4.135 3.775 -0.2247 0.5843 -0.2198 -4.854 -4.045 6.155 3.166 -1.888 3.775 -2.427
3.555 -1.618 1.438 -4.719 -6.067 -1.258 7.82 -3.056 -2.337 -1.627 -1.618 -0.8793 7.386 1.231 -2.607 6.562 -3.236
3.56 -1.528 -1.663 -9.708 -8 -0.4045 6.067 -10.88 -7.551 -3.122 0.7191 -0.1759 5.628 -1.495 -2.067 8.809 -3.146
3.565 -2.876 -5.348 -15.46 -10.92 -0.9888 0.4494 -20.58 -13.71 -4.353 2.607 -2.286 0.8793 -5.452 -3.056 8.629 -4.674
3.57 -5.213 -7.596 -19.28 -13.66 -2.607 -6.382 -27.73 -18.52 -5.188 3.865 -6.595 -6.067 -10.55 -6.382 4.764 -8.989
3.575 -7.371 -8.09 -19.1 -14.79 -5.348 -12.49 -29.39 -20 -5.76 3.416 -12.22 -13.1 -15.04 -9.798 -2.067 -14.2
3.58 -8.449 -7.82 -15.33 -13.39 -8.629 -16.49 -25.17 -17.66 -5.628 1.079 -16.71 -16.71 -16.44 -10.43 -8.989 -16.72
3.585 -7.82 -7.91 -10.79 -10.25 -10.88 -17.17 -17.35 -13.17 -4.221 -1.978 -17.76 -14.25 -13.45 -6.921 -12.22 -14.11
3.59 -5.933 -8.539 -8.854 -7.101 -10.79 -14.47 -9.798 -9.528 -2.198 -3.775 -14.77 -6.683 -7.738 -0.6292 -10.07 -7.371
3.595 -4.404 -9.124 -11.19 -5.573 -8.404 -9.618 -5.393 -8.674 -0.9673 -3.056 -8.705 1.935 -2.638 5.483 -4.404 -0.1798
3.6 -4.135 -8.449 -15.82 -5.708 -4.899 -4 -4.135 -9.978 -1.275 0.3596 -1.671 7.562 -0.3517 8.18 1.348 3.685
3.605 -4.674 -5.843 -18.88 -6.202 -1.528 1.303 -3.865 -10.79 -2.506 4.944 4.573 8.881 -0.3517 6.382 4.494 3.326
3.61 -4.854 -1.933 -17.71 -6.067 0.6742 5.618 -2.831 -9.169 -3.561 8.18 8.793 7.211 -1.143 2.157 4.045 0.1798
3.615 -3.685 1.483 -12.99 -5.348 1.573 7.865 -0.9888 -5.528 -3.605 8.449 10.46 4.748 -1.231 -1.618 0.8989 -3.056
3.62 -1.079 3.416 -7.056 -4.629 1.978 8.225 0.9888 -1.483 -1.935 6.022 10.11 3.429 0 -3.056 -2.337 -4.225
3.625 2.607 4.494 -1.663 -3.685 3.326 8.18 3.865 1.843 1.275 2.876 9.233 3.781 2.374 -1.888 -3.955 -3.236
3.63 6.921 6.337 3.416 -0.9888 5.753 9.438 8.854 4.764 4.573 0.6292 9.057 4.924 4.924 1.348 -3.596 -1.708
3.635 11.15 9.888 9.483 4.674 8.09 12.18 16.49 8.629 6.375 -0.3596 10.11 6.067 6.419 5.753 -2.337 -0.8989
3.64 14.38 14.29 17.12 12.94 9.034 15.1 25.3 14.38 6.331 -0.809 11.96 6.859 7.386 9.079 -0.7191 -0.3596
3.645 16.27 17.75 25.03 20.85 8.27 16.4 32.27 21.08 5.408 -1.079 13.01 7.386 8.442 9.528 1.258 0.9888
3.65 16.36 18.52 30.52 24 6.337 14.74 34.02 26.07 4.177 -1.618 11.78 7.035 9.673 7.011 3.236 3.955
3.655 14.56 16 31.15 19.82 4.135 10.34 29.44 26.88 2.374 -2.067 8.09 4.836 10.11 3.326 4.135 8.36
3.66 11.51 11.28 27.01 10.02 2.652 5.528 21.08 23.55 0.04397 -1.618 4.045 1.583 9.936 0.8989 3.865 13.57
3.665 8.27 6.427 20.63 0.2247 2.472 3.236 13.53 18.34 -1.891 0.2697 2.286 -0.1759 9.849 1.169 3.865 19.15
3.67 5.663 2.652 14.61 -4.18 3.056 4.09 9.483 13.8 -2.99 3.775 3.605 1.143 10.2 4.135 5.663 23.91
3.675 3.236 -0.6292 9.663 -2.112 2.697 5.079 7.685 10.47 -3.166 7.551 6.155 4.66 10.02 7.64 9.438 26.79
3.68 0.3596 -4.809 4.719 2.472 0.4944 2.697 4.494 7.371 -3.122 10.07 6.683 7.298 8.442 8.27 13.39 26.07
3.685 -2.966 -9.888 -1.213 4.09 -2.966 -3.91 -2.607 2.966 -3.913 10.16 3.254 6.067 4.836 4.225 14.56 20.58
3.69 -6.022 -14.52 -8.045 -0.1348 -6.337 -12.36 -12.9 -3.236 -6.683 7.101 -3.605 0.1759 -1.143 -3.056 10.07 10.34
3.695 -8 -16.99 -14.07 -8.449 -8.494 -18.88 -22.61 -9.888 -11.48 1.618 -10.99 -7.738 -8.266 -10.07 0.4494 -2.067
3.7 -8.539 -16.27 -17.21 -15.64 -8.674 -20.58 -27.1 -14.34 -15.83 -4.315 -15.21 -13.01 -13.89 -14.02 -9.528 -12.31
3.705 -7.64 -12.67 -16.13 -17.57 -6.876 -16.94 -23.46 -14.38 -16.58 -7.82 -14.42 -12.05 -15.48 -13.93 -13.57 -16.81
3.71 -6.202 -7.82 -11.78 -14.25 -4.045 -9.978 -12.81 -10.07 -12.53 -7.011 -9.233 -5.364 -12.75 -10.52 -9.348 -15.28
3.715 -5.034 -3.775 -6.607 -9.753 -1.618 -2.787 0.3596 -3.416 -5.496 -2.876 -2.022 3.429 -7.386 -5.483 -0.08989 -10.16
3.72 -4.584 -1.438 -2.966 -7.91 -0.3146 3.056 11.73 2.966 1.539 2.157 5.012 10.9 -0.9673 -0.5393 8.09 -5.213
3.725 -4.404 -0.3146 -1.528 -9.169 0.5393 8.225 18.88 7.416 6.551 5.843 11.08 15.92 5.1 3.236 10.79 -2.517
3.73 -3.685 0.8989 -1.348 -10.61 2.022 13.08 21.48 9.124 8.793 7.191 15.83 19.08 9.936 5.663 7.73 -2.517
3.735 -1.798 2.876 -1.303 -9.079 4.27 16.63 19.91 7.82 8.705 6.562 18.73 20.93 12.05 6.742 2.067 -4.315
3.74 1.258 5.393 -0.7191 -3.955 7.011 17.39 15.06 4.27 7.694 5.573 19.43 20.84 10.9 5.933 -1.618 -6.202
3.745 5.213 7.82 0.4045 2.831 9.528 15.24 8.629 -0.04494 6.727 5.034 17.59 17.85 6.859 3.236 -1.438 -7.281
3.75 9.348 9.213 1.708 8.539 10.74 11.42 2.697 -3.506 5.936 4.404 13.37 11.96 1.671 0.3596 0.6292 -6.742
3.755 11.78 8.899 2.787 11.46 9.663 7.64 -0.2697 -4.36 5.276 2.427 8.178 4.924 -2.11 0 1.798 -3.596
3.76 11.15 7.011 4.27 12.22 6.831 5.708 1.618 -1.438 5.892 -0.809 4.221 0.5276 -1.143 3.416 1.528 3.416
3.765 7.82 4.854 7.461 12.94 4.315 6.966 8.989 5.124 9.409 -3.506 4.045 1.583 5.716 9.978 2.247 14.29
3.77 3.775 4.135 12.67 14.7 3.82 10.83 19.19 13.21 15.48 -3.775 8.09 8.09 15.92 16.99 6.112 25.98
3.775 1.079 5.438 17.89 16.67 5.393 14.97 27.1 19.24 21.24 -1.618 14.25 16.44 24.09 21.66 12.58 33.89
3.78 1.169 8.135 19.91 17.17 7.73 16.94 28.31 20.36 23.39 1.079 19.08 22.69 26.38 21.84 19.06 34.61
3.785 3.416 10.83 16.72 15.06 9.258 15.87 21.89 16.18 20.44 2.157 19.52 24.27 22.07 17.26 22.56 28.22
3.79 6.202 12.04 8.764 10.16 8.674 11.96 10.38 8.27 13.32 0.5393 14.42 21.28 13.54 10.52 21.57 17.35
3.795 7.281 11.01 -0.8539 3.281 5.798 6.337 -1.933 -0.6742 4.836 -2.787 5.716 14.86 4.045 4.494 16.45 5.843
3.8 5.933 8.045 -8.404 -3.73 1.843 0.5393 -11.73 -8.135 -1.671 -5.483 -2.814 7.211 -3.605 0.3596 9.798 -3.326
3.805 3.506 4.315 -11.64 -8.539 -1.348 -3.596 -17.8 -12.9 -4.529 -5.303 -7.914 0.3517 -8.354 -2.157 4.404 -8.989
3.81 1.618 0.764 -11.64 -9.753 -3.191 -5.978 -21.35 -15.42 -4.792 -2.427 -9.057 -4.309 -10.9 -4.045 1.888 -11.42
3.815 0.809 -2.562 -11.96 -8.27 -4.315 -7.955 -24.4 -16.99 -5.232 1.438 -8.002 -6.331 -12.4 -5.213 2.247 -11.42
3.82 0.3596 -5.933 -14.92 -6.742 -5.438 -10.79 -27.42 -18.2 -7.079 4.674 -7.035 -5.892 -12.4 -6.112 4.854 -9.528
3.825 -0.7191 -8.764 -19.42 -7.64 -6.157 -13.98 -28.54 -18.52 -9.321 6.831 -7.211 -3.693 -10.64 -6.831 8.18 -6.921
3.83 -2.427 -10.25 -21.98 -11.51 -5.888 -16.36 -26.02 -17.39 -10.51 8.09 -8.354 -1.935 -8.09 -7.64 9.258 -5.933
3.835 -4.045 -9.978 -19.82 -15.96 -4.629 -17.08 -20.13 -14.92 -10.11 8 -9.673 -3.254 -7.035 -8.719 5.034 -8.719
3.84 -4.494 -8.225 -13.21 -17.12 -2.697 -15.51 -12.67 -11.6 -8.661 6.382 -10.46 -8.002 -8.354 -10.61 -4.674 -14.92
3.845 -2.876 -5.438 -5.079 -12.31 -0.2247 -11.19 -5.438 -7.82 -6.991 3.506 -10.38 -13.89 -11.26 -13.3 -16 -21.48
3.85 0.4494 -2.022 0.9438 -2.966 2.562 -4.584 0.4494 -4.315 -5.936 0.809 -9.057 -17.76 -13.72 -15.91 -23.91 -25.08
3.855 3.955 1.573 2.876 6.022 5.393 2.607 4.494 -1.798 -5.804 -0.1798 -6.947 -18.2 -14.16 -17.08 -25.44 -24
3.86 5.933 5.169 1.708 10.11 8.09 8.449 6.562 -0.4045 -5.584 1.258 -4.221 -15.74 -12.22 -16.99 -21.03 -19.42
3.865 6.202 8.225 0.4045 8.315 10.52 11.64 6.921 0.1348 -3.869 4.854 -1.495 -12.05 -8.266 -15.82 -13.84 -13.66
3.87 5.303 10.16 1.213 3.685 12 11.78 5.933 0.7191 -0.4836 8.539 0.6155 -8.53 -3.605 -13.21 -7.461 -8.36
3.875 4.135 10.52 3.955 0.5843 11.87 9.618 4.539 2.292 3.561 10.25 2.374 -4.573 1.407 -7.82 -2.787 -2.876
3.88 3.236 9.843 7.101 1.708 10.56 7.91 4.539 5.888 7.518 10.16 5.276 2.022 7.474 0.5393 2.337 4.764
3.885 3.146 9.573 9.079 6.562 9.708 9.753 7.551 11.15 10.77 9.798 10.82 12.66 14.86 10.34 10.34 14.74
3.89 3.775 10.61 9.213 12 10.52 15.78 12.49 15.78 12.22 10.7 18.47 25.06 20.93 18.25 20.04 23.82
3.895 4.494 12.13 7.191 14.38 12.45 22.79 15.37 16.49 10.73 12.4 25.15 33.68 22.25 21.03 27.24 27.51
3.9 4.584 12.09 3.281 12.36 13.89 26.38 12.22 11.78 6.375 13.66 27.44 33.77 17.23 16.9 28.4 24.09
3.905 3.955 9.258 -1.258 7.326 13.57 23.91 2.697 3.146 1.011 13.3 23.65 24.8 7.826 7.64 23.55 16
3.91 2.607 4.09 -4.944 2.067 10.97 15.73 -9.663 -5.708 -3.21 10.79 14.86 10.38 -2.022 -1.978 15.46 7.551
3.915 0.4494 -1.438 -6.562 -0.809 6.292 4.225 -19.91 -11.42 -5.232 6.652 3.869 -3.957 -9.057 -7.281 7.101 1.888
3.92 -2.247 -5.528 -5.528 -0.2247 0.6742 -7.416 -24.18 -12.67 -5.012 1.528 -6.419 -14.25 -12.05 -7.101 0.08989 -1.258
3.925 -4.674 -7.326 -2.247 3.191 -4.36 -16.49 -21.66 -10.7 -3.385 -3.506 -14.51 -18.91 -11.96 -3.775 -5.933 -4.494
3.93 -6.022 -7.685 1.708 7.056 -8.09 -21.89 -14.79 -8.045 -2.022 -8.449 -20.31 -19.7 -11.26 -0.4494 -12.13 -9.888
3.935 -6.292 -8.09 4.404 8.584 -10.61 -23.73 -7.101 -6.337 -2.022 -12.94 -24.09 -19.52 -11.26 1.079 -18.88 -16.45
3.94 -6.202 -9.348 4.944 6.562 -12 -22.7 -0.8539 -5.393 -2.902 -16.18 -25.68 -19.7 -11.7 0.809 -24.54 -20.85
3.945 -6.202 -10.65 4 2.517 -12.13 -19.28 3.596 -4.18 -3.561 -17.53 -25.68 -20.75 -11.52 -0.6292 -27.96 -20.49
3.95 -6.742 -10.97 2.607 -0.8989 -11.37 -15.42 5.753 -2.831 -4.089 -17.26 -25.85 -23.13 -11.43 -2.517 -29.66 -16.72
3.955 -7.82 -10.43 1.079 -1.978 -11.15 -14.02 4.225 -2.921 -5.672 -17.08 -28.31 -27.35 -13.01 -4.944 -31.46 -13.12
3.96 -8.809 -10.25 -0.7191 -1.034 -12.36 -16.49 -1.618 -5.348 -8.53 -18.25 -33.41 -32.8 -16.27 -8.09 -33.89 -11.87
3.965 -9.079 -11.15 -2.742 0.3146 -14.52 -21.26 -10.16 -9.124 -11.04 -20.4 -38.69 -36.67 -19.08 -11.15 -35.42 -12.13
3.97 -8.36 -12.81 -4.135 0.5393 -16.31 -24.85 -17.57 -11.64 -11.21 -22.29 -40.01 -36.14 -18.47 -11.87 -33.89 -10.79
3.975 -7.551 -14.38 -4.225 -0.6292 -16.58 -24.81 -20.45 -10.7 -8.398 -22.2 -34.56 -30.25 -13.45 -8.899 -28.31 -5.753
3.98 -7.461 -14.88 -2.652 -2.247 -14.79 -20.58 -17.44 -6.022 -3.781 -18.88 -22.86 -20.4 -5.364 -3.775 -19.69 2.247
3.985 -8.09 -13.84 0 -2.966 -10.97 -13.62 -10.11 0.1798 0.5716 -12.49 -8.705 -9.585 2.462 0.4494 -9.798 9.798
3.99 -8.719 -11.6 2.427 -2.831 -6.517 -6.562 -2.292 4.809 2.462 -4.764 2.99 -1.407 6.595 1.618 -1.258 12.94
3.995 -8.809 -9.213 3.056 -2.652 -3.371 -2.022 2.292 5.888 1.495 1.708 9.233 2.55 5.892 0.5393 4.404 10.88
4 -8.18 -7.236 1.753 -2.472 -2.562 -0.5393 2.742 4.18 -0.2198 5.124 10.2 3.166 2.55 -0.08989 6.921 6.292
4.005 -7.011 -5.618 -0.04494 -1.169 -3.64 -0.7191 1.169 2.292 0.08793 5.393 8.705 2.726 0.5276 1.708 7.64 2.876
4.01 -5.753 -4.135 -0.809 1.978 -5.393 -0.764 0.3596 2.157 2.99 3.775 7.474 2.638 1.231 5.933 7.73 2.697
4.015 -4.764 -3.101 -0.1798 5.708 -6.876 -0.1348 1.303 3.64 6.199 1.708 8.178 3.078 3.517 10.34 7.82 4.764
4.02 -4.135 -2.966 0.8989 7.101 -7.461 1.124 3.191 5.169 7.298 0.7191 10.99 3.693 5.188 11.6 8.719 7.191
4.025 -3.416 -3.371 1.438 4.18 -6.607 3.146 4.539 5.258 5.584 1.438 14.77 5.1 5.1 8.899 10.43 8.539
4.03 -2.337 -3.461 0.7191 -2.112 -4.584 5.573 4.315 3.64 2.242 3.146 17.85 7.386 3.341 4.225 11.51 8.27
4.035 -1.258 -2.697 -0.9438 -8.494 -2.607 7.82 3.011 1.348 -0.9233 4.225 19.08 10.29 1.583 1.169 10.43 6.921
4.04 -0.4494 -0.7191 -2.472 -11.1 -1.124 9.888 2.831 0.3596 -2.154 4.045 18.38 13.1 1.495 0.9888 7.011 5.393
4.045 0.2697 2.472 -2.292 -8.764 0.1348 12.76 6.382 2.202 -0.6155 2.787 17.32 15.74 3.869 2.337 3.146 4.225
4.05 1.348 6.562 0 -3.775 1.708 16.54 13.84 6.472 2.33 0.6292 16.8 17.41 7.298 3.146 0.2697 2.966
4.055 2.787 10.25 3.371 0.08989 2.742 19.24 21.8 11.01 4.66 -3.146 16.44 17.23 9.057 2.067 -2.337 1.079
4.06 3.955 12.09 6.382 1.169 2.112 17.8 25.48 13.44 5.144 -9.169 13.81 13.98 7.738 -0.8989 -6.382 -1.798
4.065 4.584 11.42 8.18 0.809 -0.7191 10.43 21.84 12.54 4.133 -16.63 6.331 6.683 3.869 -4.584 -12.49 -5.303
4.07 4.225 8.09 8.629 1.169 -5.618 -2.067 11.33 8.584 1.979 -23.46 -6.331 -4.573 -1.319 -7.551 -19.51 -9.169
4.075 2.787 2.742 7.73 2.652 -11.33 -16.63 -2.247 3.101 -1.055 -26.79 -20.93 -18.2 -6.507 -8.989 -24.36 -12.13
4.08 0.6292 -3.056 5.618 3.685 -15.73 -28.4 -13.57 -1.798 -4.133 -25.08 -32.1 -30.16 -9.761 -9.169 -24 -12.85
4.085 -1.438 -7.326 2.742 2.742 -16.81 -33.44 -18.7 -4.494 -5.979 -18.79 -35.53 -36.49 -9.936 -8.449 -18.34 -10.43
4.09 -3.056 -9.124 0 0.1798 -14.47 -31.33 -17.21 -4.494 -5.804 -10.61 -31.04 -35.26 -6.947 -6.652 -10.43 -5.303
4.095 -3.955 -9.124 -1.663 -1.978 -10.52 -25.39 -12.13 -2.382 -3.693 -3.955 -22.42 -28.58 -1.847 -3.596 -4.674 0.7191
4.1 -4.764 -8.899 -1.438 -1.798 -7.011 -19.28 -6.697 0.764 -0.1319 0 -14.07 -19.87 4.309 0 -1.798 6.292
4.105 -5.483 -9.124 0.809 0.764 -4.584 -14.47 -2.517 4.135 3.825 2.607 -8.09 -11.96 9.849 2.337 0.6292 10.16
4.11 -6.382 -9.708 3.685 3.326 -3.056 -10.61 -0.08989 6.202 6.463 5.573 -3.781 -5.716 12.84 2.607 5.303 11.51
4.115 -7.73 -10.07 4.629 2.876 -2.382 -7.461 0.08989 5.528 6.023 9.079 0 -1.055 11.52 1.528 11.6 10.07
4.12 -9.348 -9.573 1.798 -1.213 -2.652 -5.124 -1.798 1.933 2.638 11.87 3.781 3.078 6.947 0.2697 16.72 6.472
4.125 -10.07 -8.09 -3.91 -6.787 -3.236 -3.416 -4.584 -2.607 -1.407 12.58 6.683 7.474 2.374 0.3596 17.98 2.427
4.13 -9.169 -5.933 -9.528 -10.38 -3.371 -1.483 -5.843 -5.438 -3.825 11.24 8.178 12.57 0.8793 2.966 15.55 0.1798
4.135 -6.382 -3.416 -11.78 -10.34 -2.067 1.618 -3.461 -4.494 -3.605 9.258 9.233 18.03 3.605 7.73 12.4 1.258
4.14 -2.247 -0.4494 -9.348 -7.191 1.438 6.921 3.101 0.2697 -1.099 8.27 11.61 23.65 9.321 12.67 12.13 5.573
4.145 2.067 3.551 -3.596 -2.966 7.281 14.34 11.87 6.652 2.198 9.079 16.09 29.11 14.68 15.1 15.01 10.7
4.15 5.933 8.404 2.292 0.08989 13.53 21.53 18.25 11.24 4.353 10.7 20.49 32.45 16.44 13.93 17.62 12.67
4.155 8.449 12.49 5.213 0.5843 17.12 24.76 18.2 11.69 4.221 10.52 21.28 30.86 13.01 10.16 15.64 9.079
4.16 9.438 14.16 4.36 -1.348 16.45 22.07 11.42 8.584 2.77 7.371 16.44 23.74 6.595 5.393 8.539 0.9888
4.165 9.798 13.39 1.663 -4.404 12.76 15.28 1.978 4.764 1.891 2.247 8.266 13.98 0.9673 1.528 0.2697 -7.371
4.17 10.34 11.78 0.1348 -6.697 8.899 8.135 -4.315 2.742 2.374 -2.607 0.8793 5.716 -1.407 -0.1798 -4.764 -12.22
4.175 11.69 11.15 1.213 -6.921 6.966 3.64 -4.674 2.876 3.429 -5.753 -2.11 1.847 -1.319 0.1798 -5.213 -12.58
4.18 13.57 12.49 4.135 -4.854 7.326 2.562 0.1348 3.73 3.869 -6.472 -0.6155 1.847 -0.3517 1.169 -3.236 -10.79
4.185 15.55 15.15 6.831 -1.573 8.989 4.18 6.607 3.281 3.341 -5.483 2.198 2.902 -0.5276 1.079 -2.247 -10.07
4.19 16.63 17.03 7.146 1.169 10.11 6.427 10.61 0.1348 1.715 -4.045 2.99 0.9673 -2.902 -0.7191 -4.404 -12.58
4.195 15.73 16.09 4.27 1.843 9.258 7.281 9.708 -5.438 -0.8793 -3.416 0.1759 -5.979 -7.826 -3.685 -8.629 -17.44
4.2 12.49 11.87 -0.4045 0.809 6.652 6.022 4.404 -11.69 -3.869 -3.506 -4.309 -15.83 -13.54 -7.461 -11.96 -21.66
4.205 8 6.157 -4.045 0 3.865 3.955 -2.112 -15.96 -6.243 -3.146 -7.298 -24.09 -17.94 -11.69 -12.22 -22.38
4.21 3.865 1.258 -4.27 0.9438 2.157 2.202 -6.831 -16.58 -7.606 -1.438 -7.562 -27.44 -19.43 -15.19 -9.888 -18.97
4.215 1.258 -1.573 -1.034 3.371 1.438 0.9888 -8.27 -13.62 -7.914 1.169 -5.979 -25.5 -17.94 -16.81 -7.551 -13.03
4.22 0.08989 -2.787 3.281 5.124 1.034 0 -6.921 -8.719 -7.386 3.416 -4.836 -20.4 -13.89 -16.18 -6.562 -6.562
4.225 -0.4494 -3.371 5.888 4.36 0.8989 -0.8539 -4.315 -4.27 -6.287 4.584 -4.924 -14.07 -8.617 -14.2 -6.292 -0.9888
4.23 -1.618 -4.36 4.719 0.6742 1.079 -1.618 -2.562 -2.652 -5.672 4.494 -5.628 -7.826 -4.397 -11.51 -4.944 2.876
4.235 -4.045 -6.517 -0.1348 -4.36 1.124 -2.652 -3.416 -4.629 -6.419 3.596 -5.452 -2.462 -2.814 -8.989 -1.888 5.124
4.24 -7.191 -9.528 -6.652 -8.494 0.764 -3.865 -6.607 -8.449 -7.826 3.326 -3.341 2.11 -3.254 -6.921 2.517 6.382
4.245 -9.438 -12.18 -11.78 -10.11 0.2247 -4.404 -9.753 -11.1 -7.958 4.584 0.08793 6.067 -3.429 -4.944 7.461 7.91
4.25 -9.528 -13.17 -13.57 -9.528 -0.2697 -3.551 -10.38 -10.61 -5.76 6.742 3.429 9.145 -1.671 -1.528 11.51 10.34
4.255 -7.371 -12.09 -12.49 -8.36 -0.8989 -1.618 -7.91 -7.371 -2.11 8 5.452 11.17 1.319 3.775 13.75 13.12
4.26 -4.494 -9.618 -10.34 -8 -1.393 0.6292 -3.416 -3.416 1.187 7.461 6.419 12.66 4.221 9.528 14.38 15.37
4.265 -2.517 -6.876 -8.494 -8.404 -1.258 3.146 1.079 -0.6292 3.122 6.022 7.562 14.95 5.716 13.3 14.56 15.91
4.27 -2.247 -5.079 -7.326 -8.944 -0.3146 5.438 4.225 0.4944 3.385 5.303 9.497 18.03 5.364 14.02 14.83 14.38
4.275 -3.596 -4.539 -6.472 -8.809 0.8989 6.742 5.348 1.169 2.682 5.843 11.61 20.58 4.045 12.58 15.1 11.69
4.28 -5.034 -4.449 -5.483 -7.551 1.978 6.562 5.483 3.056 2.462 6.652 12.57 21.46 3.605 10.79 15.28 9.618
4.285 -4.944 -3.191 -3.91 -4.809 3.146 5.618 6.472 6.562 3.605 6.562 11.78 20.75 5.276 9.888 15.46 9.169
4.29 -2.697 0 -1.798 -0.6742 4.315 4.674 8.899 10.25 5.54 4.764 9.585 18.99 8.178 10.07 15.19 9.528
4.295 0.5393 3.685 -0.04494 3.82 4.809 4.135 11.78 11.96 6.815 2.067 7.386 16.71 10.11 10.79 13.84 8.989
4.3 2.966 5.753 0.764 7.371 4.404 4.27 13.48 10.79 6.991 0.3596 6.331 14.16 10.02 10.52 11.33 6.562
4.305 3.685 5.079 0.809 8.989 3.865 5.169 13.3 7.955 6.903 1.348 6.683 11.08 8.617 8.629 8.09 2.787
4.31 3.056 2.831 0.809 8.674 3.955 6.472 11.19 5.348 6.947 4.045 6.771 6.507 6.507 6.022 3.955 -1.528
4.315 2.517 1.124 1.258 7.236 4.584 6.921 7.326 4.09 6.507 5.483 5.012 0.08793 4.309 3.955 -1.438 -5.753
4.32 2.787 1.438 2.337 6.022 5.169 5.708 2.742 4.36 5.1 3.685 0.8793 -7.123 2.462 2.607 -7.64 -9.438
4.325 3.506 3.551 4.36 5.888 4.899 3.326 -0.8539 5.708 3.21 -0.4494 -4.221 -12.66 1.671 1.528 -12.58 -11.51
4.33 3.685 5.169 7.191 6.607 2.921 0.6292 -2.337 7.551 1.891 -4.404 -8.266 -14.6 2.374 1.169 -13.75 -10.52
4.335 1.888 3.955 9.978 7.056 -0.9888 -2.112 -1.753 9.393 2.066 -5.483 -9.673 -12.75 4.485 1.978 -9.978 -5.573
4.34 -1.798 -0.5393 11.51 6.382 -5.888 -4.899 -0.2247 10.65 3.913 -3.416 -8.442 -8.354 7.386 3.865 -2.157 2.697
4.345 -5.843 -6.202 11.06 4.764 -9.978 -7.146 0.7191 10.52 6.419 0.2697 -5.804 -3.254 9.761 5.303 6.831 11.33
4.35 -8.809 -10.38 8.36 2.876 -12.31 -8.449 -0.04494 7.73 7.167 2.787 -3.693 0.4397 9.409 5.124 12.49 16.27
4.355 -10.25 -12.22 3.461 0.8989 -13.48 -9.079 -3.056 1.753 4.177 2.517 -3.254 1.231 5.364 2.607 12.13 15.46
4.36 -10.97 -12.63 -2.337 -1.079 -14.38 -9.483 -6.652 -5.483 -1.715 0.08989 -4.573 -0.3517 -0.08793 -1.169 6.831 10.97
4.365 -11.42 -12.13 -6.831 -2.787 -14.83 -9.438 -7.775 -10.38 -6.947 -2.517 -6.771 -1.935 -3.166 -4.315 0.6292 7.371
4.37 -10.79 -10.2 -7.64 -3.551 -13.89 -8.449 -4.494 -9.798 -8.266 -3.775 -8.354 -1.407 -1.407 -4.854 -2.607 7.101
4.375 -7.91 -5.483 -4.225 -3.191 -10.83 -6.292 2.067 -3.64 -5.188 -3.865 -8.266 1.759 4.045 -2.157 -2.067 9.169
4.38 -2.697 2.472 1.753 -2.112 -5.663 -2.247 8.854 4.719 -0.08793 -3.326 -5.979 6.419 9.321 1.079 0.6292 9.798
4.385 3.865 12.13 7.371 -1.258 0.764 4.045 12.67 10.7 3.429 -1.978 -1.495 10.2 10.55 1.708 3.506 6.112
4.39 9.348 19.82 9.978 -1.124 6.562 11.73 11.96 10.61 2.902 0.2697 3.957 10.82 5.804 -1.079 4.584 -1.258
4.395 11.06 21.89 8.719 -1.573 9.438 17.89 7.551 4.449 -1.671 3.146 8.354 6.771 -2.726 -5.393 3.236 -8.719
4.4 8.18 17.26 5.169 -1.438 8.584 19.51 2.472 -3.551 -7.079 5.393 9.936 -0.3517 -10.2 -8.18 0.2697 -11.78
4.405 2.337 8.719 2.382 0.5393 4.944 16 0.08989 -8 -8.837 5.843 8.442 -7.211 -11.78 -7.551 -3.056 -8.809
4.41 -3.685 0.7191 2.652 4.135 0.3596 9.303 1.978 -5.798 -5.188 4.135 5.1 -10.64 -6.947 -3.236 -6.112 -1.798
4.415 -7.64 -3.596 5.483 7.506 -3.371 2.562 6.697 1.618 1.627 1.438 2.022 -9.673 0.7035 2.697 -7.82 5.303
4.42 -8.539 -3.461 8.944 9.034 -4.809 -1.034 11.46 9.888 7.958 0.4494 1.231 -5.452 6.595 7.461 -6.921 10.07
4.425 -6.022 0.1798 11.19 9.079 -2.697 0.2247 14.16 14.56 10.82 3.236 3.517 0 7.562 8.629 -2.067 11.33
4.43 -0.7191 5.708 11.51 9.124 2.652 5.618 13.48 13.21 8.925 9.438 7.738 4.045 2.99 6.112 5.124 8.809
4.435 5.753 11.06 9.888 9.978 9.213 11.73 9.079 6.337 3.034 15.82 11.52 5.364 -5.54 1.079 11.6 2.966
4.44 11.24 14.88 6.382 10.7 14.25 15.46 1.663 -3.056 -4.353 18.79 13.45 4.573 -14.51 -5.303 14.2 -4.674
4.445 14.11 16.31 1.169 9.483 16.31 16 -6.427 -11.42 -10.38 16.99 13.1 4.133 -20.31 -11.87 12.58 -11.51
4.45 14.2 15.46 -5.124 5.348 15.6 14.56 -12.9 -16.31 -13.28 11.96 11.52 6.155 -21.19 -16.72 8.989 -15.1
4.455 12.31 12.9 -11.46 -0.6742 13.39 12.81 -16 -17.21 -12.84 6.562 9.761 10.9 -17.5 -17.98 6.382 -14.11
4.46 9.978 10.25 -15.78 -5.708 11.51 11.73 -15.42 -14.7 -9.629 3.416 8.178 16.71 -10.9 -15.46 6.562 -9.798
4.465 8.989 9.303 -16.18 -6.921 11.01 11.51 -12.04 -9.888 -4.529 3.236 6.771 20.93 -3.341 -10.52 9.258 -5.034
4.47 9.438 10.47 -12.63 -3.955 11.33 10.74 -8.18 -4.809 0.7035 4.404 4.66 21.46 2.462 -5.034 11.87 -2.787
4.475 10.43 12.22 -7.191 0.9438 10.56 7.506 -6.247 -1.348 4.133 4.764 1.319 17.67 5.1 -0.08989 11.42 -3.596
4.48 10.43 12.31 -2.517 5.169 7.91 1.438 -6.966 -0.04494 5.188 3.326 -2.902 11.17 4.924 3.236 7.371 -6.022
4.485 9.079 9.618 0.1798 7.416 4.629 -5.213 -8.809 -0.1348 4.924 1.169 -6.859 4.924 3.693 4.944 1.348 -8.09
4.49 7.011 4.854 1.483 7.73 2.382 -9.798 -9.663 -0.1798 4.485 -0.4494 -9.321 0.7914 2.99 5.393 -4.764 -9.169
4.495 4.584 0 2.247 6.517 1.843 -11.24 -8.899 0.5393 4.001 -0.8989 -9.936 -1.231 2.814 4.944 -9.708 -10.07
4.5 2.067 -3.101 3.056 4.09 2.292 -10.43 -7.011 2.067 3.385 -0.7191 -8.969 -1.671 3.078 3.506 -12.31 -10.34
4.505 0.08989 -3.506 3.775 1.124 2.831 -8.674 -4.719 3.64 2.814 -0.2697 -6.771 -0.5276 3.781 1.169 -11.51 -8.989
4.51 -0.8989 -1.573 3.685 -1.213 2.966 -7.056 -2.337 4.18 2.462 0.08989 -3.693 2.374 4.573 -0.5393 -7.371 -5.034
4.515 -0.7191 1.213 2.337 -1.753 2.697 -5.753 -0.2247 2.921 2.374 0.3596 0 6.331 4.573 -0.5393 -1.528 0.6292
4.52 0.08989 3.551 0 -0.1348 2.427 -4.27 1.483 0.3146 2.594 0.6292 3.957 9.761 3.781 0.809 3.775 5.843
4.525 0.9888 4.764 -2.202 2.787 2.517 -1.708 2.787 -2.427 3.122 0.9888 7.562 10.9 2.198 1.978 6.742 8.18
4.53 1.438 5.079 -3.191 5.393 2.562 1.573 3.326 -4.09 3.254 0.9888 9.849 8.705 0 1.978 6.562 6.921
4.535 1.348 4.854 -2.562 6.427 1.798 4.18 2.742 -3.865 2.33 0.1798 10.2 3.605 -2.286 1.169 3.955 3.685
4.54 1.258 4.764 -0.5843 6.337 0.4494 5.483 1.843 -1.483 1.187 -1.348 9.321 -1.495 -3.254 0.6292 0.4494 0.8989
4.545 1.798 5.618 2.382 6.652 -0.04494 6.652 2.247 2.831 1.495 -2.607 8.705 -3.781 -1.407 0.9888 -2.247 -0.6292
4.55 3.056 7.551 5.618 8.135 1.213 8.674 4.539 7.64 3.649 -3.146 9.321 -3.078 2.55 1.528 -4.225 -2.067
4.555 3.685 9.393 7.775 9.618 3.101 10.61 6.787 10.52 6.199 -3.596 10.2 -1.759 5.979 0.809 -6.742 -4.944
4.56 2.787 9.348 7.865 9.573 3.461 9.978 6.247 9.933 7.211 -4.944 8.793 -3.078 6.859 -2.517 -9.888 -8.539
4.565 0.5393 6.562 6.157 7.82 0.9888 4.944 1.618 6.157 6.375 -7.191 3.429 -8.002 5.1 -7.82 -12.67 -10.52
4.57 -1.438 1.708 3.685 5.933 -3.73 -3.865 -5.753 0.9888 4.309 -9.798 -5.628 -14.86 1.935 -12.04 -14.2 -9.079
4.575 -2.517 -3.461 1.663 5.303 -9.079 -13.89 -13.03 -3.326 2.154 -12.04 -15.39 -20.84 -0.7035 -11.96 -14.56 -4.584
4.58 -3.236 -7.281 0.5393 5.843 -12.85 -21.3 -17.08 -5.438 0.7474 -13.21 -21.63 -23.04 -1.583 -7.461 -14.29 0.6292
4.585 -5.124 -9.079 0.08989 5.888 -13.89 -23.42 -16.18 -5.258 0.2198 -12.94 -21.72 -20.49 -0.2638 -1.708 -13.57 4.494
4.59 -8.899 -10.02 -0.4944 3.685 -13.08 -20.94 -11.55 -4.09 -0.1319 -11.78 -16.36 -14.51 1.759 2.247 -12.31 6.292
4.595 -13.66 -12.27 -2.202 -0.8989 -12.54 -17.71 -6.697 -3.73 -1.319 -10.61 -9.585 -8.442 2.638 3.416 -10.52 6.831
4.6 -17.26 -17.03 -5.348 -6.157 -13.57 -17.12 -4.719 -4.809 -2.814 -9.888 -5.54 -4.836 2.198 2.876 -8.449 7.461
4.605 -17.8 -23.19 -9.124 -9.618 -15.42 -19.64 -6.202 -6.831 -3.517 -9.348 -5.716 -4.485 1.143 2.427 -6.652 8.27
4.61 -15.01 -28.13 -12.63 -10.7 -16.54 -23.01 -9.438 -9.169 -3.385 -8.989 -8.705 -6.947 -0.08793 2.697 -6.472 8
4.615 -11.06 -29.84 -14.97 -11.01 -16.04 -24.81 -12.04 -11.42 -3.825 -9.348 -11.52 -10.64 -1.759 3.146 -8.629 5.303
4.62 -8.36 -27.87 -15.6 -12.13 -14.11 -23.6 -11.87 -12.94 -5.584 -10.97 -11.7 -13.63 -3.781 2.157 -12.4 1.169
4.625 -7.461 -23.51 -13.93 -13.84 -11.19 -19.19 -7.685 -12.85 -7.606 -13.03 -9.057 -14.68 -5.452 0 -15.64 -2.247
4.63 -7.101 -18.79 -10.16 -14.52 -8.18 -12.81 -0.4944 -10.74 -8.442 -14.65 -5.54 -14.33 -6.243 -1.528 -17.44 -3.506
4.635 -6.292 -15.28 -5.843 -13.21 -6.067 -6.517 6.517 -7.551 -7.738 -15.01 -3.166 -14.25 -6.419 -0.2697 -17.71 -3.056
4.64 -4.584 -13.35 -2.966 -10.92 -5.079 -1.528 10.47 -4.989 -6.155 -13.66 -2.726 -15.56 -6.771 2.517 -16.81 -2.607
4.645 -2.787 -11.78 -2.562 -9.438 -4.225 2.292 10.2 -4.404 -5.012 -10.16 -2.638 -17.41 -8.09 3.865 -14.11 -3.416
4.65 -1.348 -9.258 -3.91 -9.618 -2.292 5.483 6.966 -6.022 -5.144 -5.213 -1.583 -17.76 -10.55 1.708 -9.169 -5.483
4.655 -0.3596 -5.663 -5.169 -10.29 0.6292 7.82 2.742 -8.315 -6.067 -0.4494 0.7035 -16 -13.45 -2.247 -2.966 -7.73
4.66 0.809 -1.798 -4.494 -8.899 3.955 8.854 -0.4045 -8.854 -5.892 2.427 2.814 -12.49 -14.6 -4.404 1.978 -8.899
4.665 2.697 1.393 -1.348 -4.045 6.652 8.539 -1.753 -6.112 -2.99 2.427 2.814 -8.969 -12.05 -2.337 3.596 -8.27
4.67 4.854 3.506 2.697 2.742 7.596 6.966 -2.112 -1.079 1.495 -0.9888 -0.3517 -6.859 -6.419 2.697 0.8989 -6.921
4.675 6.202 4.315 5.079 7.551 6.067 4 -3.64 3.281 4.441 -6.921 -5.892 -6.419 -1.055 7.011 -4.135 -5.933
4.68 6.022 4.315 4.315 7.461 2.787 0 -7.326 4.629 3.825 -12.85 -11.43 -6.155 1.407 6.382 -7.371 -5.303
4.685 4.674 4.09 1.348 3.191 -0.3146 -3.955 -11.69 3.191 0.8793 -16 -14.6 -4.133 0.7035 0.9888 -5.483 -4.135
4.69 3.416 4 -1.258 -1.618 -2.112 -6.831 -14.11 0.9888 -1.451 -15.28 -14.77 -0.7035 -0.9673 -4.225 0.5393 -1.708
4.695 2.787 3.551 -1.978 -3.685 -2.876 -8.494 -12.99 0.2697 -1.319 -11.87 -12.93 2.022 -1.495 -4.045 6.292 1.528
4.7 2.337 2.337 -0.764 -2.337 -3.326 -8.809 -8.09 1.933 1.143 -7.91 -10.02 2.814 0.7035 1.888 7.82 5.034
4.705 1.528 0.764 0.9888 0.04494 -3.596 -7.056 -0.764 5.034 3.869 -4.494 -6.243 2.462 4.573 8.629 5.124 7.64
4.71 0 -0.3146 1.933 0.1348 -3.236 -2.697 6.517 7.64 3.957 -1.438 -1.055 3.078 7.298 10.25 1.798 8.36
4.715 -1.978 -0.8539 1.124 -3.73 -2.112 2.966 11.1 8.18 0.3078 1.798 4.836 5.452 6.331 4.854 1.258 7.101
4.72 -3.955 -1.438 -0.8989 -9.933 -0.6292 7.865 11.78 6.742 -5.1 5.483 10.29 8.442 2.55 -3.955 4.404 5.034
4.725 -5.303 -2.697 -3.146 -14.52 0.4494 10.07 9.573 4.539 -8.837 8.809 13.37 10.11 -1.055 -10.52 9.079 4.045
4.73 -5.933 -4.944 -4.719 -14.56 0.4944 8.899 6.742 2.607 -9.013 10.7 13.19 9.057 -2.198 -11.15 11.87 4.944
4.735 -6.022 -7.775 -5.843 -10.61 -0.809 5.079 4.944 1.034 -6.815 10.88 10.73 5.628 -0.8793 -6.742 11.24 7.551
4.74 -6.022 -9.753 -6.742 -6.112 -2.517 0.764 5.169 -0.3146 -4.529 10.79 8.178 2.286 0.8793 -2.067 8.809 10.52
4.745 -5.753 -9.079 -6.876 -4.494 -2.876 -1.213 7.685 -1.124 -3.341 12.31 7.474 1.407 1.583 -1.169 7.64 12.04
4.75 -4.674 -5.034 -5.169 -6.562 -1.034 0.1348 11.73 -0.8989 -3.254 15.46 8.442 2.902 0.4397 -3.685 8.449 10.7
4.755 -2.517 1.034 -1.708 -10.02 1.933 3.506 15.78 0.5843 -3.693 17.98 9.233 4.748 -1.671 -6.112 9.348 6.472
4.76 0.3596 6.966 2.337 -11.1 4.539 6.876 18.52 3.056 -3.869 17.26 8.881 5.54 -2.902 -6.202 8.09 1.348
4.765 3.506 10.79 5.483 -7.281 5.933 9.348 19.55 5.843 -3.034 13.03 7.562 5.979 -2.022 -4.584 4.944 -2.067
4.77 6.022 11.73 6.247 0.08989 6.112 10.65 18.43 7.91 -1.671 7.281 6.507 6.771 0.6155 -2.966 1.798 -2.517
4.775 7.191 9.843 4.539 6.966 5.034 10.02 14.61 8.584 -0.4397 2.157 5.54 7.474 3.341 -2.247 -0.1798 -0.9888
4.78 6.562 6.112 1.573 9.528 2.742 6.472 8.27 8.09 0.8354 -1.169 3.166 6.243 5.188 -1.888 -1.438 0.5393
4.785 5.124 2.202 -0.4045 7.326 -0.04494 0.4944 1.079 7.236 3.034 -3.685 -2.11 1.847 6.331 -0.8989 -3.685 0.6292
4.79 4.135 -0.1348 -0.2697 3.191 -2.562 -5.933 -4.809 6.382 5.672 -6.921 -10.2 -4.836 6.771 1.348 -8 -1.258
4.795 3.955 -0.1798 1.528 0.5843 -4.09 -10.38 -8.449 4.989 7.211 -10.88 -18.2 -11.43 6.155 3.596 -13.03 -3.775
4.8 4.045 1.708 3.506 1.079 -4.045 -10.65 -9.753 2.876 6.375 -13.75 -22.16 -14.51 4.309 3.775 -15.46 -5.213
4.805 3.416 4.449 4.539 4 -2.247 -6.517 -9.258 0.4944 3.605 -12.58 -19.79 -12.31 1.935 1.169 -12.4 -4.225
4.81 1.438 6.202 4.494 7.056 0.4494 -0.6292 -7.865 -0.9888 0.4397 -6.742 -12.75 -6.507 0.1759 -1.888 -4.674 -1.708
4.815 -1.528 5.258 3.82 8.27 2.427 2.921 -6.427 -0.8539 -1.583 1.348 -4.924 -0.5276 -0.1759 -2.337 3.596 0.9888
4.82 -4.225 1.573 3.191 7.64 2.652 2.292 -5.034 1.034 -1.451 8.449 0.1759 3.341 1.231 0.6292 9.258 3.236
4.825 -5.124 -2.876 3.056 6.337 2.022 -0.2247 -3.056 3.82 0.9233 12.76 2.726 5.628 3.869 4.944 11.78 5.034
4.83 -3.955 -5.663 3.281 5.303 2.067 -0.8989 -0.7191 5.528 3.737 14.47 4.397 7.298 5.804 7.281 12.49 6.292
4.835 -1.798 -5.798 2.742 4.315 3.191 1.933 0.5393 4.225 4.441 14.65 6.419 8.266 4.573 5.753 12.04 5.483
4.84 -0.6292 -4.225 0.6742 2.742 4.854 6.697 -0.4045 -0.08989 1.847 14.02 8.354 7.211 -0.3517 0.6292 9.978 1.258
4.845 -1.169 -2.921 -2.562 1.034 6.067 10.11 -3.416 -5.753 -2.726 12.85 8.705 3.429 -7.211 -5.753 5.843 -6.202
4.85 -2.966 -3.101 -5.888 0.4494 5.978 9.708 -6.921 -9.888 -6.991 10.88 6.507 -1.759 -13.1 -10.07 0.4494 -14.47
4.855 -4.854 -4.854 -7.596 1.933 3.955 5.393 -9.348 -10.65 -9.013 8.27 2.462 -6.243 -15.74 -10.07 -3.955 -19.78
4.86 -5.843 -6.517 -6.652 5.348 0.5843 0 -9.528 -7.73 -7.826 6.202 -0.9673 -7.211 -13.98 -6.382 -5.124 -19.15
4.865 -5.573 -6.382 -2.921 9.438 -2.337 -2.742 -7.101 -2.652 -3.737 5.393 -1.759 -3.957 -8.617 -1.438 -2.607 -12.76
4.87 -4.045 -4 2.022 12.09 -3.371 -1.573 -3.191 1.978 0.9673 5.753 -0.1759 1.319 -2.198 2.697 0.9888 -4.494
4.875 -2.337 -1.034 5.753 11.46 -2.472 1.528 0 4.09 3.781 5.483 2.11 5.364 2.462 5.213 2.247 1.348
4.88 -1.438 0.4045 6.337 7.281 -0.6742 3.865 1.034 3.461 3.957 3.775 3.341 6.419 4.573 6.292 0.809 3.775
4.885 -1.528 0.04494 4 1.618 0.9888 4.225 0.4494 1.708 3.21 1.169 3.254 5.452 5.628 7.281 -0.809 4.584
4.89 -2.067 -0.764 0.9888 -2.517 1.843 3.191 -0.3146 0.7191 3.517 -1.348 1.759 4.221 7.035 9.618 -0.6292 6.202
4.895 -1.978 -0.3146 -0.5393 -2.966 1.303 1.213 -0.4045 0.8539 5.188 -3.775 -1.231 3.078 8.881 13.3 0.2697 8.36
4.9 -0.5393 2.157 0.1348 0.5843 -0.08989 -1.258 0.3596 1.438 7.167 -6.472 -6.243 1.143 10.02 16.09 -0.7191 8.989
4.905 2.157 6.292 2.337 6.247 -0.9888 -3.91 1.573 1.258 8.002 -9.708 -12.22 -1.583 9.585 15.46 -4.854 6.292
4.91 5.393 10.47 4.539 10.7 -0.5393 -6.022 2.112 -0.1348 6.815 -12.49 -17.15 -4.309 7.298 10.79 -9.978 1.258
4.915 7.281 12.9 5.528 10.97 0.5393 -7.146 1.034 -2.292 4.133 -13.3 -18.11 -5.1 4.485 4.494 -11.6 -2.427
4.92 6.562 12.63 5.483 6.921 1.124 -6.652 -1.079 -3.73 2.066 -10.7 -13.72 -2.286 3.429 0 -6.472 -1.169
4.925 3.775 10.47 5.528 1.348 0.7191 -4.045 -2.562 -3.101 2.682 -5.303 -4.836 3.957 5.54 -0.5393 4.045 5.483
4.93 0.7191 7.551 6.427 -2.112 -0.4045 -0.2247 -1.933 -0.5843 5.584 0.3596 4.573 10.82 10.02 2.607 14.29 13.39
4.935 -0.9888 4.539 7.73 -1.843 -1.888 2.517 0.2697 2.247 8.266 3.236 10.55 14.42 13.72 7.011 18.34 17.44
4.94 -1.258 1.933 8.449 1.303 -2.921 2.921 3.011 4.36 8.574 2.517 11.26 13.1 14.6 9.528 15.1 15.64
4.945 -0.6292 0.4045 8.584 5.348 -2.562 1.753 5.393 5.348 6.595 0.5393 8.266 8.442 12.66 8.36 8.989 10.52
4.95 0.3596 0.5843 8.764 8.09 -0.9438 0.6742 7.236 5.169 3.385 0 4.573 3.254 8.705 4.315 4.854 5.393
4.955 1.258 2.067 9.034 8.36 0.6742 0.2697 8.36 3.326 -0.1759 1.618 2.11 -0.7035 3.341 -0.1798 3.775 1.888
4.96 2.157 3.596 8.494 6.067 1.393 0.08989 8.225 -0.7191 -3.913 3.775 1.495 -3.781 -3.078 -3.865 3.685 -0.7191
4.965 3.506 4.09 6.202 1.843 1.169 -0.1798 6.697 -6.742 -7.342 4.674 1.847 -6.771 -9.673 -6.472 1.708 -4.225
4.97 5.034 3.191 2.112 -3.236 0.6292 -0.7191 3.64 -13.17 -10.02 3.416 2.462 -9.849 -15.12 -8.09 -2.607 -8.809
4.975 5.843 1.573 -2.202 -7.82 0.2697 -1.213 -0.2697 -17.48 -11.21 0.6292 2.726 -12.57 -17.67 -8.449 -7.461 -12.67
4.98 5.663 0.1798 -4.404 -9.753 0.3146 -1.124 -3.371 -17.35 -9.673 -1.888 2.814 -13.19 -16 -7.461 -9.978 -13.39
4.985 4.674 0 -2.652 -7.506 0.809 -0.1348 -3.73 -12.31 -5.012 -3.056 2.726 -10.55 -10.02 -5.573 -9.079 -10.43
4.99 3.775 0.4045 2.112 -1.798 0.9888 0.9438 -1.124 -4.494 0.9673 -3.685 2.462 -5.364 -2.374 -3.416 -6.562 -6.022
4.995 3.146 0.1798 6.921 3.955 -0.2247 0.3596 2.112 2.292 5.408 -5.213 1.407 0.08793 3.693 -1.079 -5.303 -2.697
5 2.337 -1.753 8.539 6.202 -3.146 -2.337 3.506 5.438 6.815 -8 -0.2638 3.781 6.419 1.079 -5.933 -1.528
5.005 1.258 -4.584 6.337 3.865 -6.337 -5.708 2.112 4.854 5.979 -10.34 -2.11 5.1 6.419 2.517 -6.831 -1.438
5.01 0.3596 -6.337 1.978 -0.8539 -7.775 -7.506 -1.034 1.978 4.221 -10.34 -3.693 4.309 4.573 2.787 -6.202 -1.348
5.015 -0.08989 -5.978 -2.427 -4.944 -6.607 -6.921 -4.584 -1.438 2.022 -7.82 -5.1 1.935 1.407 1.888 -4.225 -1.708
5.02 0.2697 -3.685 -5.888 -6.697 -3.281 -4.494 -7.326 -4.36 -0.6155 -4.404 -5.804 -1.055 -2.638 -0.1798 -2.157 -3.146
5.025 1.528 -0.4944 -8.27 -6.652 0.9438 -0.8989 -8.315 -5.843 -3.341 -1.888 -4.924 -3.078 -5.979 -3.056 -0.6292 -5.393
5.03 3.236 2.652 -9.483 -6.562 4.764 3.191 -7.011 -5.438 -5.32 -0.8989 -1.671 -2.638 -7.035 -4.854 0.4494 -6.742
5.035 4.404 5.169 -8.989 -7.191 6.787 6.921 -3.281 -2.966 -5.672 -1.258 3.341 0.2638 -4.924 -4.045 2.067 -4.764
5.04 4.494 6.472 -5.753 -7.506 6.697 9.258 2.831 1.393 -3.737 -1.618 8.53 4.309 0.1759 -0.9888 4.494 1.528
5.045 3.146 6.157 0.2697 -5.798 5.124 9.393 10.65 6.921 0.1319 -1.169 11.78 7.738 6.331 2.247 7.461 10.43
5.05 0.6292 3.775 7.326 -2.337 2.831 7.146 18.11 11.91 4.089 -0.1798 11.87 8.793 11.08 4.315 9.798 17.98
5.055 -2.517 -0.3146 12.31 0.5393 0.5843 3.371 22.47 14.7 5.936 0.4494 9.673 7.211 12.49 5.034 10.16 20.4
5.06 -5.124 -4.27 13.08 0.764 -0.4944 0.9438 22.61 15.06 5.408 0.809 7.914 4.748 11.34 4.944 9.258 16.9
5.065 -5.124 -4.899 10.25 -1.079 1.079 3.281 19.87 14.25 4.177 2.427 8.793 3.957 9.849 4.404 8.629 9.438
5.07 -1.618 -0.3596 6.517 -2.517 5.843 11.01 16.31 13.39 3.605 5.843 11.87 5.54 8.793 3.056 8.899 0.7191
5.075 4.404 7.64 4.135 -1.618 11.73 20.18 12.45 12.45 3.473 10.07 14.33 7.738 7.123 0.5393 9.079 -6.921
5.08 10.16 14.92 3.281 0.809 15.73 25.03 7.371 10.56 2.99 12.94 13.28 8.53 4.045 -2.697 7.91 -12.67
5.085 13.21 17.71 2.607 2.247 16 22.43 0.4494 7.146 1.979 13.39 8.617 7.474 0.08793 -5.933 5.213 -16.27
5.09 13.03 15.46 0.5393 0.5843 12.9 14.02 -7.461 2.292 0.6155 11.33 2.726 6.067 -3.254 -7.191 1.978 -18.25
5.095 11.06 10.7 -3.326 -3.73 8.449 4.584 -14.47 -3.101 -1.011 8.09 -1.319 5.716 -5.452 -6.022 -0.7191 -19.06
5.1 9.169 6.607 -7.82 -8 5.034 -1.303 -18.2 -7.82 -2.594 5.303 -2.374 6.507 -6.859 -4.225 -2.427 -19.15
5.105 8.27 4.764 -11.01 -9.618 3.73 -2.202 -17.66 -10.65 -3.825 4.135 -1.935 7.298 -8.53 -4.404 -3.056 -18.34
5.11 7.461 4.045 -11.69 -8.539 3.64 -0.6292 -14.25 -11.24 -4.924 4.225 -2.726 6.243 -11.34 -6.921 -3.596 -16.72
5.115 5.483 1.978 -10.43 -7.101 2.787 -0.6742 -10.83 -10.2 -6.155 4.494 -5.979 2.814 -15.3 -9.258 -4.404 -14.29
5.12 1.978 -2.112 -8.809 -7.191 0.5843 -3.91 -9.213 -8.135 -6.903 4.494 -10.02 -1.143 -18.29 -9.079 -4.764 -10.97
5.125 -1.169 -6.337 -8 -8.315 -1.303 -7.91 -8.899 -5.753 -6.243 4.674 -11.61 -2.638 -18.2 -5.843 -2.787 -6.742
5.13 -1.888 -7.775 -7.955 -8.494 -0.9888 -9.079 -8.404 -3.865 -4.265 5.303 -8.617 -0.4397 -15.12 -0.9888 1.528 -2.427
5.135 -0.1798 -5.528 -8.449 -6.787 1.528 -6.472 -7.326 -3.281 -2.198 5.663 -2.022 4.045 -11.34 3.236 6.472 0.9888
5.14 1.978 -1.618 -8.944 -4.18 4.854 -2.022 -6.112 -3.955 -0.7914 5.303 5.012 8.442 -8.705 5.573 9.978 3.236
5.145 2.697 1.303 -8.989 -2.562 7.236 1.618 -4.989 -4.989 0.1759 4.854 9.936 11.43 -7.123 5.753 11.33 4.494
5.15 1.528 1.933 -8.404 -2.876 8.09 3.101 -3.82 -5.393 0.8354 4.944 12.22 13.19 -6.243 4.854 11.24 4.944
5.155 -0.1798 0.809 -7.775 -4.315 7.506 2.607 -2.382 -5.124 0.7035 6.022 12.84 14.42 -5.54 3.236 10.97 4.404
5.16 -0.8989 -0.3596 -7.506 -4.899 6.247 1.528 -0.6742 -4.674 -0.4836 7.371 13.19 15.39 -5.276 0 11.42 3.326
5.165 -0.2697 -0.2697 -7.461 -3.326 5.124 1.393 1.169 -4.315 -2.154 8.09 13.54 15.65 -5.188 -4.944 12.4 2.067
5.17 0.8989 1.034 -6.876 0 4.315 2.247 2.966 -3.91 -3.385 7.101 12.66 13.98 -5.1 -9.708 12.22 0.9888
5.175 1.528 2.517 -5.169 3.461 3.371 2.787 4.135 -2.697 -3.298 4.315 9.409 9.761 -4.836 -10.97 9.169 0.2697
5.18 1.258 3.146 -2.337 5.798 2.292 2.292 4.629 0.04494 -1.231 0.6292 4.309 3.781 -3.254 -7.461 3.775 0.08989
5.185 0.9888 3.236 1.393 7.146 1.843 1.303 4.854 4.674 2.726 -2.157 -0.6155 -1.583 0.1759 -1.079 -1.618 1.079
5.19 1.708 3.506 5.258 8.135 2.247 0.9438 4.854 10.11 7.43 -3.236 -3.517 -4.133 5.188 4.674 -4.674 3.416
5.195 2.876 4.045 8.09 8.854 2.472 1.034 3.955 14.43 10.99 -3.506 -3.517 -3.078 10.02 7.461 -4.404 7.371
5.2 3.056 4.135 9.258 8.809 1.438 1.124 2.427 16.31 12.49 -3.416 -1.231 1.319 13.98 6.921 -1.798 12.58
5.205 1.798 3.551 9.213 7.82 -0.5843 1.483 1.978 16 12.22 -2.966 2.374 8.09 17.06 4.764 1.708 17.98
5.21 0 2.562 8.809 6.157 -2.562 2.742 4.809 14.61 10.55 -1.798 6.331 15.48 18.91 2.787 4.494 22.11
5.215 -1.169 1.438 8.27 3.955 -3.91 4.944 11.1 13.21 7.65 0 9.585 21.1 19.08 2.337 5.573 23.64
5.22 -1.348 0.1348 7.416 1.258 -4.989 7.236 18.65 12.49 4.309 1.528 11.61 23.48 17.67 2.697 5.213 23.01
5.225 -1.618 -1.483 5.978 -1.753 -6.652 8.449 24.27 12.45 2.154 2.247 12.05 22.42 15.74 3.056 4.944 21.39
5.23 -2.697 -3.281 4 -4.674 -9.528 7.101 24.9 11.96 1.803 1.618 10.46 18.2 13.54 3.685 5.393 19.6
5.235 -4.764 -4.899 1.618 -6.472 -13.62 2.292 19.1 9.663 2.462 -0.1798 5.979 10.82 10.64 4.854 5.933 16.9
5.24 -6.652 -5.888 -0.6742 -6.247 -17.62 -5.258 8.315 5.213 2.814 -2.607 -1.319 0.7035 6.507 5.843 5.393 12.67
5.245 -7.101 -5.888 -2.292 -4.045 -19.87 -13.03 -3.64 0 2.242 -5.034 -10.46 -10.9 1.495 5.034 3.146 7.011
5.25 -6.292 -5.708 -2.921 -1.348 -20.04 -18.83 -12.94 -4.18 1.011 -7.551 -19.79 -21.72 -3.341 2.517 -1.258 0.8989
5.255 -6.112 -7.146 -3.146 -0.2247 -19.6 -22.29 -17.8 -6.247 -0.3078 -10.88 -27.44 -29.81 -7.123 0.1798 -7.82 -4.674
5.26 -8.27 -11.51 -4.09 -1.348 -20.18 -24.54 -19.01 -6.742 -1.363 -15.1 -32.1 -33.94 -9.233 -0.6292 -15.55 -9.438
5.265 -12.4 -18.02 -6.427 -3.416 -21.66 -26.34 -18.43 -7.506 -2.506 -19.15 -33.41 -34.56 -10.73 -0.9888 -22.83 -14.38
5.27 -16.09 -23.87 -9.798 -4.494 -22.52 -27.55 -18.34 -10.61 -5.144 -21.3 -32.45 -34.56 -13.81 -3.056 -28.4 -20.58
5.275 -16.9 -26.25 -13.08 -3.865 -21.35 -27.69 -19.96 -16.31 -10.24 -20.85 -30.51 -36.76 -19.61 -8.27 -31.64 -27.42
5.28 -14.47 -24.13 -14.38 -2.337 -17.98 -25.98 -22.34 -22.25 -16.18 -17.8 -28.49 -41.42 -26.03 -15.46 -32.09 -31.73
5.285 -10.34 -18.56 -12.27 -0.9888 -13.08 -21.66 -22.79 -24.58 -19.43 -12.58 -25.5 -45.02 -28.67 -20.94 -29.57 -30.2
5.29 -6.472 -11.91 -6.921 -0.1348 -8.135 -15.42 -19.19 -21.21 -17.76 -6.562 -20.66 -43.53 -24.8 -20.67 -24.81 -22.56
5.295 -4.135 -6.876 -0.6292 0.5843 -4.36 -8.989 -12.45 -13.53 -12.4 -1.438 -13.81 -35.88 -15.65 -14.11 -19.24 -12.22
5.3 -2.966 -4.674 3.685 1.708 -1.708 -3.865 -5.213 -4.989 -6.375 1.798 -5.804 -23.92 -5.012 -5.034 -13.93 -3.506
5.305 -2.247 -4.404 4.809 3.056 1.169 0.2247 0.4494 1.438 -1.759 3.775 1.847 -11.26 3.693 1.258 -8.539 1.798
5.31 -1.169 -4.404 3.596 3.865 5.079 4.584 4.494 5.169 1.187 5.124 8.617 -0.3517 9.321 3.326 -2.517 4.944
5.315 -0.5393 -3.596 2.247 3.775 9.169 9.663 8.27 7.281 3.605 6.382 13.98 7.826 12.75 3.685 3.865 8.27
5.32 -0.809 -2.112 2.337 3.371 11.73 14.52 13.17 9.438 6.287 7.281 18.11 14.33 15.74 5.034 9.528 12.85
5.325 -1.528 -0.3146 4.18 3.82 11.91 18.16 19.33 12.27 8.837 6.831 20.84 19.79 18.64 7.551 12.85 17.08
5.33 -1.708 1.528 6.427 5.034 9.978 19.91 24.99 14.56 9.233 4.045 21.54 23.04 19.61 9.079 12.76 17.98
5.335 -0.809 3.416 7.64 5.393 7.101 19.91 27.55 14.97 6.111 -0.7191 19.96 22.69 17.32 7.91 9.888 15.01
5.34 0.4494 5.213 7.326 3.416 4.719 19.33 26.34 13.44 1.099 -5.573 17.32 18.91 13.1 4.584 6.831 10.43
5.345 1.618 6.966 6.247 -0.2247 4.135 19.87 23.1 11.51 -2.154 -7.551 15.48 14.51 9.936 1.978 6.472 7.91
5.35 2.337 8.225 5.483 -2.921 5.124 21.26 19.87 10.47 -1.759 -5.573 14.77 11.78 9.761 2.697 8.449 8.449
5.355 2.697 8.36 4.989 -2.472 5.978 20.81 16.49 10.11 0.9673 -1.888 13.45 10.11 10.99 6.472 9.708 9.528
5.36 2.876 6.966 4.225 0.764 4.809 15.51 11.42 9.258 3.166 -0.3596 8.354 6.859 10.82 9.348 6.652 7.82
5.365 2.517 4.809 2.921 4.09 1.348 5.079 3.955 6.921 2.814 -3.506 -1.671 0.08793 7.386 7.64 -0.9888 2.247
5.37 1.079 2.831 1.618 4.494 -3.551 -7.775 -5.034 2.921 0.1319 -10.43 -14.68 -9.673 1.231 1.888 -10.52 -5.303
5.375 -1.528 1.124 0.5843 1.213 -8.719 -19.6 -13.89 -2.382 -3.385 -17.71 -26.56 -19.79 -5.628 -3.775 -18.25 -11.69
5.38 -4.854 -1.213 -0.5393 -3.191 -12.9 -27.73 -21.3 -8.18 -6.067 -21.66 -33.5 -26.73 -10.82 -5.933 -21.3 -14.2
5.385 -7.281 -5.034 -2.562 -5.303 -14.92 -31.33 -26.83 -13.53 -6.859 -20.31 -34.38 -29.02 -13.1 -4.315 -19.24 -12.58
5.39 -7.91 -9.843 -5.618 -3.596 -14.47 -31.37 -31.06 -17.8 -6.375 -14.74 -30.78 -27.61 -13.1 -0.9888 -13.75 -8.27
5.395 -7.191 -14.29 -9.034 0.1348 -12.27 -29.75 -34.38 -20.58 -5.804 -7.91 -25.68 -24.89 -12.31 1.708 -7.101 -2.787
5.4 -6.382 -16.4 -11.6 2.697 -9.079 -27.1 -35.78 -21.26 -5.452 -1.888 -20.31 -21.81 -10.99 2.787 -0.5393 2.966
5.405 -6.472 -14.83 -12.31 2.472 -5.258 -22.43 -33.21 -19.73 -4.748 2.966 -14.51 -17.59 -9.057 2.247 5.213 7.73
5.41 -6.742 -10.07 -11.28 0.08989 -1.034 -15.33 -26.47 -16.81 -3.781 7.011 -7.914 -11.78 -6.859 0.6292 8.809 9.438
5.415 -6.202 -4.404 -9.933 -2.652 2.742 -7.146 -18.07 -14.2 -3.429 9.618 -1.759 -5.804 -5.892 -1.888 8.27 6.562
5.42 -4.135 -0.2247 -9.348 -4.584 5.483 -0.3146 -11.28 -12.72 -3.913 10.25 2.198 -1.319 -6.331 -5.393 3.955 0.2697
5.425 -0.9888 1.978 -9.034 -5.303 7.281 4.404 -7.281 -11.78 -4.089 9.348 4.045 1.319 -6.683 -9.079 -0.9888 -5.573
5.43 2.427 3.416 -7.326 -4.899 8.764 8.045 -4.404 -9.978 -2.77 8.719 5.54 3.957 -5.1 -10.43 -3.056 -7.461
5.435 5.124 5.483 -3.326 -3.371 10.43 12.18 -0.2247 -6.247 0.1319 9.708 9.145 8.178 -0.8793 -7.461 -0.809 -4.674
5.44 6.831 8.854 2.112 -0.4944 12.58 17.8 6.517 -0.3596 3.869 12.58 15.48 14.6 4.836 -1.258 3.416 -0.1798
5.445 8.18 13.26 7.281 3.685 15.42 24.67 15.15 6.607 7.342 16 22.69 21.28 10.11 4.404 6.202 1.348
5.45 9.618 17.8 10.65 8 18.47 30.61 23.06 12.63 9.497 17.35 27.35 24.97 12.4 6.202 5.034 -2.247
5.455 10.79 21.12 11.78 10.2 20.18 32.54 27.33 15.46 9.453 15.01 26.91 23.65 10.38 3.685 0.5393 -9.798
5.46 10.88 22.11 11.28 9.034 19.19 29.08 26.79 14.2 7.386 9.798 22.07 18.03 5.364 -1.079 -3.865 -16.45
5.465 9.618 20.18 10.29 5.079 15.46 21.62 22.92 10.25 4.397 4.764 15.92 11.61 0.4397 -5.213 -4.404 -17.71
5.47 7.461 15.46 9.573 0.4944 10.2 13.3 18.25 6.112 1.627 2.427 11.52 7.474 -1.935 -6.202 -0.5393 -12.22
5.475 4.854 8.854 9.079 -2.652 4.899 6.562 14.52 4.404 -0.1759 3.056 9.585 6.243 -0.7914 -3.416 5.213 -2.157
5.48 2.517 2.067 8.449 -3.371 0.8539 2.652 12.45 5.978 -0.3078 4.854 8.705 6.947 3.341 1.348 9.978 8.809
5.485 0.9888 -2.292 7.73 -1.528 -0.9438 1.483 11.73 9.663 1.539 6.202 7.562 8.442 8.881 6.022 12.76 17.44
5.49 1.079 -2.607 7.011 1.888 -1.079 1.618 11.06 12.31 4.177 6.022 5.276 9.585 13.01 8.899 13.66 21.3
5.495 2.697 0.3146 5.843 4.944 -1.079 0.5843 8.09 11.06 5.144 4.045 1.671 9.233 13.01 9.528 12.67 19.6
5.5 5.034 4.045 3.865 5.618 -2.517 -3.281 1.483 5.528 3.385 0.9888 -2.99 6.683 8.266 8 9.618 13.3
