    T[sec] F7  F3  F4  F8  T3  C3  Cz  C4  T4  T5  P3  Pz  P4  T6  O1  O2 
41 30.01 30.01 30.01 30.01 30.01 30.01 30.01 30.01 30.01 30.01 30.01 30.01 30.01 30.01 30.01 30.01
0 1.583 3.122 0.7474 -1.451 4.001 1.275 0.6595 -1.363 -1.671 2.462 2.154 2.286 3.649 4.792 1.671 5.32
0.005 5.54 10.33 5.408 2.286 7.079 5.54 5.32 2.726 0.5276 4.177 4.88 4.441 5.232 7.211 2.638 5.892
0.01 8.705 15.48 11.3 8.969 9.057 9.145 10.16 8.09 4.748 4.792 6.507 6.243 6.727 8.969 3.869 6.023
0.015 9.409 14.9 15.74 15.26 8.793 10.02 12.27 12.4 9.145 3.649 6.243 6.903 7.386 8.661 5.012 5.32
0.02 7.298 8.046 15.08 16.31 6.199 7.342 10.02 12.57 9.585 1.231 4.704 6.551 6.155 5.76 6.111 4.133
0.025 2.99 -1.319 8.09 10.33 2.418 2.374 4.573 7.782 4.485 -0.7474 3.341 5.892 3.298 1.539 6.991 3.254
0.03 -1.143 -7.738 -1.363 1.099 -1.539 -2.286 -0.3957 1.319 -2.506 -1.935 2.066 4.485 -0.6155 -2.814 6.331 1.583
0.035 -3.429 -8.266 -8.178 -6.199 -5.1 -4.924 -2.726 -3.298 -6.771 -3.034 -0.08793 1.011 -4.88 -6.507 2.99 -2.242
0.04 -3.693 -4.353 -10.16 -8.793 -6.903 -5.056 -2.946 -5.276 -6.947 -3.825 -2.858 -4.177 -8.178 -8.398 -1.979 -6.771
0.045 -3.517 -0.2198 -8.53 -7.386 -5.452 -3.517 -3.298 -6.463 -4.924 -3.429 -4.792 -8.925 -9.233 -7.738 -6.199 -9.321
0.05 -3.429 0.6595 -6.331 -4.704 -1.671 -1.979 -5.628 -8.002 -3.473 -1.715 -5.144 -11.65 -8.969 -6.419 -8.398 -10.46
0.055 -3.693 -2.462 -6.551 -4.441 1.583 -1.759 -10.42 -10.55 -4.924 0.1319 -4.485 -12.4 -10.11 -7.606 -9.013 -12.79
0.06 -3.693 -6.947 -10.38 -7.87 2.286 -2.858 -15.96 -13.76 -9.805 1.319 -3.385 -11.7 -14.07 -11.61 -8.925 -16.62
0.065 -2.99 -8.574 -14.82 -12.05 0.9673 -3.869 -18.86 -15.65 -14.99 1.627 -2.594 -9.936 -18.51 -15.08 -8.53 -19.48
0.07 -1.231 -5.672 -15.39 -12.75 -0.6155 -3.693 -17.02 -13.98 -16.27 0.9233 -2.55 -7.738 -19.7 -14.51 -7.87 -18.55
0.075 0.7914 -0.4397 -10.64 -9.541 -1.539 -2.462 -11.3 -8.837 -12.53 -0.6155 -2.77 -5.232 -15.26 -9.145 -6.199 -12.49
0.08 1.935 3.781 -3.341 -5.188 -1.803 -0.7474 -4.089 -2.506 -6.111 -1.847 -1.847 -1.451 -5.452 -0.7474 -2.506 -1.803
0.085 1.319 5.32 2.814 -1.715 -1.891 1.231 3.298 3.034 0.6155 -1.847 1.055 4.617 6.683 7.606 3.254 10.2
0.09 0.2638 5.408 6.199 0.4397 -2.066 3.737 10.16 7.606 6.463 -0.7474 5.144 11.83 16.18 12.35 9.409 18.07
0.095 0.8793 6.463 7.211 1.539 -1.495 6.859 15.7 11.26 10.42 0.5716 8.925 17.54 19.35 12.4 14.16 18.69
0.1 4.133 9.541 6.991 2.418 1.231 10.07 18.82 13.85 12.18 1.583 11.34 20.09 17.02 10.6 16.36 14.38
0.105 8.178 12.93 6.947 4.792 6.287 11.83 19.13 15.61 12.71 2.594 11.83 19.13 13.32 10.2 15.56 9.849
0.11 10.64 13.76 7.43 8.178 10.68 10.46 16.31 16.4 12.62 3.385 10.33 15.21 10.86 11.08 11.96 7.211
0.115 9.936 10.73 7.386 9.321 10.64 6.067 10.73 15.3 10.82 3.825 7.65 9.321 8.881 10.07 6.815 5.1
0.12 6.683 5.32 5.892 6.419 5.716 1.187 4.177 11.48 6.683 4.221 5.144 3.649 5.628 5.452 1.803 1.979
0.125 2.902 0.3957 3.341 1.319 -0.1319 -0.6155 -0.6155 5.144 1.055 4.968 3.869 0.3078 0.5716 -1.407 -1.539 -2.286
0.13 0.6155 -2.33 0.3517 -3.473 -2.506 1.979 -2.682 -2.55 -5.012 5.848 4.133 -0.3078 -5.628 -7.914 -2.506 -6.727
0.135 0.4397 -3.385 -3.21 -7.255 0.3078 7.167 -3.517 -10.33 -10.68 6.375 5.54 0.3517 -10.95 -11.43 -1.407 -9.101
0.14 0.2638 -4.66 -7.167 -9.233 5.1 10.16 -4.485 -16.14 -14.2 5.979 6.463 0.4836 -12.84 -10.2 0 -7.43
0.145 -2.022 -6.771 -9.717 -7.958 6.947 7.65 -5.496 -17.54 -12.97 4.529 5.1 -1.275 -10.24 -5.32 -0.2198 -2.242
0.15 -6.331 -8.266 -8.749 -3.737 3.341 0 -5.892 -13.72 -7.167 1.979 1.099 -5.144 -5.584 -0.2198 -2.374 3.078
0.155 -10.11 -6.903 -3.561 0.8354 -3.517 -8.705 -5.276 -6.331 -0.1319 -0.8793 -3.913 -9.673 -2.198 1.979 -4.968 5.144
0.16 -10.99 -2.594 3.913 4.353 -8.53 -13.72 -3.298 1.715 5.144 -3.078 -7.386 -12.09 -1.231 1.143 -6.067 3.561
0.165 -8.617 1.979 10.6 7.079 -8.354 -12.66 -0.1319 8.178 7.562 -3.913 -8.002 -10.2 -1.187 -0.6155 -4.968 0.4836
0.17 -4.397 3.957 13.41 8.486 -4.089 -6.991 3.254 11.43 7.342 -3.341 -5.628 -4.573 -0.6595 -1.759 -2.242 -2.022
0.175 -0.1759 3.034 11.52 6.991 0.08793 -0.04397 5.408 11.39 5.496 -1.979 -1.539 2.198 0.7035 -1.583 0.7474 -3.034
0.18 3.341 1.715 6.683 3.254 1.099 5.452 6.287 9.277 4.001 -0.7474 2.154 7.255 2.814 0.04397 2.682 -2.286
0.185 5.628 2.55 1.539 -0.1759 -0.2638 8.749 6.551 6.419 3.781 -0.04397 3.781 9.145 4.968 2.198 2.902 -0.3957
0.19 7.123 6.067 -2.77 -2.462 -1.231 10.02 6.023 3.078 2.99 0 3.166 7.298 5.496 2.77 2.066 1.275
0.195 8.002 9.409 -6.507 -4.529 0.08793 9.101 3.605 -1.143 -0.7035 -0.7035 0.9233 2.33 3.254 0.5276 0.8793 1.583
0.2 7.298 8.881 -9.101 -6.243 2.506 5.32 -0.3078 -5.144 -6.155 -2.022 -2.374 -4.133 -0.1319 -3.034 -0.8793 1.143
0.205 4.397 3.517 -8.31 -5.628 3.517 -1.011 -3.781 -6.947 -9.189 -3.429 -6.111 -9.673 -1.847 -4.617 -3.385 1.319
0.21 0.3517 -3.034 -2.594 -1.935 1.803 -7.958 -4.748 -5.364 -7.035 -4.089 -8.749 -12.27 -0.6595 -2.418 -5.716 2.902
0.215 -2.198 -5.804 6.947 3.385 -1.231 -12.22 -2.55 -0.7035 -0.3517 -3.473 -8.661 -10.9 2.55 2.814 -6.331 4.704
0.22 -1.847 -2.462 16.53 9.101 -3.166 -11.87 2.11 5.32 8.134 -1.979 -5.804 -6.463 6.507 8.881 -4.836 5.716
0.225 0.8793 4.353 21.46 13.94 -2.506 -7.474 7.43 10.38 14.64 -0.2198 -2.11 -1.011 9.321 12.79 -2.374 5.188
0.23 3.957 10.02 19.43 15.78 -0.2198 -1.759 10.6 12.4 15.78 1.099 0.5716 2.858 9.365 12.57 -0.1759 2.902
0.235 5.716 11.21 12.31 12.88 1.539 2.286 9.673 10.99 11.21 2.066 1.627 4.001 6.375 8.793 1.187 -0.2198
0.24 5.54 7.826 4.485 6.991 1.627 3.737 5.276 7.562 4.704 3.122 1.583 3.517 2.374 4.485 1.891 -2.286
0.245 3.869 2.682 -0.1319 2.638 0.8354 3.473 -0.2198 3.957 0.8354 4.485 1.627 3.781 0 2.638 2.726 -1.583
0.25 2.022 -1.055 -1.275 1.891 1.011 3.166 -5.012 1.055 0.6595 5.76 2.638 5.804 -0.4397 3.034 4.309 0.8793
0.255 1.319 -1.671 -0.7474 3.254 2.682 3.605 -8.046 -1.583 1.583 5.672 4.309 7.914 -0.2638 3.429 5.979 2.55
0.26 2.198 0.1759 -0.1319 4.353 5.144 4.66 -8.749 -3.913 1.451 3.517 5.012 8.002 -0.4397 2.462 6.199 2.286
0.265 3.341 3.166 0.5276 4.441 6.947 5.892 -6.507 -5.32 0.08793 0.4397 3.825 5.628 -0.7914 0.3517 4.265 0.9673
0.27 4.133 6.067 1.671 3.21 7.386 7.035 -2.154 -5.54 -1.759 -1.627 1.935 2.066 -1.231 -2.374 1.539 -0.3517
0.275 3.605 7.562 2.462 0.1759 6.155 7.255 1.759 -5.056 -3.561 -1.451 1.099 -0.7474 -2.198 -5.452 0.04397 -1.143
0.28 1.231 5.892 1.407 -3.517 3.122 5.144 3.078 -4.88 -5.012 0 1.143 -2.198 -3.781 -8.354 -0.04397 -1.759
0.285 -3.517 0 -2.638 -6.507 -1.803 -0.4836 0.9673 -5.804 -6.375 0.5716 0.2638 -3.21 -5.584 -10.38 -0.2198 -2.726
0.29 -9.497 -8.925 -9.189 -9.365 -8.09 -9.013 -4.089 -8.222 -8.969 -1.319 -3.034 -5.496 -7.826 -11.56 -1.891 -4.924
0.295 -14.25 -17.28 -16.53 -14.07 -13.72 -17.28 -10.16 -11.43 -13.32 -5.056 -7.606 -9.101 -10.82 -12.05 -4.485 -8.486
0.3 -15.74 -21.19 -22.12 -19.7 -16.22 -21.1 -14.51 -13.89 -16.84 -7.606 -10.42 -11.61 -13.1 -11.34 -6.243 -11.87
0.305 -13.81 -19.48 -24.45 -22.38 -13.72 -17.89 -15.3 -14.07 -16 -6.595 -9.189 -10.02 -13.19 -9.277 -5.584 -13.19
0.31 -9.761 -14.11 -23.13 -19.48 -7.167 -9.629 -13.37 -12.13 -10.77 -2.374 -4.001 -4.66 -11.43 -6.947 -2.77 -12.49
0.315 -5.628 -8.925 -18.86 -12.4 -0.4397 -1.363 -11.43 -9.497 -4.221 1.627 1.539 0.9673 -9.277 -5.408 -0.08793 -10.86
0.32 -3.429 -6.903 -12.09 -3.957 2.858 2.198 -10.99 -7.123 0.3957 2.022 3.21 2.902 -7.035 -3.781 -0.2198 -8.574
0.325 -3.605 -8.046 -3.957 3.561 1.539 0.04397 -11.04 -4.836 2.506 -1.451 -0.3078 0.6595 -3.825 -0.8793 -3.561 -4.924
0.33 -4.748 -9.761 3.166 7.826 -2.198 -4.397 -9.717 -2.374 3.122 -5.716 -5.804 -2.858 0.5716 2.902 -7.255 0.08793
0.335 -4.66 -9.409 6.727 7.342 -4.748 -6.507 -6.111 0.3517 3.034 -6.947 -8.002 -3.737 4.88 5.804 -7.518 5.364
0.34 -2.638 -6.111 6.331 3.869 -3.693 -3.825 0.08793 3.298 3.517 -3.825 -4.485 -0.2638 8.442 7.035 -3.385 10.02
0.345 0.3517 -1.319 5.012 1.935 0.3517 2.154 8.53 6.859 5.408 1.275 2.022 5.672 11.43 7.211 2.33 13.41
0.35 2.814 3.517 6.375 4.001 4.353 7.65 17.54 11.04 7.694 4.529 6.771 10.02 13.37 6.991 5.936 14.9
0.355 3.957 7.87 11.39 8.398 5.408 9.849 24.67 15.21 8.925 3.649 7.079 10.11 13.63 6.595 6.155 14.42
0.36 3.957 11.61 17.23 12.09 3.122 8.881 28.18 18.55 9.101 0.3078 3.825 6.903 12.84 6.331 4.221 12.57
0.365 3.341 14.2 19.35 13.59 -0.08793 6.947 27.57 19.87 9.277 -1.803 0.5716 3.737 11.61 6.155 2.814 10.33
0.37 2.99 14.29 14.73 11.52 -1.363 5.848 22.51 17.85 9.145 -0.7035 0.3078 2.55 9.497 5.364 3.561 7.518
0.375 3.078 10.9 4.924 5.804 0.3078 5.584 13.19 12 7.298 2.594 3.078 2.154 5.54 3.781 5.716 3.605
0.38 3.166 4.309 -4.485 -0.7035 3.561 4.485 1.407 3.869 4.089 5.1 5.76 0.3517 0.6155 2.55 6.639 -0.7474
0.385 1.847 -3.254 -8.178 -3.605 5.496 1.539 -9.761 -3.341 1.891 4.485 4.968 -3.517 -3.341 2.374 4.265 -4.529
0.39 -0.4397 -8.617 -5.188 -1.715 4.265 -2.418 -17.85 -7.694 1.451 1.187 0.7914 -7.738 -5.892 1.891 -0.4836 -7.65
0.395 -2.726 -9.453 0.7474 1.627 0.2198 -5.144 -21.94 -8.969 1.099 -2.33 -3.605 -9.453 -7.474 -0.5716 -4.485 -10.38
0.4 -3.781 -5.936 5.056 3.034 -4.001 -4.836 -21.06 -8.134 -0.9673 -3.649 -5.188 -6.947 -7.914 -4.397 -5.408 -11.87
0.405 -3.429 -0.7035 5.848 2.506 -5.804 -1.715 -14.77 -5.936 -4.573 -2.506 -3.561 -1.231 -6.331 -6.859 -3.429 -10.64
0.41 -2.814 3.122 4.045 0.7914 -4.704 1.891 -4.617 -3.385 -8.969 -0.6155 -0.4397 4.221 -3.517 -6.463 -0.5716 -6.815
0.415 -2.638 3.869 1.055 -2.198 -2.594 3.473 5.364 -2.022 -12.79 -0.08793 1.583 6.023 -1.583 -4.441 1.055 -2.198
0.42 -3.429 1.099 -2.682 -6.199 -1.891 2.198 10.99 -2.77 -14.11 -1.407 1.011 3.473 -1.539 -2.902 0.4836 1.143
0.425 -4.924 -3.825 -7.694 -10.07 -3.298 -0.7914 10.42 -5.496 -12.09 -3.385 -1.803 -1.011 -2.814 -3.166 -1.891 2.33
0.43 -5.892 -8.969 -14.03 -13.67 -5.276 -3.254 4.924 -9.145 -8.442 -4.177 -4.66 -4.485 -4.441 -5.276 -4.133 1.715
0.435 -5.1 -12.09 -19.39 -16.97 -5.408 -3.781 -2.066 -11.78 -5.979 -2.946 -5.144 -5.496 -5.188 -7.167 -4.353 0.7474
0.44 -2.638 -12.13 -20.22 -17.98 -2.814 -2.506 -6.463 -11.21 -4.617 -0.3078 -2.99 -4.529 -3.913 -6.331 -2.286 1.099
0.445 0.08793 -9.233 -14.25 -13.98 1.275 -1.231 -6.463 -6.947 -2.374 2.418 -0.04397 -3.034 -0.8354 -2.198 0.3957 2.946
0.45 1.495 -4.441 -3.605 -5.848 4.221 -1.407 -4.221 -1.319 1.407 3.605 1.847 -2.77 1.627 2.462 2.33 4.001
0.455 1.495 0.7914 6.067 1.539 4.045 -3.166 -3.737 2.418 4.924 2.858 2.066 -4.177 1.143 4.485 2.814 1.979
0.46 0.8793 5.188 9.805 5.276 1.671 -4.88 -5.892 3.122 6.727 1.187 1.187 -5.936 -0.6595 4.001 2.022 -1.891
0.465 0.7035 8.002 7.386 6.551 -0.4836 -4.485 -7.386 2.902 7.43 0.1759 0.4836 -5.628 -0.1759 3.869 0.5276 -4.221
0.47 1.407 9.101 2.638 8.046 -0.1759 -1.099 -4.573 4.529 8.002 0.8793 1.275 -2.066 3.957 5.716 -0.4836 -2.858
0.475 3.166 8.881 0.5716 10.2 2.33 4.177 2.506 8.398 8.925 2.858 4.001 3.517 9.453 8.354 -0.3517 1.055
0.48 4.748 7.386 3.385 12.27 5.1 8.881 10.02 12.35 10.33 4.485 6.947 8.749 12.97 9.717 0.4836 4.441
0.485 5.276 4.968 9.101 13.28 6.199 10.55 13.28 13.54 12.27 3.957 7.474 11.48 12.57 8.793 0.9673 5.056
0.49 4.485 2.77 13.23 12 5.188 8.354 10.11 10.42 13.23 1.055 4.529 10.55 8.705 5.979 0.6595 2.726
0.495 3.957 2.11 12.13 7.694 3.034 3.605 2.154 4.089 11.39 -2.858 -0.5276 6.595 3.473 2.506 0.1759 -0.6155
0.5 4.573 3.517 6.243 2.286 1.231 -1.231 -5.276 -1.979 6.815 -5.54 -5.452 1.759 -0.3957 0.08793 0.1319 -2.242
0.505 6.155 5.979 -0.7914 -1.011 0.2198 -4.089 -7.958 -5.496 1.231 -5.496 -8.31 -1.627 -2.022 -1.319 0.3957 -1.099
0.51 7.123 7.386 -5.452 -2.242 -0.3517 -4.309 -5.804 -6.551 -4.617 -3.21 -8.398 -2.814 -3.429 -3.605 0.9233 0.8354
0.515 6.507 6.287 -6.507 -3.869 -1.319 -2.726 -2.33 -6.903 -10.46 -0.6595 -6.023 -2.682 -6.507 -7.694 1.451 1.055
0.52 4.221 2.814 -4.924 -6.815 -2.11 -0.6595 -0.08793 -7.386 -14.47 0.6155 -2.638 -2.198 -9.673 -11.43 1.451 -0.3517
0.525 1.143 -0.8354 -2.506 -8.617 -1.407 1.099 1.539 -6.771 -14.33 0.7474 0.3078 -1.715 -9.497 -11.61 0.7035 -1.495
0.53 -0.4397 -2.242 -0.7474 -7.782 1.099 2.594 3.737 -4.089 -10.2 1.055 2.418 -1.275 -5.232 -7.958 -0.1759 -1.011
0.535 0.3517 -0.5716 -0.8354 -5.936 4.441 3.737 5.892 -0.4397 -5.54 2.462 4.089 -1.099 0.08793 -3.254 -0.4836 0
0.54 2.374 1.935 -2.858 -4.968 6.331 4.265 6.199 2.242 -3.034 4.441 5.276 -1.099 3.254 -0.1319 -0.2638 0.1759
0.545 2.99 2.022 -5.892 -4.792 5.54 3.693 3.561 2.77 -2.462 5.276 4.924 -1.055 3.693 1.583 -0.5276 -0.4836
0.55 0.8793 -1.715 -8.574 -4.353 2.506 1.627 -1.143 1.627 -2.418 3.473 2.814 -0.8793 2.638 2.594 -1.671 -1.275
0.555 -2.902 -7.079 -9.233 -3.21 -0.8354 -1.407 -5.716 0.5276 -1.671 -0.4397 -0.1319 -0.7474 2.286 3.825 -3.385 -1.055
0.56 -5.892 -10.38 -6.815 -0.6595 -2.726 -4.001 -6.815 0.9673 0.2198 -4.133 -2.506 -0.3957 3.869 5.232 -4.573 1.099
0.565 -6.155 -9.101 -1.539 3.517 -2.374 -4.529 -3.254 2.99 2.682 -4.836 -3.166 1.011 6.903 5.979 -4.177 4.529
0.57 -3.517 -4.221 4.485 7.342 -0.8354 -2.638 2.594 4.66 3.825 -1.671 -1.363 3.473 8.398 4.617 -1.583 7.298
0.575 0.6155 1.011 8.222 8.09 0.4836 0.7035 6.595 4.397 2.55 3.561 2.286 6.331 6.507 1.671 2.726 7.562
0.58 4.485 3.869 8.881 6.375 1.011 4.089 7.035 2.506 1.099 7.694 6.067 8.574 3.078 0.04397 6.639 6.243
0.585 6.859 4.353 8.002 5.76 1.539 6.331 5.672 1.275 2.462 8.398 7.694 9.277 1.627 2.11 7.606 5.408
0.59 8.617 5.056 7.958 7.694 3.034 7.342 5.54 2.11 6.331 5.628 6.375 7.958 2.99 6.551 5.056 5.76
0.595 10.46 8.31 9.849 9.849 5.408 7.782 8.09 5.012 9.189 1.451 3.385 4.617 5.364 9.673 0.9233 6.463
0.6 11.78 13.23 13.01 10.33 7.43 8.134 13.15 9.233 9.013 -1.715 0.9233 1.231 6.903 9.805 -2.154 6.595
0.605 10.64 16.14 15.83 10.11 7.87 8.266 19.26 14.29 7.474 -2.198 -0.1759 -0.1759 7.43 8.266 -2.638 6.199
0.61 6.155 14.03 16.88 10.6 5.848 7.167 23.35 18.86 6.859 -0.5716 0.3957 0.8793 7.255 6.815 -0.7914 5.144
0.615 -0.3517 7.386 15.34 11.21 1.935 4.089 22.07 20.53 7.474 1.143 1.583 2.462 5.628 5.804 1.715 3.122
0.62 -6.155 -0.4836 11.61 10.73 -2.682 -0.7914 14.33 17.1 7.914 1.187 1.715 1.759 2.682 4.792 2.682 0.5276
0.625 -9.761 -6.507 6.507 8.705 -6.595 -6.375 2.726 8.354 6.727 -0.5716 -0.4397 -2.462 -0.9233 3.122 1.143 -1.143
0.63 -11.26 -10.2 0.7914 4.836 -9.233 -11.21 -8.617 -2.99 2.99 -3.166 -4.133 -9.013 -4.089 0.4397 -1.759 -1.055
0.635 -11.78 -13.67 -5.056 -0.8793 -10.6 -14.38 -15.96 -12.62 -2.726 -5.012 -7.43 -14.77 -6.111 -2.814 -3.913 0.6155
0.64 -13.1 -18.99 -10.29 -6.727 -10.99 -15.74 -17.72 -17.06 -7.562 -5.408 -8.925 -16.27 -6.067 -5.188 -3.913 2.682
0.645 -14.77 -25.06 -14.42 -10.73 -10.2 -15.56 -15.61 -16.53 -9.805 -4.529 -8.486 -11.96 -4.748 -6.419 -1.935 2.99
0.65 -15.04 -27.44 -18.2 -13.98 -7.914 -13.85 -14.29 -14.99 -11.12 -3.122 -6.419 -3.737 -5.276 -8.398 1.055 -0.7035
0.655 -11.7 -22.2 -22.6 -19.35 -4.177 -10.29 -17.54 -16.71 -14.38 -1.715 -3.122 4.353 -10.11 -12.53 4.309 -8.398
0.66 -5.1 -9.893 -26.78 -25.9 0.1319 -4.88 -24.01 -21.32 -19.08 -0.2198 0.7035 9.189 -16.75 -16.62 6.771 -16.27
0.665 1.759 3.693 -27.96 -28.53 4.133 1.143 -28.01 -24.14 -20.88 1.495 3.825 10.02 -19.74 -16.97 7.035 -19.13
0.67 6.067 11.74 -23.57 -23.61 6.507 5.892 -24.84 -21.02 -17.06 3.034 4.968 7.562 -16.36 -12.66 4.573 -15.34
0.675 6.507 11.17 -14.16 -13.41 6.463 7.386 -15.21 -12.44 -9.585 3.341 3.781 3.341 -9.189 -6.683 0.1319 -8.178
0.68 4.573 4.529 -3.517 -3.561 4.397 5.232 -4.221 -3.166 -2.726 1.715 0.7914 -1.011 -3.21 -3.034 -4.66 -2.594
0.685 1.935 -2.286 3.781 2.022 1.451 1.143 3.429 2.11 0.5716 -0.8354 -2.462 -3.957 -1.891 -3.122 -7.914 -1.627
0.69 0.6155 -4.309 5.496 2.286 -0.9233 -2.11 5.936 2.066 -0.04397 -2.682 -4.133 -4.66 -5.144 -5.979 -8.31 -5.144
0.695 1.231 -1.011 3.517 -0.7914 -1.935 -2.682 5.188 -0.4836 -2.418 -2.462 -3.166 -3.605 -9.761 -8.442 -6.111 -9.98
0.7 2.638 4.529 2.33 -2.638 -1.583 -0.6595 5.056 -1.099 -3.341 -0.7914 -0.7035 -2.022 -10.86 -7.43 -3.561 -12.05
0.705 3.429 8.574 5.1 -0.04397 -0.3078 2.242 7.474 1.935 -1.143 0.2638 0.5276 -1.187 -6.331 -2.726 -2.99 -9.541
0.71 2.99 9.849 10.33 5.452 0.9233 3.781 10.07 6.199 2.374 -0.8354 -0.7474 -2.198 0.5276 2.682 -4.748 -4.573
0.715 2.286 9.409 13.5 9.145 1.363 2.946 8.793 7.65 3.957 -4.089 -3.517 -4.836 4.704 5.144 -6.947 -0.9673
0.72 2.022 8.398 11.43 8.793 0.7914 0.4397 2.99 5.1 3.385 -7.035 -5.364 -7.342 4.089 4.309 -7.43 -0.3957
0.725 1.671 6.463 5.012 6.419 -0.08793 -2.066 -3.825 0.8354 2.814 -6.947 -4.704 -7.65 0.5276 2.198 -5.496 -1.847
0.73 0.5276 2.726 -2.066 4.221 -0.8793 -3.869 -8.134 -2.462 3.122 -3.078 -1.803 -5.628 -3.429 0.1319 -2.198 -3.298
0.735 -1.583 -2.374 -7.079 1.407 -1.495 -4.968 -9.145 -4.397 2.418 2.066 1.451 -3.429 -6.551 -1.979 0.9233 -3.605
0.74 -3.869 -6.903 -9.277 -2.506 -2.198 -6.111 -8.793 -5.848 -0.3517 5.276 2.814 -3.166 -8.09 -3.869 2.506 -2.154
0.745 -5.892 -8.442 -9.321 -5.979 -3.034 -7.474 -9.057 -7.167 -3.649 4.66 1.319 -4.924 -7.43 -4.441 2.242 0.8793
0.75 -6.419 -6.683 -8.09 -6.815 -3.781 -8.354 -10.6 -7.782 -5.32 1.319 -1.627 -6.727 -5.1 -3.298 1.055 3.869
0.755 -5.276 -4.133 -5.848 -4.792 -4.089 -7.958 -12.31 -6.507 -4.309 -1.891 -3.341 -6.155 -2.022 -0.9673 0.4397 5.056
0.76 -3.078 -4.001 -2.902 -1.319 -3.517 -5.892 -11.52 -2.99 -0.8354 -2.814 -2.462 -1.847 1.583 1.759 0.8793 4.397
0.765 -1.495 -7.167 -0.1759 1.979 -2.022 -2.682 -6.551 2.022 3.913 -1.319 0 4.968 5.936 4.617 1.803 3.737
0.77 -0.7035 -10.42 0.6155 2.77 -0.2198 0.7035 1.583 6.243 7.826 0.5716 2.022 10.9 10.07 6.903 2.418 4.529
0.775 0 -9.233 -1.011 -0.3078 0.8793 3.298 9.936 8.09 9.101 0.8354 2.198 12.44 12.57 7.914 2.242 6.639
0.78 1.583 -2.374 -2.77 -4.617 0.7035 4.748 15.96 8.002 8.266 -1.143 0.3957 9.057 13.01 8.09 0.8354 9.057
0.785 3.517 7.035 -1.099 -5.496 -0.3078 5.496 19.17 7.782 7.079 -3.781 -2.418 3.473 11.74 7.518 -1.627 10.2
0.79 5.012 13.63 5.012 -1.715 -1.231 5.848 19.26 7.958 5.848 -5.056 -4.529 -0.9233 8.793 5.276 -4.133 8.398
0.795 5.54 14.55 12.75 3.649 -1.451 5.628 16.14 7.958 3.693 -4.001 -4.573 -2.374 4.353 0.9673 -4.968 3.825
0.8 5.188 11.52 17.67 7.386 -0.8354 4.66 11.21 7.694 1.715 -1.275 -2.594 -1.363 0.7035 -2.814 -3.429 -0.5716
0.805 4.66 8.617 17.54 9.585 0.3517 3.078 7.123 8.09 2.682 1.583 -0.4397 0.4397 0.7914 -2.726 -0.5276 -1.495
0.81 4.573 8.53 13.54 11.26 1.319 1.055 5.32 9.805 7.079 3.122 0.7474 1.275 4.66 1.539 2.022 1.539
0.815 5.1 9.849 8.837 11.87 1.275 -0.6595 5.012 11.52 11.74 2.77 0.7914 0.2638 9.057 6.595 2.902 5.936
0.82 4.836 8.486 5.936 10.33 0.2198 -1.407 4.397 11.26 12.93 1.187 0.4836 -1.099 10.82 8.574 2.286 8.486
0.825 2.814 2.286 4.968 6.991 -1.011 -0.7474 2.506 7.914 9.585 -0.08793 0.7474 -1.099 9.277 6.375 1.407 7.958
0.83 -0.2638 -6.243 4.045 2.506 -1.407 1.231 -0.08793 2.506 3.649 0.4836 2.418 1.099 5.452 1.627 2.154 5.012
0.835 -2.638 -12.09 1.583 -2.418 -0.7035 3.825 -2.11 -2.418 -1.759 2.814 5.452 3.957 1.671 -2.55 5.012 1.319
0.84 -2.99 -12 -1.979 -5.848 0.8354 5.848 -1.539 -4.045 -3.869 5.584 8.398 5.804 0.08793 -3.385 8.266 -1.143
0.845 -2.462 -7.562 -4.66 -5.804 2.11 6.023 1.935 -1.847 -1.979 6.903 9.057 5.32 1.055 -0.7035 8.925 -1.627
0.85 -2.814 -3.034 -5.276 -3.254 1.979 4.221 6.023 1.539 0.7474 5.408 6.419 2.594 2.286 2.286 5.76 -1.055
0.855 -4.66 -1.099 -4.529 -1.319 0.08793 1.407 7.386 2.77 0.9233 1.319 1.847 -1.231 1.231 2.594 0.3078 -1.231
0.86 -6.771 -0.9233 -3.078 -0.7474 -2.374 -0.5276 5.54 1.539 -1.099 -3.21 -2.33 -4.265 -1.583 0.9233 -4.353 -2.242
0.865 -6.507 0.5716 -0.8793 0.8793 -3.473 -0.3957 3.254 0.3957 -1.495 -5.496 -4.441 -4.573 -2.946 0.4836 -6.155 -2.902
0.87 -2.902 4.573 2.242 4.792 -1.979 1.759 3.385 1.803 1.715 -4.221 -3.737 -2.462 -1.275 2.55 -4.704 -2.726
0.875 2.814 8.705 5.936 8.486 1.187 4.177 5.848 5.54 6.111 -0.6155 -1.055 0.3517 2.066 5.408 -1.583 -1.979
0.88 6.859 8.969 9.013 9.013 4.001 5.012 8.486 9.277 8.574 2.858 1.671 2.154 5.1 6.991 1.187 -0.6155
0.885 6.155 4.001 10.42 6.639 4.66 3.693 9.277 10.55 7.738 4.353 2.902 2.638 7.035 6.859 2.462 1.891
0.89 1.407 -2.506 9.893 3.517 3.166 1.715 7.518 8.574 4.704 3.869 2.99 2.902 7.694 5.672 3.298 5.188
0.895 -2.726 -4.792 7.694 1.671 1.451 1.011 3.869 4.748 1.627 2.902 3.561 3.957 7.43 4.748 5.452 8.002
0.9 -2.198 -0.1759 4.704 2.418 1.803 2.682 0.04397 1.099 0.3957 3.078 5.584 6.375 7.211 5.232 8.969 9.233
0.905 2.726 8.002 1.451 5.408 4.792 5.584 -2.594 -1.055 1.759 4.836 8.09 9.321 7.694 6.463 11.65 9.057
0.91 8.266 13.41 -1.979 7.694 8.486 7.43 -4.704 -2.418 3.166 6.727 9.321 10.33 7.562 6.199 11.17 7.606
0.915 9.673 11.7 -5.452 5.804 9.805 6.639 -7.123 -4.177 1.627 7.123 8.442 7.826 5.276 2.726 7.255 5.32
0.92 5.54 3.649 -8.266 0.2198 7.298 3.429 -9.189 -6.023 -2.858 5.32 5.496 2.462 1.363 -2.286 1.715 3.122
0.925 -1.759 -5.452 -9.453 -4.836 2.242 -0.4397 -8.925 -6.639 -7.167 2.022 1.451 -2.726 -2.242 -5.54 -2.902 1.275
0.93 -7.474 -10.46 -9.057 -6.595 -2.638 -3.473 -6.287 -5.848 -9.013 -1.715 -2.638 -5.584 -5.012 -5.979 -4.88 -1.275
0.935 -8.705 -9.805 -8.398 -6.551 -5.584 -5.672 -4.133 -5.54 -9.321 -5.364 -6.199 -6.551 -8.222 -5.452 -4.748 -5.804
0.94 -6.243 -6.287 -7.958 -6.727 -6.771 -8.09 -5.276 -7.562 -9.321 -8.925 -9.629 -7.782 -12.44 -5.76 -5.144 -11.52
0.945 -3.869 -4.089 -7.079 -6.903 -7.167 -11.3 -9.541 -11.74 -9.365 -11.65 -12.97 -10.6 -16.4 -7.079 -8.002 -15.61
0.95 -3.957 -4.924 -4.88 -6.023 -7.342 -13.72 -14.07 -15.92 -9.453 -12.27 -14.73 -14.11 -18.38 -8.705 -12 -16
0.955 -4.924 -7.079 -2.374 -4.441 -6.199 -12.71 -15.17 -17.5 -9.673 -9.629 -12.44 -15.3 -17.59 -9.409 -13.32 -12.71
0.96 -3.957 -7.518 -1.715 -3.122 -2.198 -6.595 -10.95 -15.21 -9.409 -3.693 -5.672 -11.21 -13.5 -8.222 -9.277 -7.079
0.965 0.6155 -4.529 -4.353 -2.55 4.529 3.166 -2.99 -9.98 -7.87 3.561 3.078 -1.979 -6.727 -5.1 -1.231 -1.143
0.97 7.035 1.495 -8.969 -3.429 11.3 12.35 4.089 -4.573 -5.408 9.101 9.936 8.442 0.04397 -1.979 6.639 2.77
0.975 11.78 7.958 -11.87 -5.848 14.25 16.53 6.111 -1.275 -3.517 10.64 12.27 14.42 3.957 -0.7914 10.16 3.21
0.98 12.05 12.05 -9.629 -7.474 11.48 13.98 2.99 0.2638 -2.198 8.442 10.24 13.63 4.309 -1.099 8.222 0.8793
0.985 7.738 11.96 -2.198 -4.924 4.836 7.167 -1.319 1.803 -0.2638 5.1 6.419 8.09 2.814 -1.099 2.99 -2.022
0.99 2.374 8.53 6.199 1.407 -1.319 0.8354 -3.21 4.177 2.154 2.858 3.605 2.066 0.6155 -0.6155 -1.627 -4.529
0.995 -0.08793 4.397 10.16 7.123 -3.649 -1.627 -2.286 5.892 2.902 2.286 2.814 -1.627 -2.462 -1.231 -3.517 -6.683
1 1.319 2.066 8.178 8.617 -1.891 -0.04397 -0.4836 4.836 1.011 1.759 2.374 -3.078 -6.155 -3.605 -3.825 -8.574
1.005 4.309 2.418 3.693 6.727 1.275 2.726 0.5716 0.9673 -1.935 -0.1319 0.1319 -3.781 -9.057 -6.463 -5.232 -9.717
1.01 5.452 4.265 1.319 3.957 2.55 3.561 0.08793 -4.045 -3.781 -3.737 -4.133 -4.88 -10.38 -8.222 -8.222 -9.936
1.015 3.517 5.408 2.374 1.495 0.7035 1.363 -1.627 -7.87 -3.385 -7.43 -7.958 -6.067 -10.02 -7.738 -10.2 -9.277
1.02 -0.2638 4.089 4.485 0 -2.858 -2.506 -3.21 -8.574 -0.3517 -9.057 -9.057 -5.628 -7.43 -4.529 -8.354 -7.167
1.025 -4.045 0.5276 4.704 -0.1319 -5.496 -5.276 -3.254 -5.848 4.704 -7.738 -7.255 -2.242 -2.462 0.4836 -2.55 -3.078
1.03 -6.155 -3.473 2.462 0.7914 -5.584 -5.54 -1.539 -1.143 8.925 -4.617 -4.221 3.078 3.473 4.836 4.529 2.066
1.035 -6.771 -5.804 -0.04397 1.407 -3.913 -3.605 1.011 3.298 9.321 -1.759 -1.495 7.782 7.782 6.507 9.497 6.419
1.04 -6.683 -5.848 -0.04397 1.671 -2.33 -0.8793 4.045 6.683 6.287 -0.4397 0.3517 10.29 9.98 6.419 10.82 9.321
1.045 -6.243 -4.441 2.858 2.858 -1.539 1.407 7.914 9.805 3.605 0.04397 1.803 10.99 11.26 6.991 9.233 11.39
1.05 -5.1 -2.418 6.155 4.792 -1.099 3.078 12.05 13.1 4.001 0.8793 3.693 10.9 12.22 8.793 7.386 13.06
1.055 -2.11 0.4397 7.035 5.496 -0.2198 4.309 14.68 15.65 6.551 2.55 5.892 10.16 12.4 9.936 7.123 13.85
1.06 1.847 4.045 5.452 4.353 1.231 4.88 14.47 16.36 8.837 4.485 7.035 8.442 11.43 8.881 7.474 13.45
1.065 4.221 6.991 3.913 3.298 2.242 3.869 11.56 14.51 8.925 5.32 5.848 5.672 9.849 5.848 6.155 11.83
1.07 2.726 6.639 3.693 2.902 1.539 0.7035 6.507 10.16 5.54 4.309 2.55 2.242 7.562 2.066 2.242 8.661
1.075 -2.198 1.539 2.99 1.143 -1.231 -4.177 -0.3957 3.341 -0.8354 1.847 -0.7914 -1.143 4.001 -1.011 -2.462 4.045
1.08 -7.738 -7.123 -0.7914 -3.693 -4.617 -8.881 -8.266 -4.573 -7.782 -0.7035 -2.726 -3.473 -0.1319 -2.506 -5.76 -0.7914
1.085 -10.29 -14.77 -7.826 -9.98 -6.023 -11.12 -15.04 -11.43 -11.78 -2.022 -3.298 -4.089 -3.649 -2.418 -6.507 -4.397
1.09 -8.266 -16.4 -14.64 -14.9 -4.177 -9.761 -18.47 -15.39 -12.13 -1.847 -3.254 -3.429 -6.419 -2.902 -5.364 -6.683
1.095 -2.55 -10.11 -16.75 -16.49 -0.2198 -5.32 -17.63 -15.83 -10.42 -0.7474 -2.814 -2.374 -9.321 -5.76 -3.341 -8.705
1.1 3.605 0.7474 -12.44 -13.59 3.649 0.3517 -12.44 -12.93 -7.738 0.3078 -1.583 -1.363 -11.7 -9.409 -1.539 -10.51
1.105 7.035 9.761 -4.309 -6.507 5.496 5.276 -4.397 -7.694 -3.957 1.231 0.3078 -0.08793 -11.7 -10.55 -0.2638 -10.86
1.11 7.035 11.91 2.506 1.451 5.232 8.134 3.385 -2.462 0 2.066 2.594 1.011 -9.101 -7.782 0.8793 -8.705
1.115 4.924 7.255 4.265 5.716 3.913 8.793 7.65 0.6155 1.935 3.034 4.66 1.187 -5.496 -2.902 2.902 -4.485
1.12 2.814 0.04397 1.803 4.704 2.77 7.606 7.694 1.363 0.6155 4.221 5.936 0.5716 -2.242 1.495 5.804 0.7914
1.125 1.143 -5.144 -0.9233 1.715 1.979 5.276 5.979 1.583 -2.418 5.32 5.848 0.2638 0.5276 3.957 8.574 5.936
1.13 -0.08793 -5.54 -1.055 -0.04397 0.7914 2.462 4.748 2.902 -4.924 5.672 5.056 1.055 2.77 4.177 10.29 9.365
1.135 -0.7914 -1.803 1.363 0.3078 -1.627 -0.3517 4.66 5.54 -4.968 4.529 4.353 2.286 4.309 3.122 10.2 10.2
1.14 -0.5276 3.21 4.617 2.286 -4.529 -2.77 5.012 8.486 -1.407 1.803 3.21 2.506 6.199 2.902 7.65 9.541
1.145 0.7914 6.727 7.914 5.672 -6.023 -4.397 5.54 10.95 5.496 -1.979 0.7035 0.8793 9.497 5.012 2.462 9.497
1.15 2.374 7.035 11.12 9.189 -4.748 -5.188 6.243 12.27 12.62 -5.364 -3.078 -2.242 13.19 8.266 -3.825 10.6
1.155 3.341 4.353 13.81 10.42 -1.451 -4.968 6.947 12.31 15.92 -6.815 -6.155 -5.012 14.9 9.805 -8.134 11.52
1.16 2.726 -0.2198 14.51 8.398 1.583 -3.693 7.694 11.74 14.25 -5.672 -6.375 -5.1 13.76 8.398 -8.53 10.86
1.165 0.4397 -5.276 11.83 4.704 2.682 -1.583 8.178 10.86 9.761 -2.33 -3.649 -1.627 10.73 5.012 -5.716 8.398
1.17 -2.11 -8.793 5.672 1.143 1.451 0.6595 7.035 9.057 4.792 1.231 0.2638 2.99 6.683 0.8793 -2.33 4.353
1.175 -3.341 -9.277 -1.539 -2.066 -0.7035 1.891 2.858 5.364 0.3078 2.946 2.814 5.32 2.11 -2.946 -1.055 -0.7914
1.18 -2.374 -6.595 -6.155 -4.177 -2.198 1.363 -3.737 0.2638 -3.078 1.891 2.418 3.341 -2.242 -4.792 -2.946 -5.672
1.185 -0.6155 -2.374 -6.199 -3.869 -2.11 -0.9673 -9.761 -4.309 -4.045 -0.8354 -0.8793 -1.583 -4.88 -3.561 -7.035 -8.793
1.19 0.7914 1.363 -3.385 -1.627 -1.099 -4.045 -13.01 -7.079 -3.078 -3.429 -4.924 -6.903 -6.463 -0.7035 -10.46 -10.46
1.195 1.407 3.649 -1.627 -0.1319 -0.6155 -6.287 -13.59 -8.574 -2.33 -4.265 -7.255 -10.68 -9.013 0.7474 -11.17 -12.27
1.2 1.671 4.221 -3.298 -1.319 -1.231 -6.859 -12.75 -10.16 -3.561 -3.385 -7.342 -12.75 -13.28 -0.9673 -9.497 -14.82
1.205 1.495 3.21 -6.947 -3.913 -2.418 -6.155 -11.04 -12.27 -6.287 -1.935 -6.507 -13.94 -17.63 -4.924 -7.87 -17.02
1.21 0.4397 0.8793 -9.277 -6.375 -3.298 -5.584 -8.837 -14.25 -9.189 -1.099 -6.199 -14.99 -20.36 -9.013 -7.518 -17.37
1.215 -1.495 -2.374 -8.266 -8.046 -3.605 -5.936 -6.287 -14.73 -10.82 -1.275 -6.067 -15.92 -20.18 -11.08 -7.738 -15.17
1.22 -3.605 -5.76 -4.792 -8.354 -3.341 -6.683 -3.517 -12.57 -9.673 -1.891 -5.276 -15.34 -16.49 -9.717 -6.771 -10.24
1.225 -4.748 -8.222 -1.495 -6.243 -2.33 -6.507 -0.8793 -8.09 -5.364 -1.803 -3.122 -12 -10.11 -5.584 -3.561 -3.781
1.23 -3.781 -8.398 -1.055 -2.638 -0.3517 -4.309 0.1759 -3.913 -0.8793 -0.3957 0.1759 -6.287 -4.221 -1.759 1.627 1.627
1.235 -0.7035 -6.067 -3.737 -0.5276 2.154 -0.6595 -1.847 -2.594 -0.04397 1.495 3.957 -0.04397 -2.11 -1.319 7.65 3.869
1.24 2.726 -2.638 -7.694 -1.539 4.265 2.682 -5.979 -4.485 -3.078 2.902 6.859 5.144 -3.122 -3.166 12.4 3.254
1.245 3.957 -0.3517 -10.02 -3.869 4.88 3.869 -9.189 -6.595 -6.155 2.946 7.43 8.486 -3.693 -3.561 13.98 2.858
1.25 1.935 -0.2198 -9.453 -4.924 3.21 2.726 -8.486 -6.023 -5.584 1.275 5.276 9.497 -0.8793 -0.1759 12 4.66
1.255 -1.495 -1.495 -6.463 -4.045 -0.08793 0.5716 -3.781 -2.022 -1.407 -1.715 1.583 7.87 4.353 5.452 7.694 8.09
1.26 -3.605 -2.286 -2.33 -1.363 -3.429 -0.3957 3.341 3.957 4.001 -5.232 -2.198 4.573 9.585 9.98 2.638 10.82
1.265 -3.254 -1.671 2.242 2.902 -4.968 0.9233 10.33 9.365 7.87 -7.782 -5.012 1.319 12.27 10.86 -1.759 10.9
1.27 -0.7914 0.4836 6.243 7.035 -4.353 3.957 14.68 12.18 8.705 -8.222 -6.023 -0.08793 10.99 7.474 -4.177 7.298
1.275 1.759 3.21 8.574 8.617 -2.638 6.947 14.51 11.65 6.683 -6.243 -5.144 0.4397 6.331 1.935 -4.221 0.9233
1.28 2.99 5.364 8.442 7.43 -1.231 8.134 10.68 9.101 4.485 -2.77 -3.517 1.583 0.9233 -2.022 -3.21 -5.232
1.285 2.198 6.243 6.463 6.199 -0.3517 7.079 5.716 6.551 4.529 0.5716 -3.078 1.539 -2.418 -2.066 -3.385 -8.222
1.29 0.4397 6.023 4.001 6.551 0.6155 4.397 2.11 4.924 6.199 2.55 -4.353 -0.9673 -3.781 0.2198 -5.496 -7.826
1.295 -0.4397 5.188 2.506 6.903 2.022 1.099 0.7035 3.825 6.243 2.638 -5.936 -5.144 -5.012 1.319 -8.002 -6.023
1.3 0.08793 4.221 2.638 5.672 3.473 -1.495 1.407 2.858 3.473 1.847 -5.804 -8.31 -6.287 -0.04397 -8.442 -4.133
1.305 0.9673 3.166 4.089 3.298 4.045 -2.814 3.649 2.154 0 1.803 -3.21 -7.298 -5.496 -1.759 -5.364 -1.891
1.31 1.231 2.11 5.276 1.099 3.034 -2.418 5.848 1.451 -2.022 3.166 1.319 -1.627 -1.363 -1.715 0.8793 1.407
1.315 0.6155 1.011 4.265 -0.9673 0.9673 -0.8354 6.023 0.1759 -2.374 5.32 6.507 5.979 4.748 0.2198 8.398 5.276
1.32 -0.2638 -0.5716 0.7474 -2.638 -0.8354 1.187 3.693 -1.847 -1.715 6.727 10.46 11.83 10.55 2.77 14.42 8.793
1.325 -1.319 -3.341 -3.473 -3.078 -1.055 2.726 0.6595 -3.517 -0.4836 6.507 11.87 14.07 14.33 4.309 16.84 11.17
1.33 -2.198 -7.035 -6.287 -2.374 0 2.99 -1.495 -3.781 0.4397 4.617 10.86 12.53 14.95 3.561 15.74 11.39
1.335 -2.55 -9.98 -6.771 -2.11 1.231 1.935 -2.594 -2.726 0.2638 2.066 8.617 8.705 12.35 0.7035 12.71 9.057
1.34 -2.638 -10.11 -5.496 -2.374 1.583 0.04397 -3.166 -1.011 -0.4836 -0.04397 6.023 4.441 8.442 -1.847 8.925 5.32
1.345 -2.726 -6.639 -3.957 -1.583 1.011 -1.847 -3.737 0.4397 -0.6155 -1.099 2.99 1.055 5.804 -1.759 4.529 1.935
1.35 -2.726 -0.3957 -3.078 0.5276 0.3078 -3.254 -4.66 0.5276 -0.2638 -1.143 -0.1759 -1.363 4.748 0 -0.2638 -0.6155
1.355 -2.022 6.287 -2.462 2.066 0.08793 -3.869 -5.452 -0.8354 -0.7474 -0.8354 -2.506 -3.254 4.001 0.7474 -4.441 -3.034
1.36 -0.2638 10.77 -0.4836 1.891 0.3517 -3.517 -4.617 -1.979 -1.803 -0.6595 -3.298 -4.221 3.341 -0.4397 -6.947 -5.188
1.365 1.759 11.39 4.353 1.627 0.9673 -1.935 -0.4397 -0.6595 -1.495 -0.9233 -3.034 -3.517 3.869 -1.759 -7.694 -5.716
1.37 3.078 8.705 10.9 2.814 1.363 0.6595 5.936 3.429 0.9673 -1.495 -2.33 -1.099 5.584 -1.363 -7.211 -4.353
1.375 3.166 4.265 15.34 4.529 1.363 3.385 11.04 7.87 4.177 -2.242 -1.627 1.627 6.375 0.7914 -6.331 -2.506
1.38 2.022 -0.1759 14.16 4.968 0.7035 4.309 11.21 9.277 6.199 -2.946 -1.715 2.946 4.617 3.341 -6.463 -1.759
1.385 -0.7035 -4.133 7.298 3.561 -1.055 1.847 5.716 5.979 5.848 -3.605 -3.254 1.583 0.3517 4.045 -8.398 -3.122
1.39 -4.66 -7.518 -1.891 0.5276 -4.265 -3.957 -3.429 -1.319 2.858 -4.485 -6.419 -2.506 -5.408 1.319 -11.61 -6.243
1.395 -8.793 -10.29 -9.409 -3.913 -8.53 -11.04 -13.06 -9.761 -2.33 -5.76 -9.893 -8.266 -10.99 -4.221 -14.07 -9.849
1.4 -11.87 -12.53 -12.79 -7.914 -12.13 -16.18 -19.35 -15.17 -7.167 -6.815 -12 -12.49 -13.41 -8.617 -13.81 -11.17
1.405 -13.19 -14.16 -12.84 -8.574 -12.97 -16.71 -19.65 -14.73 -8.222 -6.683 -11.43 -12.13 -10.55 -7.826 -10.07 -8.354
1.41 -12.4 -14.68 -12.13 -6.111 -10.07 -12.35 -14.64 -9.277 -4.968 -4.485 -7.43 -6.331 -3.913 -2.286 -3.473 -2.594
1.415 -9.233 -13.1 -12.4 -3.737 -4.529 -5.32 -7.43 -2.462 -0.4836 -0.6595 -0.5276 2.33 2.022 3.561 4.441 2.462
1.42 -4.397 -8.969 -12.44 -3.913 1.187 1.451 -1.011 2.154 1.979 3.473 6.859 10.11 4.221 5.496 11.04 4.397
1.425 0.2638 -3.034 -9.497 -5.276 5.32 6.243 3.517 3.298 1.847 6.199 11.7 13.81 2.594 3.341 13.98 3.781
1.43 3.605 3.429 -3.078 -5.716 7.518 9.277 6.023 1.715 -0.08793 6.815 12.71 12.97 -1.187 -0.5716 13.28 2.198
1.435 5.364 8.705 4.089 -4.968 8.53 11.34 6.375 -1.055 -2.462 6.243 11.43 9.057 -5.232 -3.254 10.9 1.275
1.44 6.243 11.34 8.046 -3.781 8.969 12.57 5.1 -3.254 -3.517 5.76 9.805 4.836 -7.298 -2.726 8.793 1.671
1.445 6.243 10.86 7.65 -1.935 8.486 11.96 3.254 -3.781 -2.11 5.892 8.178 1.979 -5.892 0.3517 7.123 3.341
1.45 5.012 7.826 4.968 0.4836 5.848 8.046 1.363 -2.858 0.5276 5.54 5.584 0 -2.198 3.078 4.836 4.968
1.455 2.11 3.078 3.21 2.286 0.4836 0.8354 -0.7035 -1.275 2.066 3.254 1.231 -2.726 1.055 2.902 1.055 5.408
1.46 -2.286 -2.594 3.561 3.385 -5.979 -7.65 -2.594 0.4836 1.891 -0.7914 -4.309 -6.287 2.99 1.099 -3.649 5.276
1.465 -6.859 -8.266 4.66 4.792 -10.6 -13.98 -3.429 2.242 1.803 -4.792 -9.101 -8.53 4.353 0.9233 -7.562 6.023
1.47 -8.969 -11.74 3.605 6.067 -10.9 -15.39 -3.078 3.298 2.55 -6.023 -10.46 -7.298 5.32 3.341 -8.354 7.386
1.475 -6.595 -10.38 -0.4397 5.188 -6.859 -11.56 -2.374 2.902 2.77 -3.825 -7.386 -2.682 5.188 6.067 -5.1 7.87
1.48 0.1759 -3.078 -4.617 1.979 -0.6155 -4.353 -1.627 1.759 1.583 0.1319 -1.935 3.166 4.177 6.947 0.1759 6.727
1.485 8.178 7.87 -4.924 -0.5716 5.232 3.385 0.1319 2.066 0.2198 2.99 2.198 7.914 3.825 5.804 4.045 5.232
1.49 13.54 16.88 -0.2638 0.04397 8.749 9.497 3.649 5.452 0.2638 3.034 3.122 10.24 5.012 4.001 4.441 4.66
1.495 14.16 18.86 6.595 3.122 9.761 13.01 8.837 11.48 2.066 1.011 2.066 10.33 7.123 2.858 2.286 5.276
1.5 10.82 12.31 11.26 6.595 8.837 13.76 15.21 17.54 5.1 -0.7914 1.319 9.629 9.541 3.429 0 6.771
1.505 5.804 1.143 12.49 9.805 6.771 12.35 22.47 21.24 8.705 -0.7474 1.671 8.793 11.78 5.54 -1.231 8.53
1.51 1.231 -7.43 12.71 12.49 4.001 9.805 29.19 21.06 11.08 0.7474 2.374 6.991 12.66 7.211 -1.495 9.365
1.515 -1.231 -7.694 15.04 13.63 1.099 7.211 32.71 17.37 10.68 1.891 2.154 3.122 10.82 6.639 -1.847 8.222
1.52 -1.583 0.6595 19.74 13.06 -0.7474 5.848 30.86 11.7 8.178 1.671 0.6595 -1.891 6.463 4.045 -2.682 5.1
1.525 -0.08793 12.57 23.08 11.52 -0.3078 6.595 22.73 5.584 5.408 0.8793 -0.9673 -5.188 0.9233 1.011 -3.385 0.6155
1.53 3.429 21.59 19.7 8.53 2.726 9.013 8.881 -1.451 2.374 1.363 -0.9233 -4.309 -5.716 -2.77 -2.198 -5.804
1.535 8.705 24.23 7.298 2.506 7.079 11.65 -8.617 -10.24 -3.122 4.089 2.022 0.3957 -14.16 -8.793 1.847 -14.42
1.54 14.25 21.19 -10.33 -6.111 10.68 12.79 -25.24 -20 -11.56 7.958 6.639 6.331 -22.95 -16.49 7.43 -23.04
1.545 16.97 15.34 -25.37 -13.85 12 11.74 -35.61 -27.22 -19.43 10.99 10.11 10.42 -28.58 -22.51 11.12 -27.7
1.55 14.68 9.013 -31.44 -17.81 10.77 8.354 -36.93 -28.53 -22.82 11.04 10.33 10.42 -28.58 -23.96 10.46 -26.12
1.555 7.738 2.77 -27.61 -18.2 7.562 3.166 -30.64 -23.7 -20.53 7.694 7.298 6.331 -23.39 -20.22 5.936 -19.39
1.56 -1.055 -4.089 -18.11 -16 3.21 -3.298 -20.84 -15.3 -13.76 2.11 2.374 0.3957 -15.21 -12.84 0.1319 -10.77
1.565 -8.442 -10.9 -8.134 -11.17 -1.715 -10.07 -11.21 -6.815 -5.32 -3.781 -2.902 -4.704 -6.287 -4.309 -4.265 -3.298
1.57 -12.05 -15.34 -1.143 -4.309 -6.463 -15.39 -4.485 -0.7914 1.495 -8.178 -7.079 -7.211 0.8793 2.198 -5.452 1.451
1.575 -11.34 -14.9 1.935 1.935 -9.893 -16.93 -1.319 2.506 4.573 -9.805 -8.178 -6.903 5.012 5.276 -3.166 3.693
1.58 -7.211 -9.409 2.066 5.056 -10.38 -13.28 -0.6155 4.265 4.66 -8.222 -5.32 -3.957 7.035 6.199 1.055 5.452
1.585 -1.935 -1.847 0.7474 4.573 -6.991 -5.188 -0.04397 5.979 4.221 -4.089 0.3078 0.7914 8.705 7.255 5.056 8.222
1.59 2.814 3.869 -0.8793 1.363 -1.055 3.693 1.495 7.43 3.913 0.6595 6.111 5.364 10.02 8.574 7.298 11.08
1.595 6.331 5.54 -2.242 -3.166 4.397 9.233 3.517 7.211 2.33 3.517 9.365 7.342 9.585 8.222 7.474 11.65
1.6 8.002 3.781 -2.242 -6.155 6.375 9.013 5.496 5.276 -0.5716 3.254 8.31 5.1 7.386 5.716 5.628 9.585
1.605 7.035 1.011 -0.1759 -4.792 4.353 4.397 7.255 3.21 -2.286 0.8354 3.298 -0.3517 5.452 2.726 1.935 6.727
1.61 3.693 -0.6155 3.254 0.1319 0.3957 -0.8354 8.178 2.462 -1.011 -1.847 -2.946 -6.859 4.748 0.6595 -3.122 4.573
1.615 -0.6155 -0.9673 5.364 3.957 -2.77 -3.737 6.991 2.374 2.198 -3.254 -7.386 -12.49 4.089 -0.4397 -8.09 2.462
1.62 -4.221 -1.407 3.913 2.858 -3.781 -4.177 3.737 1.495 4.529 -3.517 -9.013 -16.05 1.847 -1.055 -12.27 -0.4836
1.625 -6.243 -3.649 -0.6595 -1.803 -3.649 -4.353 0.08793 -0.8354 4.089 -3.957 -9.497 -17.45 -1.935 -1.539 -15.21 -4.397
1.63 -7.123 -7.474 -5.979 -6.199 -4.529 -6.419 -2.242 -4.001 0.5276 -5.716 -10.33 -17.19 -6.375 -2.506 -16.18 -7.826
1.635 -7.123 -10.6 -9.365 -7.782 -7.255 -9.717 -3.166 -6.331 -4.573 -7.826 -10.55 -15.08 -9.761 -3.957 -13.89 -8.925
1.64 -6.243 -10.46 -9.057 -6.199 -9.849 -11.17 -3.078 -6.111 -7.65 -8.002 -8.266 -10.33 -9.717 -4.309 -7.738 -6.199
1.645 -4.309 -6.023 -5.408 -2.374 -9.145 -8.09 -2.594 -3.122 -5.32 -4.792 -2.638 -2.462 -5.012 -2.022 0.7474 -0.3078
1.65 -1.143 1.099 -0.6155 1.363 -4.133 -0.9233 -2.154 0.8793 1.407 0.6595 4.748 6.595 1.803 2.198 9.101 5.496
1.655 2.286 7.782 2.902 2.462 2.594 6.287 -2.242 3.21 7.65 5.1 10.73 12.79 6.507 5.54 14.55 7.342
1.66 4.924 10.42 3.605 0.9233 6.815 9.145 -2.506 2.55 9.321 5.76 12.18 13.19 6.815 6.243 15.17 4.924
1.665 4.748 7.386 1.715 -0.5716 5.76 6.067 -2.33 -0.1319 6.507 2.902 8.266 8.046 4.529 5.056 11.04 1.363
1.67 1.495 0.08793 -1.583 -0.3957 0.7474 -0.5276 -1.759 -2.638 1.627 -1.011 1.539 0.04397 2.066 3.078 4.133 -0.1319
1.675 -2.814 -7.738 -4.792 0.2198 -4.309 -6.463 -1.495 -3.781 -2.418 -3.166 -3.957 -7.474 0.7474 1.231 -2.374 0.7914
1.68 -5.892 -12.31 -6.419 -0.2638 -6.199 -9.101 -0.9233 -2.638 -3.429 -2.858 -6.419 -12.05 1.231 0.4836 -7.123 2.77
1.685 -6.507 -12.05 -4.836 -0.6595 -4.748 -8.749 1.495 0.7035 -0.4836 -1.319 -6.771 -13.06 3.385 1.627 -9.98 4.089
1.69 -4.924 -8.09 0.08793 0.4397 -2.77 -7.386 5.979 5.276 4.617 -0.5716 -6.683 -11.21 5.848 3.429 -11.04 3.737
1.695 -2.638 -2.814 6.463 2.638 -2.946 -6.595 10.51 9.145 8.002 -1.055 -6.375 -7.65 6.463 3.737 -9.541 1.979
1.7 -0.6155 1.363 11.7 4.968 -5.188 -6.023 12.53 11.08 8.266 -1.671 -5.1 -3.122 5.496 2.33 -5.584 0.7914
1.705 0.2638 3.341 14.2 7.43 -6.815 -4.573 11.43 11.21 7.035 -1.187 -2.594 1.495 4.704 0.7474 -1.055 1.627
1.71 0.08793 3.21 13.67 9.629 -5.452 -2.198 8.31 10.16 6.067 0.2198 0.08793 4.529 4.792 0.08793 1.495 3.737
1.715 -0.5276 1.539 10.77 9.761 -1.759 -0.08793 4.66 7.914 5.1 0.9673 1.539 4.309 4.66 -0.04397 0.6595 4.792
1.72 -1.319 -0.7474 6.375 6.903 1.627 0.4397 1.495 4.265 3.122 0.1759 1.099 1.231 3.298 -0.08793 -2.814 3.517
1.725 -2.11 -2.858 1.583 2.286 2.506 -0.08793 -1.143 -0.7035 0.04397 -1.275 -0.4836 -1.847 0.9233 0.04397 -6.287 0.9673
1.73 -2.198 -3.517 -2.506 -2.462 1.495 0.3078 -3.781 -6.463 -4.001 -1.627 -0.8793 -2.418 -2.242 -0.1759 -6.727 -1.363
1.735 -0.7035 -1.759 -4.704 -6.683 0.8354 2.902 -6.507 -11.34 -8.222 0 1.407 -0.3078 -5.628 -1.099 -3.21 -2.814
1.74 1.935 1.715 -3.649 -8.574 2.022 6.375 -7.386 -12.62 -9.98 2.55 4.968 1.891 -7.43 -1.759 1.671 -2.858
1.745 3.781 4.353 1.055 -5.628 3.913 7.43 -4.221 -8.53 -6.903 3.737 6.287 1.891 -5.628 -0.5716 4.265 -1.407
1.75 2.374 3.649 7.518 1.759 3.473 3.825 2.066 -0.5276 0.04397 2.286 3.385 -0.8354 -1.055 1.847 3.341 0.6155
1.755 -2.286 -0.5276 11.48 9.233 -0.8793 -3.517 6.947 6.771 6.111 -0.8793 -2.022 -4.221 2.506 3.078 1.055 1.363
1.76 -7.738 -5.364 10.07 11.83 -7.123 -10.33 6.155 9.233 7.518 -3.473 -6.419 -5.188 2.77 1.979 0.2198 -0.1319
1.765 -10.64 -7.123 4.133 8.749 -10.9 -12.18 -0.3957 5.979 4.529 -3.693 -7.386 -2.462 0.1759 -0.4397 1.143 -2.99
1.77 -8.881 -3.825 -2.55 2.154 -8.793 -8.002 -8.705 -0.6155 -0.4397 -2.022 -5.188 1.935 -3.517 -3.122 2.242 -6.067
1.775 -2.814 2.814 -6.419 -5.056 -1.803 -0.8354 -14.29 -7.079 -5.1 -0.4397 -1.891 4.265 -6.551 -5.364 2.022 -8.134
1.78 4.221 8.705 -6.419 -9.849 6.067 4.924 -14.55 -10.55 -7.694 0.2198 0.4836 3.429 -7.518 -6.507 0.6155 -7.914
1.785 8.881 10.29 -4.133 -9.805 10.73 6.771 -10.29 -10.33 -7.342 0.4397 1.539 1.627 -5.936 -5.936 -0.1759 -4.792
1.79 9.761 7.167 -2.066 -5.496 10.99 5.54 -4.529 -7.43 -4.968 1.715 2.418 1.803 -3.341 -4.309 1.143 -0.2638
1.795 8.354 2.418 -1.143 -0.5276 8.222 3.825 0.08793 -3.21 -2.462 3.869 4.265 4.133 -1.671 -2.418 4.001 2.99
1.8 6.683 -0.7474 0.08793 2.286 4.88 3.385 3.869 1.891 0.08793 5.364 5.979 6.859 -0.5276 0 5.672 3.825
1.805 5.276 -1.275 3.298 3.385 2.506 4.265 8.53 8.09 3.913 4.485 5.496 7.914 2.682 3.957 3.913 3.605
1.81 3.957 0 7.958 3.869 1.319 5.672 14.07 14.11 8.661 1.627 2.77 7.342 8.222 8.574 0.08793 4.089
1.815 2.374 1.627 10.73 3.341 1.099 7.035 17.41 17.19 11.3 -0.7474 0.3957 7.079 13.41 11.26 -1.495 5.584
1.82 1.319 2.726 8.969 1.979 1.759 8.617 15.87 15.43 10.07 -0.2638 1.099 9.013 15.21 10.64 1.275 7.211
1.825 1.055 2.814 3.649 1.099 3.473 10.07 9.761 9.453 6.111 3.254 4.353 12.31 12.75 7.562 6.287 7.694
1.83 1.231 1.539 -1.891 1.495 5.276 10.42 2.198 1.935 1.495 6.727 7.167 13.5 6.595 3.166 8.705 5.584
1.835 1.055 -0.8354 -4.617 1.891 5.54 8.222 -3.957 -4.573 -2.77 6.771 6.727 9.761 -1.539 -1.759 5.979 0.5276
1.84 0 -3.254 -4.001 1.011 3.913 3.781 -7.079 -8.53 -6.023 2.902 2.77 2.506 -8.793 -6.023 0 -5.672
1.845 -1.143 -3.957 -2.33 -0.3957 1.583 -0.4836 -7.298 -9.453 -7.606 -1.627 -1.759 -3.254 -12.13 -8.222 -4.617 -9.673
1.85 -0.8793 -1.451 -2.154 -1.495 0.6155 -1.847 -6.023 -8.266 -7.65 -3.034 -3.21 -3.429 -11.26 -8.222 -3.957 -10.07
1.855 1.847 3.517 -4.353 -2.374 1.319 0.1759 -4.704 -6.155 -6.903 -0.5276 -0.3957 1.099 -8.31 -6.903 1.099 -7.914
1.86 4.924 7.694 -7.518 -3.385 2.11 2.99 -3.913 -3.869 -5.276 2.858 3.517 5.496 -5.056 -4.748 5.892 -5.188
1.865 5.188 7.342 -9.409 -3.605 1.099 3.166 -3.561 -2.11 -2.418 3.298 4.089 5.364 -2.33 -2.198 5.452 -3.166
1.87 1.055 1.935 -9.365 -3.078 -2.154 -0.6155 -4.045 -2.11 -0.1759 -0.4836 -0.2198 -0.04397 -1.539 -1.099 0.04397 -2.638
1.875 -5.364 -4.748 -8.31 -3.298 -5.584 -6.331 -6.067 -4.748 -1.539 -5.76 -6.243 -7.474 -4.177 -3.517 -5.716 -4.001
1.88 -8.969 -7.87 -6.991 -4.485 -6.463 -9.893 -8.442 -8.881 -6.595 -8.266 -9.409 -12.13 -8.925 -8.486 -7.562 -6.067
1.885 -7.123 -5.408 -4.748 -4.66 -3.561 -8.661 -8.002 -11.39 -11.43 -5.892 -7.87 -11.74 -11.91 -11.96 -5.1 -6.507
1.89 -0.7914 0.3078 -0.7474 -2.374 1.187 -3.429 -2.902 -9.673 -11.87 -0.7474 -3.561 -7.914 -10.24 -10.77 -1.451 -4.221
1.895 5.364 4.441 4.221 0.7914 4.792 2.55 5.1 -4.089 -7.211 3.078 0.3517 -4.089 -4.441 -5.056 0.7035 -0.1319
1.9 7.386 4.177 7.562 2.682 5.76 6.287 11.78 2.638 0.04397 3.341 2.154 -1.935 2.77 2.374 1.143 4.353
1.905 4.573 0.3517 7.255 3.21 5.144 6.903 13.85 7.518 6.331 1.363 2.242 -0.3957 8.661 8.354 1.143 7.606
1.91 -0.2638 -3.517 3.298 3.166 4.485 5.276 10.82 9.145 8.749 0 2.374 1.715 10.55 10.02 2.374 8.442
1.915 -3.517 -4.485 -1.759 2.858 3.517 2.55 4.748 8.134 6.771 0.5276 3.429 3.781 8.134 7.298 4.441 6.155
1.92 -4.045 -2.506 -4.617 2.682 0.9233 -0.9233 -0.8354 6.639 3.166 2.022 4.001 4.177 4.133 3.473 5.364 2.462
1.925 -3.517 -0.1319 -3.298 3.429 -3.693 -4.704 -3.166 6.331 1.979 2.242 2.33 2.374 2.374 2.594 3.561 0.08793
1.93 -3.429 1.099 0.8793 4.836 -8.134 -7.167 -2.418 6.859 3.693 0.4836 -0.9673 -0.2198 3.561 5.276 0.4397 0.3517
1.935 -3.429 1.671 4.836 4.704 -9.013 -6.331 -0.6595 6.551 5.54 -1.803 -3.078 -1.627 5.408 8.442 -0.9673 2.374
1.94 -2.11 2.726 6.023 2.594 -4.748 -1.671 0.7914 5.1 5.364 -2.286 -1.583 -0.5716 6.111 9.717 0.4836 4.66
1.945 0.3517 3.605 4.265 0.8793 2.022 4.66 2.374 3.957 4.397 -0.2198 2.374 2.286 6.463 9.409 2.99 6.595
1.95 1.847 2.418 1.011 1.231 6.419 8.749 4.617 4.573 4.704 2.726 5.979 4.704 7.167 8.705 4.265 7.606
1.955 0.5276 -1.935 -2.726 2.286 4.792 7.738 6.199 5.848 6.023 4.265 6.947 4.88 7.298 7.738 3.869 7.035
1.96 -3.341 -8.002 -6.595 1.275 -1.187 2.33 5.452 5.1 6.331 3.649 5.364 3.298 5.76 6.067 3.429 4.88
1.965 -7.211 -12.09 -10.02 -2.418 -6.507 -3.825 2.374 0.5716 3.737 2.022 2.638 1.671 1.935 3.298 3.957 1.847
1.97 -8.178 -11.26 -12 -7.342 -6.947 -7.386 -1.803 -7.342 -1.979 0.8354 0.1759 0.2638 -4.001 -0.9673 4.66 -1.935
1.975 -6.155 -6.155 -11.61 -11.48 -3.517 -7.958 -5.584 -15.26 -9.057 -0.1759 -2.374 -2.77 -10.82 -6.287 2.946 -6.551
1.98 -3.341 -0.8354 -8.53 -12.49 -0.8354 -7.87 -7.782 -18.99 -13.28 -2.11 -6.155 -8.705 -15.34 -10.07 -2.902 -10.95
1.985 -3.078 1.055 -3.429 -8.354 -2.462 -8.925 -7.826 -16.18 -11.17 -5.408 -11.21 -15.7 -14.77 -9.98 -11.48 -13.15
1.99 -5.628 -0.7474 1.539 -0.5276 -7.606 -10.73 -6.639 -8.661 -4.177 -8.617 -15.08 -19.65 -9.761 -6.815 -17.5 -12.13
1.995 -7.65 -2.638 4.133 6.067 -11.52 -10.33 -5.716 -1.187 1.803 -9.321 -13.98 -17.23 -4.045 -3.957 -16 -8.837
2 -5.892 -1.319 3.034 7.342 -9.849 -5.716 -5.672 2.286 2.462 -6.551 -7.035 -8.574 -0.3957 -3.21 -7.035 -4.573
2.005 -0.6155 3.122 -0.6595 4.133 -2.77 1.847 -5.628 1.495 -1.055 -1.539 2.022 2.198 1.319 -3.341 3.341 -0.5716
2.01 4.573 6.815 -5.012 -0.3957 4.836 8.442 -5.1 -1.099 -4.88 2.462 8.002 9.453 1.935 -2.858 8.442 1.891
2.015 6.067 6.331 -8.266 -3.913 7.826 10.24 -4.66 -2.99 -5.76 3.341 8.266 9.673 1.715 -1.539 6.023 1.847
2.02 3.429 1.451 -8.969 -5.144 4.748 6.771 -4.485 -2.99 -3.034 1.539 4.089 4.441 0.9673 0.04397 -0.5716 0.04397
2.025 -0.9673 -4.353 -6.375 -3.254 -0.8354 0.7914 -3.825 -1.319 1.847 -0.7914 -1.055 -1.275 0.6595 1.495 -5.892 -1.363
2.03 -3.869 -7.211 -0.9233 0.7914 -4.529 -3.957 -2.154 0.7474 5.804 -1.891 -4.265 -3.869 0.8354 1.891 -6.771 -1.231
2.035 -4.045 -5.848 5.144 4.265 -4.836 -6.155 -0.3517 1.715 6.155 -2.198 -4.704 -3.473 0.5716 0.5276 -3.869 -0.3517
2.04 -2.902 -2.858 9.233 5.188 -3.517 -6.595 0.3078 1.539 3.341 -3.122 -4.001 -2.198 -0.3517 -1.847 -1.055 -0.2638
2.045 -2.638 -1.319 9.761 4.221 -3.122 -6.771 -0.2638 0.9673 0.3078 -4.968 -3.869 -1.671 -1.407 -3.693 -1.055 -1.539
2.05 -3.341 -1.847 6.903 2.726 -4.133 -6.947 -1.803 0.3957 -1.275 -6.551 -4.001 -1.847 -3.21 -4.968 -2.946 -4.177
2.055 -2.902 -2.022 2.11 0.5276 -4.441 -6.243 -3.649 -0.8793 -2.726 -6.155 -2.814 -1.715 -6.683 -6.551 -3.298 -7.65
2.06 0.4397 0.6595 -1.979 -2.242 -1.935 -4.001 -5.056 -2.946 -4.748 -3.385 0 -0.6595 -10.82 -8.002 -0.4397 -9.849
2.065 5.452 5.76 -2.902 -3.957 3.429 -0.9233 -4.704 -4.836 -6.199 0.3517 2.858 1.187 -12.49 -7.518 3.781 -8.486
2.07 9.145 10.2 0.08793 -3.078 8.486 1.671 -1.891 -4.748 -5.452 3.254 3.957 3.034 -9.936 -4.617 6.551 -3.341
2.075 9.497 11.17 5.848 -0.6155 10.02 3.298 2.946 -1.715 -2.286 4.485 3.869 4.88 -3.781 -0.9233 6.903 3.517
2.08 6.947 8.617 11.65 2.022 7.65 5.056 9.101 4.221 2.638 5.1 4.529 7.782 4.309 2.726 6.551 9.761
2.085 3.957 5.144 14.95 4.485 3.957 8.354 15.48 11.3 8.31 6.683 7.123 12.57 12.62 6.111 7.43 13.94
2.09 2.814 3.254 13.41 6.375 2.506 13.01 19.39 16.49 12.35 9.189 10.95 17.63 18.69 8.881 9.761 15.17
2.095 3.605 2.77 6.243 5.936 3.957 16.44 17.45 16.66 12.09 10.68 13.67 19.52 19.65 9.673 11.91 12.84
2.1 4.133 1.319 -4.529 2.594 6.111 15.65 8.793 11.12 7.43 9.321 12.79 15.87 15.34 7.958 11.39 7.782
2.105 2.286 -2.858 -14.25 -1.847 5.76 9.761 -3.254 2.55 1.231 5.188 7.738 7.914 8.354 4.529 6.947 2.286
2.11 -2.198 -8.486 -18.29 -5.188 1.627 0.9233 -13.41 -5.584 -3.693 0.08793 0.6155 -0.6595 1.275 0.3517 0.2638 -2.022
2.115 -6.683 -11.78 -15.08 -7.123 -4.441 -7.211 -18.07 -10.73 -6.727 -3.737 -5.232 -6.551 -4.353 -4.001 -5.32 -5.056
2.12 -8.442 -10.29 -6.991 -7.87 -8.837 -11.96 -16.75 -12.18 -7.694 -5.056 -7.738 -8.574 -7.782 -6.947 -7.958 -7.079
2.125 -6.683 -5.364 1.275 -6.683 -8.969 -12.93 -11.65 -10.38 -6.507 -4.309 -7.474 -7.782 -8.31 -7.035 -7.958 -7.518
2.13 -2.814 -0.9673 5.76 -3.605 -5.056 -11.39 -6.331 -7.211 -4.221 -2.726 -5.979 -6.199 -6.727 -4.88 -6.727 -6.595
2.135 1.231 0.08793 5.54 -0.3078 0.04397 -8.749 -3.078 -4.353 -2.682 -1.099 -3.913 -5.496 -5.056 -2.638 -4.792 -4.617
2.14 4.573 -1.495 3.254 1.451 3.605 -5.452 -1.847 -2.462 -2.594 0.2638 -1.979 -5.452 -3.517 -1.143 -2.726 -1.935
2.145 5.892 -2.462 2.418 1.979 4.265 -1.847 -0.4397 -1.143 -2.594 1.187 -1.055 -5.1 -1.187 0.6595 -1.891 1.451
2.15 5.54 -0.08793 4.573 2.198 2.858 1.671 2.154 0.3078 -1.495 1.187 -1.583 -4.353 1.803 3.078 -2.858 4.573
2.155 4.309 5.892 7.606 2.022 1.187 4.441 5.1 2.198 0.4397 0.2638 -2.858 -3.385 3.957 4.924 -4.529 5.584
2.16 3.605 12.66 8.837 1.803 0.7914 6.243 7.694 4.88 3.034 -0.9233 -3.254 -1.847 4.836 5.54 -4.748 4.704
2.165 4.309 17.15 7.562 3.122 2.55 7.826 10.24 8.749 6.639 -0.8354 -1.671 1.407 5.496 5.892 -1.847 3.957
2.17 6.419 18.16 5.408 6.507 5.804 9.936 12.88 12.66 10.11 1.055 1.671 6.419 6.595 6.419 3.649 4.529
2.175 9.057 16.18 4.133 9.453 8.793 12 14.29 14.11 11.17 3.649 5.232 10.64 7.035 6.463 9.057 5.672
2.18 9.761 11.39 3.825 8.925 9.497 11.87 12.57 11.17 8.486 4.792 6.595 10.99 5.936 5.408 10.46 5.979
2.185 6.331 3.473 3.034 4.617 6.595 7.914 7.386 4.089 3.473 3.561 4.353 6.551 3.517 2.902 6.067 4.836
2.19 -0.9673 -6.859 -0.04397 -1.671 0.7474 0.9673 0.1759 -4.573 -1.803 1.055 0.2638 -0.2638 0.4397 -1.231 -1.187 2.726
2.195 -8.793 -16.4 -5.584 -8.354 -5.672 -5.804 -6.683 -11.43 -6.507 -0.08793 -2.33 -5.672 -2.77 -6.331 -5.936 0.6595
2.2 -12.66 -20.62 -10.95 -13.15 -9.497 -8.53 -10.68 -13.81 -9.453 1.451 -1.187 -6.551 -4.353 -9.541 -4.792 0.08793
2.205 -10.29 -16.93 -12.27 -13.23 -8.617 -5.804 -10.33 -10.95 -9.277 4.88 2.154 -3.254 -2.594 -7.606 0.1319 2.154
2.21 -3.341 -7.255 -7.65 -7.694 -3.561 0.1319 -6.199 -4.66 -5.716 7.386 4.836 0.9673 1.715 -1.099 4.177 5.848
2.215 3.869 2.946 0.8793 0.8793 2.858 5.32 -0.4397 2.462 -0.08793 6.551 4.968 2.638 6.023 6.111 4.353 8.705
2.22 7.738 8.53 9.409 8.969 7.43 6.991 5.496 8.617 6.551 2.814 3.166 1.583 8.793 10.68 1.363 9.497
2.225 6.859 8.134 14.29 14.51 8.486 5.188 11.17 13.32 13.1 -1.187 1.099 0.5276 10.38 11.91 -1.935 8.793
2.23 3.254 4.66 14.03 16.18 6.507 2.242 15.78 15.65 17.32 -3.122 -0.04397 1.407 10.6 10.42 -2.99 6.639
2.235 0.4397 2.55 9.365 12.79 2.99 0.08793 17.1 14.38 15.96 -2.99 -0.4836 3.166 7.826 6.595 -2.154 2.374
2.24 -0.08793 3.254 2.99 5.32 -0.7035 -1.143 13.94 9.145 8.661 -2.902 -1.803 2.814 1.671 1.319 -2.11 -4.133
2.245 0.7914 4.792 -1.759 -1.979 -4.089 -2.506 7.474 2.154 -0.3078 -4.88 -5.32 -1.275 -5.716 -3.957 -5.056 -10.73
2.25 0.5276 4.133 -3.341 -5.188 -6.991 -4.924 0.3517 -3.561 -6.331 -8.925 -10.29 -8.046 -11.48 -8.09 -10.11 -14.99
2.255 -1.847 0.5716 -2.286 -4.309 -9.497 -8.09 -5.936 -6.111 -7.65 -12.71 -13.94 -14.33 -14.03 -10.51 -13.76 -15.83
2.26 -5.364 -4.089 -0.9233 -2.154 -11.21 -10.9 -11.26 -5.979 -6.023 -13.67 -14.42 -17.37 -13.06 -10.33 -13.85 -13.72
2.265 -7.826 -6.947 -1.055 -0.9233 -11.7 -12.05 -15.78 -5.672 -4.441 -10.95 -12.35 -16.36 -9.717 -7.606 -11.3 -10.38
2.27 -8.178 -6.727 -3.385 -2.11 -10.86 -11.39 -19.21 -7.386 -5.716 -6.067 -9.497 -13.1 -6.947 -4.617 -8.574 -8.002
2.275 -6.155 -4.309 -6.903 -5.848 -8.661 -9.453 -20.66 -11.21 -10.2 -1.979 -6.727 -10.11 -7.167 -4.485 -6.903 -7.958
2.28 -2.814 -1.803 -9.936 -10.24 -5.188 -6.903 -18.55 -14.82 -14.47 -0.3517 -4.265 -8.178 -9.365 -6.771 -5.979 -8.617
2.285 0.5276 -0.6595 -11.12 -11.87 -0.2638 -4.265 -12.66 -15.39 -13.94 -0.7035 -1.891 -6.243 -10.07 -8.134 -4.836 -7.255
2.29 3.254 -0.7474 -10.64 -9.541 5.408 -1.715 -5.32 -12.71 -8.222 -1.143 0.4836 -3.429 -7.518 -6.199 -2.77 -3.078
2.295 5.452 -0.9233 -9.541 -5.848 10.02 0.5716 -0.6155 -9.189 -1.671 -0.3957 2.858 -0.1759 -3.825 -2.066 0.2198 1.759
2.3 7.035 -0.1759 -8.002 -3.341 11.65 2.506 0.2198 -6.771 1.627 1.671 4.704 2.462 -1.099 1.891 3.254 5.144
2.305 7.035 1.363 -4.88 -1.495 9.497 4.133 0.08793 -4.529 1.671 3.693 5.364 4.529 0.9233 4.045 5.628 7.167
2.31 4.836 3.254 1.011 1.495 4.748 5.364 2.682 -0.08793 1.583 4.441 5.144 6.507 3.517 4.397 7.562 8.881
2.315 0.8793 4.573 8.617 5.364 -0.3957 5.716 8.749 7.386 3.517 3.385 4.924 8.398 7.167 3.869 9.629 10.55
2.32 -2.99 4.265 14.64 8.53 -4.045 4.66 15.08 15.87 7.43 1.275 5.188 9.849 11.48 4.221 11.34 11.61
2.325 -5.188 1.671 16.4 10.33 -5.496 2.066 18.11 21.72 11.39 -0.3517 5.232 10.16 15.04 5.936 11.08 11.04
2.33 -5.364 -2.55 13.85 10.46 -5.232 -0.9673 16.62 22.29 12.57 -0.5276 4.397 8.442 15.78 7.386 7.914 8.178
2.335 -3.517 -6.419 9.321 8.661 -4.001 -2.902 12.44 18.07 9.409 0.2638 2.814 4.353 12.31 6.155 2.594 3.254
2.34 -0.3517 -7.782 5.892 5.628 -2.066 -2.33 9.145 12.13 3.825 1.143 0.8793 -1.231 6.683 2.858 -3.21 -1.363
2.345 2.814 -5.804 4.529 3.034 0.7474 0.3957 8.925 7.606 -0.1319 1.363 -1.055 -6.507 2.462 0.6595 -8.222 -3.122
2.35 4.836 -2.022 3.517 1.231 3.957 3.517 10.11 4.792 -1.319 1.055 -2.682 -10.02 1.099 0.9673 -10.99 -1.847
2.355 4.924 0.7914 0.3957 -1.583 5.804 4.573 8.793 1.495 -2.11 0.7914 -3.078 -11.39 0.2638 1.847 -10.6 -0.3957
2.36 2.902 0.5276 -5.276 -6.023 4.529 2.418 3.298 -3.605 -4.617 0.8354 -1.979 -10.29 -1.671 1.231 -6.947 -0.7474
2.365 -0.7035 -2.682 -10.33 -9.717 0.4836 -1.759 -3.605 -8.837 -7.826 0.9233 -0.3957 -6.859 -3.957 -0.6595 -1.847 -2.11
2.37 -4.748 -6.199 -11.3 -9.893 -4.177 -5.804 -8.046 -11.34 -8.925 0.3078 0.4836 -2.242 -4.792 -2.33 2.594 -2.682
2.375 -6.507 -6.859 -7.386 -6.859 -6.859 -7.606 -8.574 -9.541 -6.815 -1.363 0.1759 1.363 -3.473 -2.022 4.573 -1.407
2.38 -4.836 -3.913 -1.143 -2.418 -6.243 -7.123 -6.463 -4.441 -1.891 -3.605 -1.319 2.286 0.08793 1.143 3.649 1.671
2.385 -0.9673 0.4836 4.397 2.374 -3.473 -5.584 -3.473 1.583 4.441 -5.144 -3.561 0.8793 4.924 6.419 0.6155 5.848
2.39 1.759 3.517 7.474 7.079 -1.055 -4.441 -0.7035 6.155 9.585 -5.32 -5.496 -1.231 8.881 10.33 -2.33 9.101
2.395 1.495 3.825 7.694 10.02 -0.7035 -3.913 1.099 7.65 10.86 -4.353 -5.76 -1.935 9.101 9.277 -2.726 9.057
2.4 -1.231 2.418 5.012 9.497 -1.671 -2.682 1.011 6.023 7.562 -2.77 -3.561 0.04397 4.836 3.341 0.1759 4.748
2.405 -3.869 1.539 -0.9673 4.968 -1.583 0.6155 -1.891 1.583 1.363 -0.6155 0.6155 5.012 -2.11 -4.001 4.88 -2.638
2.41 -3.517 2.33 -10.33 -2.902 1.451 6.287 -8.574 -5.144 -5.892 2.814 5.979 11.34 -9.936 -9.717 9.277 -11.21
2.415 0.3517 4.089 -20.84 -12.66 6.463 12.53 -17.85 -12.88 -12.84 7.43 11.52 16.22 -17.23 -13.01 12.13 -18.77
2.42 5.364 4.573 -27.74 -20.49 10.42 16.44 -25.28 -18.47 -17.15 11.61 15.21 17.45 -21.59 -13.76 12.71 -22.25
2.425 6.947 2.198 -26.29 -21.06 10.38 15.52 -25.02 -18.25 -15.52 12.93 14.9 14.73 -20.09 -11.7 10.6 -18.86
2.43 2.638 -2.506 -15.74 -12.84 5.584 9.629 -15.34 -11.48 -8.046 9.585 9.936 9.277 -12.79 -7.43 6.287 -9.321
2.435 -5.364 -7.255 -1.055 -0.7914 -1.847 1.319 -0.9673 -1.803 0.7474 2.506 2.638 3.21 -3.517 -2.99 1.759 1.803
2.44 -12.4 -9.409 10.55 7.87 -8.134 -5.452 10.77 5.54 5.804 -4.441 -3.078 -0.7035 3.517 0.2198 -1.055 9.629
2.445 -14.07 -7.606 14.9 9.936 -9.936 -7.342 15.56 7.694 5.54 -7.123 -4.441 -0.4397 6.683 2.242 -1.055 12.18
2.45 -9.233 -2.11 13.45 7.255 -6.199 -3.254 14.38 5.672 1.847 -3.869 -0.8354 4.045 6.243 2.902 1.583 10.38
2.455 -0.3517 5.672 10.38 3.693 1.231 4.748 11.17 2.902 -1.891 2.99 5.804 10.33 3.693 2.154 5.936 6.815
2.46 8.969 13.72 8.881 2.506 9.057 12.79 9.365 2.33 -2.902 9.233 12.05 15.3 1.715 1.099 10.16 4.573
2.465 14.33 19.13 8.837 4.792 14.29 17.28 9.321 4.001 -0.1759 11.7 14.95 17.1 2.418 1.583 12.13 4.924
2.47 14.25 19.74 7.782 8.134 15.08 16.36 8.178 5.32 4.001 10.33 13.76 15.3 4.968 3.341 11.26 6.419
2.475 9.936 14.73 4.133 8.266 11.78 10.82 2.77 3.341 5.804 7.079 10.02 10.38 6.199 4.573 8.222 6.023
2.48 3.869 5.76 -0.8793 3.781 6.155 3.122 -6.155 -1.671 4.309 3.913 5.232 3.561 4.353 4.089 3.605 2.374
2.485 -1.407 -3.693 -4.177 -1.627 0.6595 -4.397 -14.29 -6.419 2.11 1.231 -0.3078 -3.781 0.7914 2.858 -2.33 -2.682
2.49 -4.748 -9.98 -3.737 -4.045 -3.298 -10.24 -17.59 -7.87 1.363 -1.847 -6.727 -10.6 -2.506 1.583 -8.881 -6.859
2.495 -6.419 -11.52 -0.8793 -3.078 -5.76 -14.33 -15.96 -5.804 1.627 -5.979 -12.97 -16.27 -4.573 0.3517 -14.07 -8.793
2.5 -7.298 -10.07 1.407 -1.319 -7.826 -17.02 -11.96 -2.286 1.407 -10.11 -17.37 -19.92 -4.221 0.04397 -16.14 -7.826
2.505 -8.53 -8.793 1.407 -0.3517 -9.936 -17.85 -7.606 0.8793 0.9673 -12.27 -18.69 -20.09 -0.6595 1.847 -14.73 -4.001
2.51 -9.849 -9.673 -0.6155 -0.2198 -11.12 -15.61 -3.429 2.506 1.055 -11.04 -16.31 -16.36 4.704 5.452 -10.46 1.451
2.515 -9.233 -11.21 -3.737 -1.143 -9.805 -9.013 0.7914 2.11 0.9673 -6.859 -10.64 -9.717 8.09 7.958 -4.353 6.067
2.52 -5.188 -10.2 -7.211 -3.21 -5.1 1.055 4.968 -0.4836 -0.2198 -1.715 -3.166 -2.022 6.947 6.771 2.11 7.914
2.525 1.319 -5.056 -10.29 -5.672 1.715 11.43 8.266 -4.968 -3.078 2.418 3.517 4.748 1.803 1.671 7.123 7.079
2.53 7.123 2.374 -11.87 -7.738 7.474 17.81 9.101 -10.46 -7.342 4.573 7.562 8.793 -4.88 -5.936 9.321 4.353
2.535 9.409 8.178 -10.07 -9.277 9.013 17.5 6.903 -14.9 -11.83 4.792 8.574 8.969 -10.46 -13.01 8.661 0.9673
2.54 7.65 9.409 -3.737 -9.057 6.331 11.65 3.737 -15.08 -13.28 3.913 7.255 6.111 -12.13 -15.74 5.672 -1.583
2.545 4.045 6.375 5.848 -4.704 2.022 4.309 3.341 -8.837 -8.705 3.034 4.792 2.594 -8.266 -11.74 1.627 -1.627
2.55 1.407 2.242 14.6 3.429 -0.3078 -0.4836 7.167 2.154 0.6155 2.682 2.462 0.5716 -1.011 -3.341 -1.803 0.1759
2.555 0.7035 -0.2638 17.5 10.73 -0.1319 -2.066 12.44 12.71 9.541 2.594 0.8354 -0.2638 4.968 3.605 -3.517 1.319
2.56 0.5276 -1.275 12.62 12.31 0.2638 -3.122 14.42 17.59 13.5 1.935 -0.7035 -1.627 6.639 5.54 -4.001 0.1759
2.565 -2.022 -3.429 3.341 8.134 -1.891 -6.859 10.64 15.61 12.71 0.08793 -3.517 -4.924 4.792 3.517 -5.408 -2.726
2.57 -7.123 -7.914 -4.265 2.154 -6.903 -13.41 2.506 9.321 9.849 -2.946 -7.694 -9.761 1.539 0.8354 -8.398 -5.584
2.575 -11.61 -12.49 -6.287 -1.847 -11.7 -18.95 -5.892 2.99 6.903 -6.199 -10.99 -13.72 -1.363 -0.4397 -10.77 -7.123
2.58 -11.43 -13.15 -3.122 -2.682 -12.05 -18.86 -10.16 -0.4397 4.573 -8.002 -10.82 -13.5 -2.594 0.2638 -9.673 -6.199
2.585 -5.892 -7.738 1.539 -1.099 -6.639 -11.65 -8.046 -0.6155 2.726 -7.123 -6.595 -7.738 -1.143 1.803 -4.265 -2.638
2.59 1.759 1.495 4.221 0.8793 1.451 -0.8354 -0.7474 0.8793 0.9233 -3.869 -0.3957 1.011 2.374 2.638 3.034 2.242
2.595 7.826 9.98 4.133 1.275 7.211 7.87 7.518 2.506 -0.5716 0.04397 4.617 7.826 6.023 1.759 8.617 6.243
2.6 10.38 14.03 3.254 0.8354 7.914 10.9 13.23 4.001 -0.3517 2.814 6.155 9.145 8.661 0.9673 9.541 8.002
2.605 10.99 13.76 3.913 2.506 5.496 9.101 15.17 6.243 3.034 3.781 4.089 5.672 10.64 2.374 5.672 8.134
2.61 11.87 12.09 5.892 6.727 4.045 6.331 13.85 8.749 7.87 3.517 0.7035 0.9673 11.43 5.452 0.1319 7.123
2.615 13.72 11.48 6.463 9.189 5.496 5.32 9.453 9.233 9.98 2.858 -1.099 -2.022 9.761 7.167 -3.517 5.056
2.62 14.33 11.17 3.078 5.408 7.782 5.496 2.902 6.111 7.035 1.979 -0.7474 -2.726 5.804 5.979 -4.177 2.418
2.625 10.55 8.354 -3.254 -3.298 7.255 4.353 -3.781 0.4836 1.627 0.5276 0.04397 -2.462 1.935 3.693 -3.649 0.4836
2.63 2.286 1.583 -8.925 -11.26 2.374 0.8354 -8.046 -4.441 -2.154 -1.583 -0.1319 -2.99 -0.1319 2.638 -3.781 -0.3078
2.635 -6.859 -7.298 -10.64 -13.32 -4.133 -3.429 -9.233 -6.111 -2.594 -3.781 -0.9673 -4.265 -0.6155 2.946 -4.265 -0.6595
2.64 -12.13 -13.81 -7.87 -8.574 -7.914 -5.496 -8.09 -4.177 -0.4397 -4.617 -1.187 -4.704 -0.6155 3.298 -3.605 -1.539
2.645 -11.87 -15.12 -3.122 -0.08793 -6.859 -4.441 -6.287 -0.5276 2.33 -3.166 -0.4397 -2.418 -0.6595 2.242 -1.231 -2.99
2.65 -8.442 -11.56 0.1319 6.947 -3.034 -2.242 -5.452 1.935 3.913 -0.4397 0.4397 1.715 -1.451 -0.7474 1.451 -4.792
2.655 -5.276 -5.936 0.4836 8.398 -1.011 -2.066 -6.287 1.979 3.341 1.539 0.2638 5.1 -3.429 -4.88 2.858 -6.507
2.66 -4.045 -1.363 -0.9233 4.748 -2.858 -4.748 -7.474 0.6595 1.671 1.363 -1.011 5.408 -5.144 -7.211 2.154 -7.035
2.665 -3.957 0.8354 -1.407 0.8793 -6.375 -7.826 -6.595 0.2638 0.7035 -0.2638 -2.682 3.298 -4.353 -5.54 -0.08793 -4.88
2.67 -3.078 1.583 0.5716 0.3957 -7.079 -7.43 -2.814 1.671 0.4836 -1.275 -2.858 1.143 -0.9673 -1.143 -1.671 -0.6595
2.675 -0.08793 2.418 3.605 1.891 -2.638 -1.979 1.495 3.254 -0.7914 0 -0.4397 0.5716 2.022 1.979 -0.8354 2.99
2.68 4.045 4.265 5.408 2.11 4.88 5.936 3.649 2.77 -3.781 3.385 3.605 1.583 2.242 1.891 1.935 4.133
2.685 7.035 6.991 4.968 0.7914 10.95 11.83 2.946 0.1759 -6.287 6.595 6.199 2.858 -0.04397 0.1759 4.177 2.946
2.69 7.211 9.717 3.649 0.1759 11.87 12.27 1.187 -3.166 -6.463 7.035 5.54 2.726 -3.341 -1.055 4.089 0.8354
2.695 4.66 11.08 2.99 1.495 7.562 7.342 0.1759 -5.276 -4.924 3.869 2.374 0.4836 -6.287 -1.451 2.198 -1.275
2.7 0.9673 9.893 3.341 3.605 1.055 0.2638 0.3078 -5.628 -3.605 -1.363 -1.143 -2.77 -7.606 -2.022 0.3957 -2.462
2.705 -2.55 5.672 3.298 4.529 -4.089 -5.144 0.8793 -4.66 -3.473 -5.628 -3.21 -4.924 -6.463 -3.166 -0.3078 -2.374
2.71 -4.748 -0.1759 1.231 2.682 -5.804 -6.727 0.04397 -3.913 -4.265 -6.859 -3.166 -4.66 -3.957 -4.88 0.3517 -1.891
2.715 -4.748 -4.88 -3.254 -1.847 -4.485 -4.573 -3.737 -4.353 -5.364 -5.012 -1.187 -2.374 -2.638 -6.727 1.979 -2.594
2.72 -2.374 -6.023 -8.178 -6.727 -1.847 -0.7035 -9.101 -5.408 -5.804 -1.979 1.583 0.6595 -3.341 -7.035 3.517 -4.704
2.725 0.7035 -3.869 -10.11 -7.738 0.2638 2.638 -12.49 -5.32 -4.397 0.08793 3.429 3.473 -4.353 -4.836 3.869 -6.639
2.73 2.198 -1.099 -7.474 -3.473 0.6595 3.737 -10.86 -3.21 -1.627 0.4397 3.298 4.968 -4.221 -1.495 2.55 -7.123
2.735 0.8793 -0.1319 -1.583 2.462 -1.099 2.462 -4.88 0 0.1759 -0.5276 1.671 4.265 -3.298 0.3517 0.3078 -6.331
2.74 -2.022 -1.099 4.089 5.804 -4.133 0.04397 2.418 2.814 0.08793 -1.407 -0.5276 1.363 -2.198 0 -2.066 -4.88
2.745 -4.221 -1.715 6.903 5.716 -6.155 -1.715 7.914 4.177 -0.6595 -1.143 -2.594 -2.33 -1.187 -0.7474 -4.177 -3.298
2.75 -3.957 -0.2198 5.979 4.133 -5.276 -1.671 8.969 3.561 -0.9673 -0.04397 -3.913 -5.408 -0.9233 -0.8354 -5.584 -2.462
2.755 -1.231 2.55 2.198 2.198 -1.979 -0.7474 4.88 1.055 -1.451 0.7474 -4.265 -7.167 -2.374 -0.9233 -5.672 -3.385
2.76 1.759 3.473 -2.33 -0.08793 1.143 -0.8354 -2.506 -2.374 -2.55 0.1319 -4.001 -7.606 -4.88 -1.715 -4.441 -5.452
2.765 2.374 0.2198 -5.408 -2.022 1.759 -3.078 -9.453 -4.792 -3.034 -1.671 -4.045 -6.551 -5.496 -2.418 -2.638 -6.155
2.77 0.2638 -5.364 -5.32 -2.55 -0.5276 -6.287 -12.09 -4.88 -1.891 -3.21 -3.957 -4.001 -2.946 -1.671 -0.5276 -3.649
2.775 -2.462 -8.354 -2.198 -1.759 -3.21 -7.474 -9.541 -2.682 0.3517 -2.682 -2.286 -0.08793 1.187 0.2638 2.55 1.143
2.78 -3.254 -4.968 2.242 -0.2198 -3.385 -4.309 -3.429 0.2198 2.374 0.4397 1.715 5.056 4.573 3.034 6.463 6.111
2.785 -1.671 3.122 5.584 1.495 -0.08793 2.506 3.298 2.286 3.473 5.232 6.903 10.6 6.067 5.672 9.98 9.321
2.79 0.7914 10.24 5.76 2.594 4.397 9.277 7.958 2.33 3.122 9.189 10.6 14.47 5.496 6.463 11.3 9.849
2.795 2.374 11.21 2.418 1.363 6.507 12.09 8.837 0.4397 0.8354 10.02 10.86 14.47 3.254 4.397 9.717 7.782
2.8 2.99 6.155 -2.198 -1.847 5.012 9.849 6.947 -1.319 -2.33 7.123 7.562 10.16 0.8793 0.8793 5.496 4.792
2.805 3.254 -0.1759 -4.704 -4.089 2.022 4.792 5.056 -1.099 -4.177 1.979 2.374 3.825 0.3517 -1.363 0 3.034
2.81 4.045 -2.638 -3.254 -2.99 1.099 0.7035 4.88 1.099 -3.869 -2.682 -1.891 -1.539 0.9233 -1.759 -4.704 2.154
2.815 5.012 -0.04397 0.5716 -0.2638 3.254 -0.1319 5.496 3.21 -2.946 -4.617 -3.078 -4.177 0.2198 -2.242 -6.815 0.2198
2.82 5.364 4.177 3.473 0.7035 6.595 1.759 4.792 2.77 -2.77 -3.254 -0.9673 -4.045 -2.418 -3.825 -6.199 -3.473
2.825 4.66 5.716 3.385 -0.4397 7.782 4.001 2.33 -0.2198 -2.726 0.2198 2.154 -2.374 -5.012 -5.276 -4.573 -6.991
2.83 2.814 2.814 1.275 -1.715 5.496 4.704 -0.8354 -4.045 -2.022 3.298 3.825 -1.143 -5.496 -5.32 -3.649 -8.002
2.835 0.5276 -2.462 -0.1759 -1.407 0.9673 3.078 -3.649 -6.595 -1.187 3.869 2.99 -1.627 -4.265 -4.133 -3.913 -6.375
2.84 -1.759 -7.123 0.2638 0.04397 -3.473 -0.1319 -5.452 -6.815 -0.8793 1.099 -0.1319 -3.561 -2.726 -2.198 -4.968 -3.561
2.845 -4.66 -9.849 1.539 1.451 -6.199 -4.177 -6.067 -5.232 -0.7474 -3.737 -4.485 -5.188 -1.363 0.2198 -6.023 -1.187
2.85 -8.178 -11.12 0.9233 1.275 -7.298 -7.826 -6.287 -3.122 -0.3517 -8.178 -8.398 -5.276 -0.2638 2.814 -6.243 0.04397
2.855 -10.46 -11.17 -3.298 -1.539 -7.65 -9.893 -7.035 -1.803 0.2198 -9.585 -9.761 -3.869 0.6595 4.968 -4.529 0.3517
2.86 -9.321 -9.145 -9.409 -5.54 -7.123 -9.145 -7.87 -0.8354 0.9233 -7.386 -7.738 -1.407 2.33 6.991 -0.9233 1.231
2.865 -4.485 -4.441 -12.97 -6.859 -4.66 -5.364 -7.123 0.8354 2.55 -2.726 -3.429 1.583 5.584 9.409 3.122 3.737
2.87 1.671 2.022 -10.6 -3.693 -0.08793 -0.08793 -4.001 3.605 4.836 1.847 0.7914 4.573 8.837 11.08 5.892 6.463
2.875 6.155 7.562 -3.21 0.8354 4.792 4.177 0.1759 6.287 6.023 4.133 3.473 6.551 9.453 9.98 6.771 6.595
2.88 6.947 9.585 4.573 2.506 7.167 5.54 3.385 7.342 5.144 3.825 4.045 7.079 6.683 6.419 6.023 3.473
2.885 4.573 7.386 8.617 0.3517 6.199 4.221 4.792 6.199 2.99 2.462 3.254 6.419 2.946 2.726 4.529 -0.2638
2.89 1.495 2.902 7.474 -2.814 3.429 2.242 4.353 3.429 0.5716 1.803 2.374 4.968 0.1759 0.3957 3.385 -1.671
2.895 0 -0.9673 2.682 -5.1 1.495 1.627 2.374 -0.2638 -2.594 2.462 2.418 2.682 -1.671 -1.671 3.385 -0.3078
2.9 0.3517 -2.946 -2.638 -6.155 1.539 2.11 -0.4836 -4.001 -6.727 3.429 2.858 -0.2198 -3.649 -4.529 4.001 2.154
2.905 1.143 -3.693 -6.199 -6.331 2.286 1.891 -2.902 -6.595 -10.11 3.078 1.671 -3.298 -5.364 -7.694 3.429 3.737
2.91 0 -4.529 -7.035 -5.979 1.143 -0.6595 -3.913 -7.255 -11.21 0.9233 -1.891 -6.199 -6.419 -9.936 0.8354 3.254
2.915 -3.166 -5.584 -5.408 -5.54 -2.77 -5.012 -3.254 -5.892 -9.761 -2.11 -6.155 -8.354 -6.331 -10.33 -2.55 1.099
2.92 -6.419 -5.936 -1.891 -4.221 -7.474 -8.574 -1.363 -2.77 -6.155 -4.265 -8.354 -8.969 -4.397 -7.914 -4.485 -0.6595
2.925 -7.826 -4.792 3.166 -0.3078 -9.321 -8.442 1.715 1.539 -0.7914 -4.001 -7.035 -6.947 -0.08793 -2.638 -3.737 0.1759
2.93 -6.067 -2.462 8.398 6.023 -6.067 -4.045 5.276 5.76 5.012 -1.495 -2.858 -2.462 5.144 3.21 -0.9673 3.21
2.935 -1.583 0.04397 11.17 10.68 0.3517 2.198 7.43 8.046 8.486 1.715 1.891 2.374 8.31 6.463 1.847 5.408
2.94 3.341 1.847 9.409 10.24 5.892 6.551 7.298 7.694 8.442 3.429 4.617 5.012 8.222 6.023 2.418 4.792
2.945 6.419 2.594 3.825 5.628 7.255 6.507 5.54 5.716 6.375 2.726 3.869 4.309 6.463 4.045 -0.1759 1.891
2.95 5.979 2.462 -2.066 1.319 4.441 2.858 3.693 3.825 4.66 0.2638 0.9673 1.363 4.924 2.682 -3.825 -1.099
2.955 2.99 2.242 -4.792 0.2198 0.3517 -1.363 2.594 2.99 4.265 -2.242 -1.143 -1.275 4.001 2.418 -4.924 -2.638
2.96 0.5276 2.242 -2.946 2.154 -1.759 -3.166 2.594 3.21 5.276 -3.298 -0.6595 -1.363 3.517 2.77 -1.583 -1.935
2.965 0.7035 2.462 1.627 5.232 -0.7035 -1.715 3.561 3.605 7.123 -2.374 1.671 1.363 3.429 3.122 3.913 0.4397
2.97 3.166 2.418 4.88 6.727 1.759 1.143 4.441 2.858 7.914 -0.6595 3.385 4.133 2.638 1.759 7.342 2.638
2.975 5.716 1.495 3.254 4.177 2.682 2.374 3.21 -0.3078 5.188 0.08793 2.55 3.078 -0.5276 -2.418 5.584 1.935
2.98 5.188 -0.4397 -3.078 -1.935 0.5716 0.2198 -1.187 -5.452 -1.011 -0.8793 -0.7474 -2.682 -5.584 -7.914 -0.8793 -1.847
2.985 0.7914 -2.99 -10.24 -7.606 -3.298 -4.221 -6.991 -10.02 -7.079 -3.122 -4.88 -10.16 -9.453 -10.55 -8.574 -6.111
2.99 -5.452 -4.748 -13.15 -8.925 -6.243 -8.002 -10.77 -11.08 -9.013 -4.792 -7.298 -14.25 -9.409 -7.958 -13.06 -7.958
2.995 -9.409 -4.221 -9.585 -5.848 -6.287 -8.398 -9.805 -7.606 -6.111 -4.617 -6.111 -12.27 -5.716 -1.715 -11.91 -6.111
3 -8.617 -1.407 -1.759 -1.363 -3.869 -5.056 -3.737 -0.8354 -0.4836 -2.858 -2.286 -5.408 -0.1319 4.485 -6.771 -1.495
3.005 -4.309 1.407 5.979 2.11 -0.8793 -0.1759 5.144 6.463 4.968 -0.4397 1.451 2.286 5.188 7.606 -1.495 4.001
3.01 -0.4397 1.715 9.761 3.913 0.8354 3.649 12.62 11.08 7.738 1.759 3.034 6.815 8.002 6.199 1.231 8.09
3.015 0.7914 -1.187 8.574 3.737 0.9673 4.704 14.42 11.08 6.639 3.254 2.726 6.991 7.123 1.451 2.066 9.145
3.02 -0.2638 -5.056 4.704 2.462 0.5716 3.781 9.761 7.518 3.385 4.485 2.198 4.748 4.045 -2.814 2.682 8.046
3.025 -1.231 -6.551 1.583 2.022 0.8793 2.462 2.242 3.298 1.187 5.496 2.374 2.814 2.154 -2.902 3.781 7.342
3.03 -0.9673 -4.221 0.8354 3.21 1.891 1.891 -3.21 0.7474 1.319 5.584 2.99 2.286 2.682 0.7474 4.573 8.002
3.035 -0.3517 -0.08793 1.055 3.825 2.55 1.715 -4.529 -0.04397 1.759 3.957 3.298 1.803 3.957 4.089 4.265 8.574
3.04 -0.6155 2.022 -0.2198 1.319 1.671 1.187 -2.462 -0.5276 0.4397 0.7474 2.594 0.3517 3.869 4.353 2.726 7.43
3.045 -2.902 -0.3517 -3.341 -3.649 -0.3957 -0.1759 0.7914 -1.583 -2.242 -2.462 0.8793 -1.363 2.418 1.979 0.6595 4.529
3.05 -6.243 -5.716 -6.023 -7.914 -2.682 -1.671 3.034 -3.078 -4.397 -4.309 -1.011 -1.979 0.5716 -0.5276 -0.9233 1.011
3.055 -7.826 -9.98 -5.76 -9.013 -4.133 -2.902 3.254 -4.309 -5.012 -4.441 -2.242 -1.275 -1.671 -2.154 -1.627 -2.374
3.06 -6.419 -9.409 -2.11 -6.727 -4.792 -3.561 1.451 -4.836 -3.869 -3.737 -2.814 -0.3957 -3.693 -2.462 -1.891 -4.88
3.065 -2.726 -4.177 2.638 -2.022 -4.924 -3.869 -1.231 -4.485 -1.363 -3.166 -3.298 -0.2638 -4.573 -1.275 -2.682 -6.111
3.07 1.143 2.55 5.232 2.814 -4.529 -3.869 -3.781 -3.869 1.363 -2.726 -3.693 -0.9673 -4.177 0.6155 -3.473 -6.507
3.075 4.133 7.386 3.649 4.88 -3.21 -2.99 -6.023 -3.517 2.682 -1.583 -2.814 -1.671 -3.341 2.154 -2.858 -6.683
3.08 6.243 8.793 -0.7474 2.902 -0.7474 -0.9233 -7.474 -3.254 2.286 0.6155 -0.3078 -1.275 -2.242 3.21 -0.6155 -6.419
3.085 7.738 7.298 -4.529 -0.5716 2.418 1.715 -7.123 -2.066 1.803 2.946 2.286 -0.04397 -0.5276 4.045 1.539 -4.836
3.09 7.914 4.617 -4.88 -2.066 4.88 3.473 -4.968 0 1.891 3.825 2.858 0.3517 0.7914 3.605 1.583 -2.286
3.095 6.243 2.154 -2.33 -1.275 5.496 3.298 -2.858 1.451 1.319 2.33 1.099 -1.583 -0.2198 0.5276 -0.4836 -0.7914
3.1 3.429 0.8354 0.5276 -0.04397 4.441 1.451 -2.55 0.7474 -0.9673 -0.08793 -1.407 -4.792 -3.913 -4.089 -2.594 -1.363
3.105 0.2638 0.8354 1.583 0.7914 2.858 -0.4397 -3.298 -1.539 -3.913 -1.099 -2.374 -6.199 -7.255 -6.727 -2.814 -2.638
3.11 -1.759 1.803 1.099 1.495 1.979 -0.9233 -2.77 -3.341 -5.452 0.1759 -0.7914 -3.825 -7.43 -5.496 -0.8793 -2.638
3.115 -2.462 2.902 0.5276 1.979 1.451 -0.1759 0.6155 -2.286 -4.88 2.374 2.638 1.011 -4.265 -2.066 1.671 -0.7474
3.12 -2.11 3.078 1.451 2.506 0.4397 0.9673 6.463 1.935 -2.374 3.341 5.364 5.056 0.5276 0.7035 2.594 2.066
3.125 -1.935 1.759 4.265 3.913 -0.7914 1.671 12.13 8.002 1.715 2.462 5.54 6.287 5.056 1.803 1.011 4.177
3.13 -1.671 -0.6595 7.826 6.507 -1.099 2.11 14.38 12.44 6.155 1.451 3.869 5.144 7.123 1.451 -1.275 3.737
3.135 -0.2638 -2.33 10.16 8.574 0.4836 2.814 10.82 12.35 8.31 2.11 2.77 3.341 5.276 0.5276 -1.451 0.1319
3.14 2.726 -2.11 9.717 8.002 3.385 3.385 2.638 7.342 6.859 4.309 3.21 2.11 0.7914 0.08793 1.143 -4.66
3.145 5.54 -0.3957 6.375 4.704 5.408 2.55 -5.936 -0.04397 2.946 5.584 3.473 1.319 -3.166 0.4397 4.045 -7.123
3.15 6.155 1.539 1.187 0.5716 4.836 -0.08793 -10.82 -6.287 -1.583 3.869 1.627 -0.04397 -4.617 0.3957 4.353 -5.408
3.155 4.748 2.946 -4.353 -3.385 2.286 -3.254 -10.73 -8.925 -5.584 -0.2198 -1.671 -1.847 -4.177 -1.495 2.022 -1.143
3.16 3.078 4.353 -8.31 -5.892 0.3517 -4.001 -6.771 -7.211 -7.518 -3.341 -3.781 -1.979 -2.506 -3.825 -0.3957 3.122
3.165 3.341 6.419 -8.705 -5.32 1.011 -0.7474 -0.5276 -1.671 -5.54 -2.594 -2.33 1.583 0.9233 -3.122 -0.3517 5.936
3.17 5.1 8.837 -5.188 -0.9233 3.649 4.836 6.243 5.584 0.08793 1.275 2.154 8.354 5.54 1.451 2.682 6.947
3.175 6.067 10.29 0.3517 4.353 4.968 8.881 11.34 11.21 5.936 4.089 6.551 14.11 9.321 6.859 6.771 6.199
3.18 4.309 9.541 4.66 6.859 2.374 8.486 13.06 12.35 8.266 2.11 7.255 14.77 10.38 9.189 8.705 4.177
3.185 0.4397 6.903 5.892 5.54 -2.814 4.397 11.43 8.881 6.463 -3.825 3.298 9.805 8.705 7.562 6.375 1.803
3.19 -2.638 4.573 4.617 2.77 -6.595 0.6595 8.354 3.166 2.594 -8.925 -2.462 2.33 5.232 3.473 0.7474 -0.7035
3.195 -1.407 4.66 3.21 1.231 -5.584 0.5276 5.804 -1.231 -0.5276 -8.925 -5.672 -3.825 0.9233 -0.6595 -4.968 -3.913
3.2 3.693 6.991 3.561 2.242 -0.6595 3.605 4.792 -2.198 -1.055 -3.693 -4.836 -6.771 -2.858 -3.166 -8.046 -7.211
3.205 8.705 9.057 5.892 5.716 4.089 6.375 4.968 0 1.319 2.33 -2.374 -6.947 -4.529 -3.517 -8.134 -8.749
3.21 8.617 7.782 8.134 9.365 5.012 5.188 4.265 2.33 3.957 4.353 -1.627 -6.243 -4.529 -3.605 -6.375 -7.782
3.215 2.638 2.374 7.255 9.277 1.847 -0.04397 0.5276 1.231 3.034 1.407 -3.122 -5.892 -4.924 -5.32 -3.737 -5.056
3.22 -5.804 -5.672 2.242 3.561 -2.462 -6.419 -5.628 -3.561 -1.803 -2.99 -4.88 -5.628 -5.979 -7.255 -0.9673 -1.627
3.225 -12.4 -13.63 -5.012 -4.704 -4.748 -10.2 -10.33 -8.53 -6.683 -4.177 -4.573 -4.617 -5.452 -5.936 0.7914 2.33
3.23 -14.68 -19.08 -10.82 -10.24 -4.397 -10.02 -10.11 -9.673 -7.167 -0.7914 -1.847 -2.858 -1.891 -0.3078 1.055 6.331
3.235 -13.1 -20.44 -12.4 -10.68 -3.254 -7.386 -5.364 -6.023 -3.385 3.869 1.275 -1.583 3.034 6.727 0.1759 8.749
3.24 -9.849 -17.28 -9.365 -7.518 -3.429 -4.748 -0.04397 -0.5276 1.319 5.452 2.374 -1.495 6.507 10.95 -1.055 8.486
3.245 -7.035 -10.77 -3.21 -2.902 -4.748 -3.605 2.242 3.122 3.781 2.022 0.1759 -1.759 7.035 10.82 -2.066 5.936
3.25 -5.804 -3.957 3.781 1.451 -5.76 -4.133 1.055 3.341 2.946 -4.177 -3.913 -1.231 4.66 7.211 -2.418 2.242
3.255 -6.155 -0.6595 8.925 3.869 -5.892 -5.76 -1.407 1.275 0 -9.057 -7.123 -0.3517 0.6595 2.286 -1.803 -1.231
3.26 -7.65 -2.594 9.849 3.385 -5.848 -7.65 -2.418 -0.6155 -2.506 -9.497 -7.386 0.4397 -2.594 -1.671 -0.3517 -3.429
3.265 -9.145 -8.178 5.76 0.6595 -6.287 -8.222 -1.099 -0.8793 -2.638 -5.628 -4.88 1.143 -3.473 -3.781 1.275 -4.177
3.27 -8.354 -12.05 -2.594 -3.429 -5.892 -5.496 0.1759 -1.011 -1.935 0.1319 -0.8793 2.77 -3.825 -5.672 2.682 -5.364
3.275 -3.078 -9.101 -12.97 -9.057 -2.594 1.231 -2.418 -3.957 -4.309 4.836 3.341 5.584 -7.298 -9.717 4.089 -9.717
3.28 6.243 0.9233 -21.98 -15.92 3.869 9.673 -9.936 -10.55 -11.12 6.551 6.507 8.398 -14.47 -15.39 4.836 -16.8
3.285 15.12 12.57 -25.98 -20.88 10.68 15.21 -18.82 -17.59 -18.51 5.276 6.991 9.101 -21.28 -18.86 3.737 -22.47
3.29 18.03 18.73 -23.08 -20.66 13.19 14.16 -23.74 -20.71 -21.15 2.286 4.485 6.023 -22.69 -17.32 1.055 -22.16
3.295 13.19 16.66 -14.64 -15.21 9.233 7.123 -22.47 -17.85 -16.97 -0.6155 0.5716 0.08793 -17.32 -11.21 -1.275 -14.95
3.3 4.133 9.805 -4.353 -7.474 1.187 -1.055 -16.44 -10.73 -7.87 -2.242 -2.242 -5.32 -7.606 -3.034 -1.275 -3.957
3.305 -2.814 4.133 3.737 -0.3078 -5.232 -5.1 -8.969 -2.99 2.066 -2.154 -2.726 -6.595 2.154 4.441 0.8354 5.76
3.31 -3.869 2.55 7.43 4.573 -6.199 -3.429 -2.946 2.022 8.705 -1.187 -1.407 -3.957 7.87 8.486 2.814 9.805
3.315 -0.08793 2.946 6.463 5.892 -2.858 0.5276 0.2198 3.122 9.365 -0.6155 -0.3078 -1.275 7.43 7.518 2.55 7.255
3.32 3.781 1.099 2.682 3.561 0.08793 1.891 0.7474 1.759 5.144 -0.7474 -0.6595 -2.066 3.385 2.77 -0.1319 1.627
3.325 3.517 -4.133 -0.8354 0.2198 -0.2198 -0.6155 0.7474 0.5716 0.1759 -0.7914 -2.154 -5.408 0.6595 -1.891 -3.078 -1.495
3.33 -0.3517 -8.881 -1.495 -0.8354 -2.198 -3.385 2.022 1.275 -1.847 0.6595 -2.33 -6.859 1.715 -3.254 -2.902 0.4836
3.335 -3.517 -7.694 1.099 1.055 -1.847 -1.803 4.66 3.737 -0.6155 3.913 0.9673 -2.99 5.012 -1.275 2.022 5.452
3.34 -2.55 0.2198 5.452 4.617 2.858 4.573 7.87 6.595 2.462 7.255 6.727 4.66 7.43 2.594 8.749 9.189
3.345 1.759 9.365 9.277 8.266 9.101 11.08 10.6 8.574 5.804 8.002 10.46 10.6 7.694 6.507 11.39 9.453
3.35 5.1 12.22 10.77 10.55 11.56 11.83 11.21 8.617 7.826 5.1 8.398 9.233 5.76 8.134 6.771 6.463
3.355 4.133 6.067 8.969 9.497 7.298 5.188 8.486 6.287 7.035 -0.2198 1.319 0.5276 2.462 6.419 -2.594 2.55
3.36 0 -4.045 5.012 4.704 -0.8354 -4.177 3.122 2.902 4.089 -4.441 -5.716 -9.409 0.04397 3.254 -10.16 0.6595
3.365 -3.517 -9.98 1.231 -0.5716 -6.551 -8.881 -0.9673 1.407 2.242 -4.573 -7.518 -12.4 1.231 2.638 -10.73 2.902
3.37 -3.429 -7.255 0.3957 -2.198 -5.232 -5.32 -0.2638 3.825 3.869 -0.4836 -2.726 -5.716 6.199 5.848 -4.133 8.354
3.375 0 1.187 2.902 0.6595 1.363 3.473 5.056 9.321 7.738 4.66 4.968 5.408 11.78 10.2 4.617 12.93
3.38 3.517 7.826 6.947 5.408 6.903 10.11 10.6 13.89 10.55 6.903 9.233 12.22 14.11 11.7 8.574 13.23
3.385 3.781 6.639 9.585 8.925 6.067 8.925 11.52 13.67 10.07 4.265 5.979 9.409 11.65 8.969 4.045 8.574
3.39 0.1759 -1.627 8.354 9.321 -0.7474 0.4836 5.804 7.255 6.111 -1.891 -3.385 -0.9673 5.364 3.254 -5.936 1.143
3.395 -4.397 -10.73 2.814 5.804 -8.31 -9.409 -4.045 -2.726 0.3078 -8.002 -12.4 -11.61 -2.374 -2.814 -14.11 -5.936
3.4 -6.243 -13.81 -4.748 -0.4836 -10.73 -13.85 -12.09 -10.99 -4.441 -10.16 -14.73 -15.3 -7.65 -6.111 -14.29 -9.189
3.405 -3.781 -8.881 -10.29 -6.111 -5.936 -10.16 -12.57 -12.75 -5.276 -7.123 -9.057 -9.849 -7.255 -4.836 -6.463 -6.551
3.41 0.6155 0.2198 -10.24 -7.606 2.638 -0.8793 -4.704 -7.606 -2.022 -0.5716 0.8793 0.6595 -1.979 -0.6595 3.869 0.3517
3.415 4.485 7.518 -4.573 -4.924 9.057 7.958 6.331 0.3957 1.979 5.672 9.277 9.013 3.473 2.594 10.6 6.903
3.42 5.716 9.013 3.473 -0.3957 9.541 11.17 13.85 6.419 4.221 8.354 12 10.24 5.408 3.034 10.16 9.541
3.425 3.781 4.748 9.453 4.089 4.573 7.298 14.51 8.09 4.748 6.507 8.486 4.88 3.825 1.847 3.957 7.914
3.43 0 -1.759 10.24 7.474 -1.759 -0.7914 9.629 6.155 4.704 2.022 1.803 -2.682 0.9233 0.3078 -2.99 4.265
3.435 -3.254 -6.287 5.716 7.87 -5.452 -8.222 2.506 2.286 3.693 -1.891 -3.649 -8.09 -1.671 -1.627 -5.716 0.5716
3.44 -4.133 -6.375 -1.055 4.353 -5.1 -11.21 -3.869 -1.891 0.8354 -3.034 -5.144 -9.101 -3.122 -4.089 -3.166 -1.803
3.445 -2.11 -2.77 -5.76 -0.8354 -2.11 -8.925 -7.342 -5.276 -3.429 -1.231 -3.21 -6.375 -3.122 -5.848 1.407 -2.418
3.45 1.143 1.539 -5.364 -4.089 0.8354 -3.517 -7.298 -6.947 -6.991 1.671 0 -2.242 -2.286 -5.848 4.177 -1.759
3.455 4.133 3.737 -0.3517 -3.693 2.022 1.539 -4.045 -6.067 -8.09 3.649 2.77 0.9673 -1.143 -4.133 3.913 -0.9233
3.46 5.452 2.506 5.979 -0.7474 1.495 4.001 1.583 -2.022 -5.892 3.473 4.353 2.726 0.7474 -1.231 2.154 0.5276
3.465 4.836 -0.6595 10.02 2.902 0.6155 3.649 8.969 4.441 -0.5716 1.759 4.485 3.781 4.485 2.33 1.055 3.473
3.47 2.814 -3.166 10.16 5.672 0.4836 1.891 15.78 10.55 4.968 -0.1759 3.429 4.66 8.881 4.924 1.099 7.298
3.475 1.055 -2.726 6.815 5.628 0.4836 -0.04397 18.51 12.79 6.947 -1.891 1.363 4.309 10.29 4.397 1.143 8.925
3.48 0 0.5716 2.242 2.154 -0.6595 -2.066 15.08 9.761 3.913 -3.385 -1.363 1.671 6.683 0.9673 -0.8793 6.463
3.485 -0.5276 4.529 -1.363 -2.594 -3.298 -4.265 7.255 3.649 -0.8354 -4.573 -4.573 -2.77 0.3957 -2.638 -5.628 1.143
3.49 -1.319 6.375 -2.682 -5.672 -5.76 -6.199 -0.6595 -1.627 -3.122 -5.1 -7.123 -6.947 -4.836 -4.265 -10.64 -3.869
3.495 -2.286 5.188 -2.286 -6.287 -5.672 -6.859 -5.056 -3.561 -1.715 -4.397 -7.606 -8.793 -6.375 -3.737 -12.09 -5.979
3.5 -2.814 2.11 -1.407 -5.1 -2.374 -5.54 -4.617 -2.066 2.022 -2.418 -5.496 -7.43 -3.869 -1.363 -8.574 -4.397
3.505 -2.55 -0.9673 -0.4397 -1.979 2.374 -3.034 -0.7035 1.451 6.199 -0.3517 -2.286 -3.473 1.495 2.682 -2.462 -0.3078
3.51 -2.374 -2.858 0.8354 3.078 5.232 -1.187 3.825 5.012 9.365 0.5716 -0.04397 1.011 6.727 7.255 2.55 3.341
3.515 -2.726 -3.561 1.935 7.65 3.825 -1.187 5.76 7.211 10.2 -0.04397 0.5276 4.177 8.925 9.805 4.529 3.693
3.52 -2.99 -3.473 1.583 8.09 -0.6595 -2.506 3.649 7.298 8.53 -1.319 0 5.496 7.43 8.881 4.485 0.5716
3.525 -2.286 -2.946 -1.143 3.385 -4.573 -3.473 -1.671 4.88 5.408 -1.935 -0.5276 5.76 4.309 5.32 4.089 -3.21
3.53 -0.5276 -2.11 -6.111 -4.221 -4.441 -2.418 -7.738 -0.08793 1.143 -1.099 -0.3078 5.496 0.9233 0.7914 4.353 -5.364
3.535 1.671 -1.275 -11.56 -11.74 -0.7914 -0.1759 -12.88 -7.518 -4.88 0.2638 0.3957 3.869 -3.254 -3.737 4.617 -5.716
3.54 2.374 -0.8793 -14.95 -16.62 2.682 1.187 -16.14 -15.43 -12.13 0.8354 0.6155 0.5276 -8.046 -7.035 3.517 -5.056
3.545 0.08793 -1.451 -14.6 -17.06 2.462 0.04397 -16.49 -20.75 -17.72 -0.04397 -0.6595 -3.034 -11.91 -7.958 0.7035 -3.781
3.55 -4.397 -2.418 -10.95 -13.37 -1.495 -2.374 -13.85 -21.19 -19.04 -1.495 -2.77 -4.441 -13.32 -7.255 -1.891 -2.33
3.555 -7.386 -2.462 -6.903 -8.705 -5.76 -3.385 -9.893 -17.41 -16.4 -2.198 -3.737 -1.979 -12.75 -6.771 -1.715 -1.715
3.56 -5.892 -0.3957 -5.408 -6.463 -6.199 -1.055 -6.683 -12 -12 -1.319 -1.979 3.517 -11.08 -7.255 1.715 -2.462
3.565 -0.08793 3.385 -6.507 -6.199 -2.022 4.045 -4.968 -7.255 -7.255 0.6155 1.935 9.849 -8.793 -7.211 5.76 -4.177
3.57 6.331 6.903 -7.518 -5.276 4.089 9.013 -3.957 -3.605 -2.77 2.462 5.936 14.11 -6.155 -5.804 7.518 -5.979
3.575 9.409 8.617 -5.496 -2.506 8.002 11.26 -2.462 -0.2638 0.9233 3.341 8.354 14.95 -3.781 -4.045 6.463 -7.518
3.58 8.178 8.574 0.3957 1.583 7.914 10.6 0.2198 3.737 3.693 3.517 8.793 13.23 -1.979 -2.902 4.397 -8.178
3.585 4.836 7.43 8.222 6.331 5.452 8.969 3.913 8.398 6.067 3.825 7.738 11.04 -0.04397 -2.33 3.078 -7.123
3.59 2.462 5.804 14.64 11.39 3.473 8.222 7.342 12.22 7.562 4.573 6.243 9.233 1.759 -1.759 2.462 -4.924
3.595 2.286 3.21 16.93 14.95 2.99 8.222 8.31 13.19 6.771 5.1 4.924 6.683 2.066 -1.187 1.451 -3.166
3.6 2.638 -0.4397 14.51 14.64 2.462 7.298 5.936 10.77 3.737 4.221 3.649 2.286 1.143 0.04397 -0.7914 -2.242
3.605 1.231 -4.485 9.277 10.33 0.08793 4.309 2.066 6.595 0.7474 1.715 1.759 -3.21 0.9233 2.638 -3.649 -1.011
3.61 -2.726 -6.683 3.737 4.133 -3.693 0.2198 -1.011 2.462 0 -1.275 -0.6595 -7.43 2.33 5.54 -4.968 1.319
3.615 -6.771 -5.408 -1.055 -2.066 -6.375 -3.034 -2.99 -1.275 0.5716 -3.561 -2.77 -8.969 3.429 6.067 -3.517 3.21
3.62 -8.002 -1.319 -5.144 -6.991 -6.023 -4.265 -4.924 -5.54 -0.04397 -4.529 -3.737 -8.266 1.627 3.034 -0.7474 2.77
3.625 -5.979 2.154 -8.09 -8.969 -3.078 -4.133 -7.738 -10.24 -2.858 -4.617 -4.045 -7.211 -3.122 -1.715 -0.08793 -0.6155
3.63 -3.166 2.022 -8.617 -7.298 -0.2638 -4.089 -10.46 -13.89 -7.035 -4.836 -4.66 -7.474 -8.837 -5.76 -3.078 -5.364
3.635 -1.407 -1.363 -6.111 -3.869 0.4836 -4.397 -10.77 -14.2 -10.38 -5.452 -5.144 -8.881 -12.66 -7.386 -7.035 -9.101
3.64 -0.7035 -4.089 -1.275 -0.9673 -0.3957 -3.561 -6.507 -9.497 -10.68 -5.452 -4.221 -8.969 -11.74 -6.023 -7.65 -9.057
3.645 0.7035 -2.462 3.693 1.495 -0.2198 0.08793 2.682 -0.5716 -6.375 -3.473 -0.9673 -5.056 -5.012 -1.715 -2.946 -4.001
3.65 3.957 2.946 6.331 4.573 2.77 5.848 13.76 9.189 0.7474 0.7474 4.045 2.682 4.748 3.429 4.617 3.957
3.655 7.123 7.562 4.836 7.079 6.683 10.33 20.8 14.9 6.199 5.364 8.486 10.29 12.05 6.067 10.24 10.29
3.66 7.123 6.287 -0.04397 6.375 7.298 9.541 19.08 13.72 6.507 7.606 9.409 12.88 13.28 4.836 10.24 11.87
3.665 1.495 -1.451 -5.364 2.242 2.55 2.638 9.629 6.947 3.078 5.804 5.144 8.661 9.365 1.671 4.748 9.189
3.67 -7.474 -10.73 -7.474 -2.198 -5.144 -6.419 -1.935 -0.6595 -0.3957 1.055 -2.198 -0.04397 3.781 -0.9233 -2.022 4.748
3.675 -13.89 -14.29 -4.88 -4.089 -10.2 -12.05 -9.365 -4.88 -1.231 -3.385 -8.002 -8.398 -0.7474 -1.363 -5.32 0.7474
3.68 -12.57 -8.749 0.6595 -2.682 -8.705 -10.55 -9.849 -4.045 0.5716 -4.573 -8.354 -11.87 -2.682 0.2638 -3.605 -1.539
3.685 -3.605 2.374 6.023 0.9673 -1.143 -3.078 -4.88 0.2198 3.781 -1.891 -3.429 -9.365 -1.935 3.385 0.3078 -1.803
3.69 7.123 11.78 8.09 4.177 7.298 5.232 0.6595 4.045 5.936 2.55 2.858 -3.298 0.2198 5.716 2.418 -0.9673
3.695 13.19 14.03 5.584 3.473 11.43 9.761 2.11 4.133 5.364 5.408 6.111 1.627 1.363 4.66 1.187 -0.7035
3.7 11.87 9.761 0.08793 -1.407 9.805 8.881 -1.275 0.3957 2.594 4.792 4.617 2.814 0.8793 0.6595 -2.066 -1.231
3.705 5.804 4.133 -4.66 -5.848 5.32 4.924 -5.54 -3.605 0.7474 1.671 -0.04397 1.011 0.7474 -2.638 -4.88 -1.187
3.71 0.1759 2.066 -4.792 -4.133 1.847 1.363 -5.584 -3.913 1.935 -1.495 -4.309 -0.9233 2.594 -2.462 -5.276 0.8354
3.715 -1.583 4.573 0.4836 3.649 0.7035 -0.2198 -0.3078 0.3957 5.012 -2.594 -5.188 -1.187 5.496 0.9233 -2.594 4.441
3.72 0.3517 7.914 8.222 12.18 -0.2198 -0.6595 6.859 6.375 6.859 -1.803 -2.726 0.1759 7.342 5.056 1.671 7.782
3.725 2.11 7.474 13.98 16.09 -2.946 -1.671 11.17 9.761 6.419 -0.3078 0.3957 1.759 7.035 7.342 5.188 9.409
3.73 0.7914 1.319 14.29 13.76 -7.123 -3.825 9.98 7.958 4.177 0.3517 1.583 2.374 4.397 6.419 6.199 8.31
3.735 -3.429 -7.87 8.837 6.947 -9.936 -5.979 4.573 2.11 1.231 0.08793 0.7914 1.759 0.4836 2.814 4.792 4.88
3.74 -7.035 -14.95 0.8354 -0.5276 -8.969 -6.331 -0.4836 -3.605 -0.8354 -0.3957 -0.3957 1.055 -1.979 -0.3517 2.11 1.539
3.745 -7.474 -15.96 -4.88 -4.66 -4.397 -4.529 -0.8793 -4.792 -0.7474 -0.3957 -1.055 1.407 -0.3957 0.04397 -0.7035 1.187
3.75 -4.924 -10.73 -5.056 -3.561 0.7914 -1.759 3.781 -0.3517 1.231 -0.04397 -1.319 2.33 4.573 3.737 -2.946 4.001
3.755 -1.583 -2.506 -0.9673 -0.04397 3.473 0.04397 9.013 5.936 2.814 -0.3517 -2.066 1.847 8.354 6.595 -4.265 6.507
3.76 0.2638 4.221 2.506 1.627 2.638 -0.04397 9.277 9.057 1.979 -1.847 -3.561 -1.275 7.167 5.188 -4.836 5.188
3.765 -0.08793 5.848 1.231 0.2638 0.3957 -1.407 2.594 6.243 -0.6595 -3.429 -5.1 -5.716 1.671 0.3957 -5.188 -0.08793
3.77 -1.759 1.891 -5.232 -2.462 -0.5716 -2.682 -7.606 -1.011 -3.298 -3.561 -5.232 -8.354 -4.441 -4.353 -5.012 -6.155
3.775 -3.166 -5.1 -13.32 -4.924 0.04397 -2.99 -15.92 -8.574 -4.924 -1.583 -2.99 -7.035 -7.562 -6.111 -3.166 -9.145
3.78 -3.517 -11.12 -17.76 -6.771 0.7914 -2.506 -18.03 -12 -5.232 1.539 0.8793 -2.242 -6.199 -4.177 0.3517 -7.298
3.785 -3.254 -13.1 -15.3 -7.035 -0.1759 -1.803 -12.97 -9.541 -3.869 4.001 4.001 3.298 -1.539 -0.04397 4.133 -1.891
3.79 -3.254 -10.51 -6.947 -5.012 -2.858 -1.275 -3.737 -2.946 -1.099 4.221 4.485 6.375 2.506 2.682 5.76 2.726
3.795 -3.429 -5.012 1.891 -2.11 -5.188 -0.6595 4.397 3.385 1.011 2.286 2.594 5.364 2.242 1.407 4.573 2.682
3.8 -2.286 0.3517 5.892 -0.6155 -5.452 0.08793 7.298 5.716 0.9233 -0.08793 0.3517 1.495 -2.594 -2.858 1.539 -2.11
3.805 -0.1759 2.77 3.078 -0.9233 -3.298 0.6155 4.221 2.946 -1.143 -1.407 -0.8354 -2.154 -8.178 -6.331 -1.363 -7.958
3.81 1.583 0.9673 -3.825 -1.891 -0.5716 0.04397 -2.462 -3.166 -3.957 -1.231 -1.099 -4.001 -11.08 -6.595 -3.034 -11.08
3.815 1.759 -3.473 -10.82 -3.341 0.8354 -1.935 -9.893 -10.02 -6.903 -0.5276 -1.187 -4.748 -11.12 -5.056 -3.429 -10.95
3.82 0.4397 -7.474 -14.77 -5.76 0.1759 -4.617 -15.56 -14.86 -9.233 -0.5276 -1.803 -6.023 -9.849 -4.221 -3.517 -9.497
3.825 -0.6155 -7.782 -14.77 -7.914 -1.099 -6.331 -17.32 -15.48 -9.409 -1.407 -3.078 -7.914 -8.046 -4.704 -4.265 -7.914
3.83 0 -3.298 -11.21 -7.518 -1.011 -5.892 -14.11 -11.34 -6.331 -2.418 -3.869 -9.013 -5.628 -5.584 -4.924 -6.551
3.835 2.55 3.957 -5.364 -3.913 0.3957 -3.561 -7.167 -3.781 -1.143 -2.638 -3.21 -8.002 -2.902 -5.848 -3.913 -4.748
3.84 4.748 9.497 1.715 1.275 1.583 -1.055 0.8793 4.485 3.869 -2.066 -1.143 -4.88 0 -4.704 -0.8793 -2.242
3.845 3.957 9.145 8.661 6.463 0.7035 -0.1759 7.782 10.95 7.123 -1.407 0.4836 -1.231 3.298 -1.715 2.286 1.319
3.85 -0.8793 2.33 13.5 9.409 -2.198 -1.011 11.96 13.41 7.782 -1.143 0.3078 1.055 5.804 1.935 3.034 4.704
3.855 -6.419 -6.419 13.81 7.914 -4.924 -2.022 12.62 10.95 5.012 -1.187 -1.363 0.8354 5.76 3.957 1.099 5.848
3.86 -8.354 -10.68 9.497 1.979 -4.748 -1.495 10.24 4.792 0.08793 -0.6595 -2.902 -0.7035 2.946 3.649 -1.451 4.529
3.865 -4.573 -6.727 3.649 -3.781 -0.9673 1.275 6.859 -1.407 -3.561 0.8354 -3.21 -1.539 -0.3517 2.594 -2.462 2.286
3.87 2.286 3.298 1.099 -3.869 4.704 4.836 4.704 -4.221 -3.298 2.638 -2.286 -0.6595 -1.803 1.935 -1.451 1.011
3.875 7.738 12.93 3.913 2.594 8.661 6.947 4.265 -2.374 0.1759 3.473 -0.9673 0.8793 -1.187 1.627 0.3517 0.8354
3.88 8.53 16.14 9.673 10.6 8.53 6.639 4.573 2.286 3.869 2.77 0.3078 1.847 0.8793 1.715 1.363 1.187
3.885 5.628 11.91 13.28 14.33 5.1 4.748 4.441 6.551 5.364 1.407 1.451 2.418 3.825 3.166 0.9233 1.979
3.89 2.11 4.309 10.9 11.34 1.715 3.166 3.166 7.386 4.177 0.9673 2.902 3.693 6.375 5.672 0.5276 2.726
3.895 1.231 -0.8354 2.638 2.946 1.099 2.858 0.1759 4.001 0.8354 1.715 4.792 5.628 6.155 6.859 2.022 2.242
3.9 3.078 -1.143 -6.815 -6.507 2.814 2.946 -4.045 -1.891 -2.858 2.11 5.848 6.727 2.242 4.66 4.924 0
3.905 4.485 1.495 -12.18 -11.78 4.133 1.407 -7.606 -7.123 -4.748 0.3957 3.957 5.232 -3.473 -0.3078 6.023 -2.814
3.91 2.902 3.254 -10.64 -10.33 2.33 -2.462 -8.442 -9.057 -4.045 -3.649 -1.495 0.3078 -8.134 -6.023 2.594 -4.573
3.915 -1.143 2.066 -4.397 -5.144 -2.55 -7.342 -6.331 -7.606 -2.594 -7.914 -8.046 -6.243 -9.98 -9.717 -4.177 -4.397
3.92 -4.66 -0.8354 1.847 -1.099 -7.738 -10.51 -2.858 -4.397 -2.066 -9.541 -11.74 -11.26 -8.222 -9.189 -10.33 -2.11
3.925 -5.188 -3.693 5.276 0.3957 -9.585 -10.16 0.2198 -0.9673 -1.539 -7.079 -10.6 -11.65 -3.078 -3.913 -12.05 1.539
3.93 -3.254 -5.54 5.804 1.539 -6.903 -6.947 1.803 2.374 0.6155 -2.154 -5.496 -7.606 3.605 3.517 -8.705 5.056
3.935 -0.9673 -6.683 4.792 3.561 -1.935 -3.254 1.715 5.232 4.133 1.891 0.3517 -1.935 8.837 9.013 -2.77 6.815
3.94 0.5276 -6.903 3.341 5.232 1.935 -0.5716 1.055 7.562 7.035 3.122 4.485 2.77 11.39 10.64 2.374 6.991
3.945 1.583 -4.704 2.022 5.232 3.254 1.495 2.154 9.233 7.694 2.55 6.243 6.199 12.79 10.2 4.968 8.002
3.95 2.99 0.9233 1.275 3.781 3.298 4.529 6.331 10.07 5.76 2.77 7.342 9.849 14.47 9.717 5.848 11.34
3.955 5.012 8.486 1.671 1.671 4.265 8.969 11.96 9.893 1.935 5.012 9.233 14.03 15.65 8.969 7.079 15.56
3.96 6.419 13.54 3.385 0.04397 6.419 12.53 15.61 8.705 -1.539 7.562 11.43 17.02 14.6 6.551 9.101 17.76
3.965 5.1 11.74 5.716 0.5276 7.518 11.83 14.73 7.211 -2.066 7.518 11.17 16.05 10.99 2.682 9.673 15.96
3.97 0.6155 2.946 6.859 3.517 5.276 5.584 9.497 5.628 0.9673 3.649 6.595 10.02 5.672 -1.495 6.639 10.46
3.975 -4.309 -7.474 4.88 6.111 -0.3957 -3.298 2.11 3.385 4.485 -1.759 -0.4836 0.9673 -0.4397 -4.748 0.9233 3.122
3.98 -5.979 -12.4 -0.1319 4.924 -6.199 -9.365 -4.133 0.1759 4.748 -4.66 -5.804 -6.683 -5.848 -5.716 -3.957 -3.21
3.985 -3.341 -8.486 -5.012 0.4836 -7.782 -8.354 -5.979 -3.166 1.319 -2.638 -5.979 -8.486 -8.354 -4.133 -5.188 -5.892
3.99 1.847 1.275 -5.496 -3.473 -3.298 -0.6595 -2.33 -4.792 -3.078 2.946 -1.055 -3.825 -7.738 -1.715 -2.11 -4.88
3.995 6.419 10.82 -0.3517 -4.133 4.704 9.013 4.309 -3.561 -5.628 8.002 5.628 3.561 -5.364 -1.011 2.99 -2.594
4 9.145 15.17 7.474 -1.891 11.48 14.99 10.16 0 -4.529 9.145 10.16 8.925 -2.814 -2.11 6.771 -1.407
4.005 9.673 14.07 13.23 1.495 13.19 14.68 12.71 4.265 0.04397 6.507 10.33 9.761 0 -2.33 6.903 -1.627
4.01 8.705 10.2 13.5 4.397 9.805 9.717 11.56 6.991 5.452 2.902 7.123 7.035 2.726 -0.04397 3.605 -2.814
4.015 6.683 6.727 8.31 4.792 4.045 3.869 7.43 6.375 8.09 0.8793 3.254 2.902 3.693 3.034 -0.7035 -4.968
4.02 3.341 4.617 0.9673 2.11 -0.9233 -0.04397 1.539 2.638 6.023 0.3078 0.4397 -0.7474 1.495 4.133 -4.089 -8.09
4.025 -1.319 2.814 -4.529 -1.407 -3.869 -2.022 -4.177 -2.11 1.715 -0.8354 -1.891 -3.385 -2.902 1.979 -6.243 -11.21
4.03 -6.243 0 -6.331 -2.858 -5.012 -3.561 -8.398 -5.54 -1.539 -3.913 -4.88 -5.452 -7.474 -2.638 -7.782 -13.28
4.035 -9.497 -3.781 -5.936 -2.682 -5.672 -5.892 -10.95 -7.079 -2.77 -7.958 -8.222 -7.211 -10.6 -7.958 -8.266 -13.76
4.04 -9.673 -7.694 -6.111 -3.737 -6.419 -8.486 -12.44 -7.782 -3.254 -10.46 -10.11 -8.266 -11.21 -11.21 -6.991 -12.18
4.045 -7.474 -10.86 -7.914 -6.991 -6.815 -9.849 -12.84 -8.442 -3.957 -9.409 -9.145 -7.123 -8.266 -10.07 -3.693 -7.782
4.05 -4.836 -12.62 -9.805 -10.11 -5.936 -8.661 -11.78 -8.969 -4.66 -5.232 -5.452 -3.341 -2.462 -4.792 0.7035 -1.407
4.055 -2.814 -12.05 -9.761 -10.82 -3.869 -5.144 -9.453 -8.574 -4.836 -0.4397 -0.6155 1.539 3.341 1.363 4.924 4.529
4.06 -0.8793 -8.31 -7.474 -8.705 -1.319 -0.7035 -6.683 -6.727 -3.869 2.77 3.385 5.32 6.859 5.716 7.474 7.914
4.065 1.143 -2.11 -4.573 -4.66 0.6595 2.814 -3.561 -3.649 -1.407 4.001 5.364 6.551 7.958 7.167 7.43 8.442
4.07 2.99 3.869 -3.473 -0.7035 1.539 4.221 -0.1319 -0.7035 1.363 4.221 5.452 5.32 7.123 5.848 5.496 6.947
4.075 3.341 6.859 -5.012 0.5276 1.275 3.561 3.166 0.6155 2.506 4.397 4.836 2.638 4.529 2.506 3.385 4.221
4.08 2.198 5.848 -7.255 -1.451 0.5716 2.022 5.936 0.3957 1.407 4.485 4.441 0.1759 1.143 -0.9233 2.418 1.319
4.085 -0.2638 2.77 -6.199 -3.078 0.3517 1.143 8.266 0.5276 0.3957 3.781 3.913 -0.8793 -1.099 -1.715 2.418 -0.4836
4.09 -2.462 0.3517 0.2638 0.2638 1.011 1.539 10.2 2.726 1.979 1.891 2.506 -0.2198 -1.187 0.5716 2.462 -1.011
4.095 -3.957 -0.2198 10.2 8.046 1.803 2.594 10.82 6.419 5.144 -0.8793 0.1319 0.6155 -0.4836 3.166 1.759 -0.9673
4.1 -4.485 -0.4397 17.89 14.42 1.275 2.594 8.837 9.189 6.815 -3.517 -2.462 0.1759 -0.1319 3.429 0.3517 -0.4397
4.105 -4.924 -2.594 18.99 14.6 -1.187 0.6155 5.144 9.057 5.584 -5.1 -4.397 -1.495 0.3957 1.583 -1.803 1.539
4.11 -5.452 -6.551 13.54 8.837 -4.704 -2.99 1.891 6.287 2.726 -5.144 -5.276 -3.254 2.242 0.08793 -4.045 5.54
4.115 -4.836 -8.969 5.408 0.9233 -7.211 -6.111 0.8793 2.682 0.3078 -3.913 -4.836 -4.045 4.968 0.8354 -5.628 9.936
4.12 -2.286 -6.859 -0.4397 -4.573 -7.342 -7.123 1.935 0.1319 -0.5716 -2.286 -3.693 -4.001 7.255 4.045 -6.199 12.18
4.125 0.7914 -1.187 -2.154 -4.66 -5.408 -6.375 3.605 -0.7035 0.1759 -1.275 -3.298 -4.221 8.046 7.738 -6.771 11.04
4.13 1.495 3.122 -1.451 -0.04397 -3.605 -5.936 3.781 -0.7035 0.9673 -1.803 -4.88 -5.892 6.067 8.31 -7.914 6.639
4.135 -1.583 1.451 -1.979 4.221 -3.561 -7.211 1.099 -1.231 0.04397 -3.693 -7.65 -9.101 1.231 3.825 -9.013 0.3957
4.14 -6.067 -5.452 -5.364 3.737 -4.617 -8.749 -4.089 -2.594 -2.286 -5.276 -8.969 -11.26 -4.66 -3.298 -8.354 -5.408
4.145 -6.859 -11.21 -9.673 -0.7035 -3.737 -6.947 -9.013 -3.561 -3.517 -4.089 -6.331 -8.749 -8.134 -7.958 -4.748 -8.925
4.15 -1.495 -9.057 -11.48 -4.88 1.671 0.6595 -11.43 -3.737 -2.374 1.011 0.4397 -0.5716 -8.398 -7.87 1.495 -10.42
4.155 8.793 2.286 -9.936 -6.507 10.46 12.31 -12.05 -4.485 -1.451 8.134 8.881 9.805 -8.178 -6.155 8.31 -12.13
4.16 18.11 16.71 -7.342 -7.342 17.76 22.16 -12.97 -7.562 -4.397 13.06 14.64 16.44 -10.29 -7.386 12.35 -14.99
4.165 20.31 24.97 -6.375 -8.881 18.86 24.18 -14.51 -12.31 -10.99 12.57 14.2 15.48 -13.98 -12.09 11.04 -16.58
4.17 13.72 21.76 -7.606 -10.73 12.88 17.19 -14.47 -15.65 -17.19 7.079 8.046 8.266 -16.05 -16.75 5.276 -13.98
4.175 2.462 9.409 -9.409 -11.78 3.693 5.672 -10.51 -14.55 -18.91 0.4397 0.7035 0.04397 -14.2 -17.23 -0.8354 -7.035
4.18 -6.771 -4.485 -10.33 -11.78 -3.561 -3.825 -3.298 -8.881 -15.3 -3.122 -3.166 -4.133 -8.881 -12.18 -3.473 0.9673
4.185 -10.2 -13.76 -10.33 -10.42 -6.243 -7.914 3.649 -1.847 -8.881 -2.418 -2.858 -2.902 -2.814 -3.957 -2.154 5.848
4.19 -8.969 -16.53 -10.51 -7.914 -5.804 -7.958 5.979 2.374 -3.561 -0.08793 -1.539 0.08793 0.3957 1.979 0.08793 4.792
4.195 -6.331 -14.68 -11.39 -5.628 -5.54 -7.87 1.319 1.187 -1.847 0.1319 -2.726 0.08793 -1.627 2.242 0.1319 -1.671
4.2 -4.66 -10.68 -11.12 -4.485 -6.991 -9.321 -7.914 -3.561 -2.858 -2.55 -6.331 -4.265 -6.771 -1.407 -2.55 -9.233
4.205 -3.693 -5.408 -6.683 -2.506 -8.266 -10.55 -15.52 -7.65 -2.814 -5.54 -9.233 -9.409 -9.936 -3.341 -5.496 -12.53
4.21 -2.286 0.4836 2.682 2.33 -6.507 -8.178 -16.31 -7.87 0.4397 -5.54 -7.958 -10.55 -8.178 -0.7035 -5.54 -9.805
4.215 -0.08793 5.716 13.19 8.486 -1.275 -1.803 -10.33 -4.529 4.836 -2.11 -2.11 -6.507 -3.21 4.001 -1.319 -4.001
4.22 2.11 8.31 18.99 11.74 4.089 5.32 -2.462 -0.2638 6.991 1.627 4.748 -0.3957 1.539 6.595 4.617 0.6595
4.225 2.726 7.518 17.37 10.42 6.287 9.101 2.902 3.341 6.727 2.506 8.09 4.001 4.704 5.936 8.398 2.77
4.23 1.847 5.276 10.86 6.859 4.485 8.046 4.485 6.375 6.683 0.2638 6.375 5.1 7.079 4.485 8.046 3.341
4.235 1.231 4.836 4.617 4.001 1.099 4.836 3.517 9.409 8.574 -2.154 2.726 4.66 9.013 4.748 5.716 3.913
4.24 2.638 7.87 2.286 2.77 -0.6595 2.858 1.891 11.7 11.08 -1.803 1.143 5.012 10.16 7.211 4.748 4.792
4.245 5.1 12.27 3.561 3.254 0.08793 3.122 1.187 12.05 11.91 1.231 2.198 6.771 9.805 9.936 5.716 5.584
4.25 6.067 13.67 5.76 4.66 1.363 3.385 1.715 9.717 9.717 3.693 2.902 7.694 7.255 9.629 6.463 5.496
4.255 3.781 9.629 6.595 5.364 0.8793 1.319 3.166 5.892 5.1 2.55 0.6595 5.628 2.946 4.704 4.66 4.045
4.26 -0.2638 2.11 6.419 3.869 -1.627 -2.638 5.584 2.682 0.3517 -1.583 -3.781 1.407 -1.187 -2.33 0.8354 2.418
4.265 -2.902 -4.309 6.991 1.319 -3.693 -5.452 9.409 1.891 -1.539 -4.836 -6.551 -1.231 -2.066 -6.595 -2.198 2.506
4.27 -2.462 -6.023 8.793 0.08793 -2.814 -4.309 14.03 3.341 -0.3517 -3.825 -4.66 0.6595 0.2638 -5.804 -1.671 4.397
4.275 0.08793 -3.605 9.936 0.3957 0.5716 0.1319 16.93 4.88 1.187 0.7914 1.099 5.32 3.078 -2.11 2.286 6.111
4.28 1.935 -0.8354 8.178 0.8354 3.298 3.649 15.7 4.968 1.187 4.529 6.243 7.87 3.781 1.275 5.848 5.76
4.285 0.4397 -1.495 3.605 1.275 2.198 2.462 10.77 4.265 0.9673 3.429 5.716 4.529 3.254 3.649 4.485 4.001
4.29 -4.573 -6.419 -1.495 2.506 -2.726 -4.001 4.397 4.177 2.902 -2.33 -1.099 -3.957 3.429 5.232 -2.594 2.506
4.295 -10.38 -13.01 -5.716 3.429 -8.793 -12.27 -1.759 4.133 6.243 -8.881 -9.936 -13.37 4.221 5.892 -11.3 1.891
4.3 -13.63 -18.03 -9.453 1.627 -12.49 -17.85 -7.782 1.803 7.342 -11.74 -15.08 -18.95 3.869 4.968 -16.22 1.583
4.305 -13.1 -19.52 -13.54 -2.638 -11.91 -18.42 -13.59 -4.001 3.825 -9.365 -14.33 -18.95 1.627 2.594 -15.26 1.407
4.31 -10.2 -17.94 -16.71 -6.023 -7.562 -14.51 -17.54 -10.99 -2.506 -3.825 -9.321 -14.77 -1.627 -0.04397 -10.38 1.715
4.315 -6.419 -13.98 -15.96 -5.892 -1.407 -7.87 -16.97 -14.51 -7.694 1.715 -3.21 -9.321 -3.869 -2.022 -4.88 2.77
4.32 -2.286 -8.134 -9.101 -2.33 4.441 -0.2198 -10.24 -11.12 -7.826 5.364 2.286 -4.089 -2.682 -2.066 -0.8793 4.88
4.325 2.286 -1.055 1.847 2.55 8.793 7.43 1.275 -1.715 -2.462 7.298 6.595 1.275 2.55 -0.04397 1.583 7.606
4.33 6.595 5.54 11.39 6.199 10.95 13.5 12.84 8.354 4.88 8.002 9.365 6.639 9.277 2.066 3.166 9.145
4.335 9.761 9.453 13.89 6.243 10.86 16.22 18.55 13.01 8.661 7.562 10.42 10.24 12.31 1.627 4.441 7.386
4.34 11.08 9.453 8.793 2.902 9.013 14.73 16.14 10.33 6.815 5.848 9.453 10.16 9.805 -1.143 4.836 2.418
4.345 10.9 6.859 1.583 0.2638 7.123 10.24 9.365 4.177 2.902 3.561 6.815 6.771 4.66 -2.858 3.429 -2.462
4.35 9.936 4.353 -1.319 1.979 6.375 5.54 4.66 0.5716 1.759 1.891 3.693 2.682 1.011 -1.099 0.3957 -4.704
4.355 9.145 4.221 1.407 6.419 6.155 2.682 4.66 1.319 3.605 1.187 1.275 0.04397 -0.4397 2.198 -2.814 -4.836
4.36 8.09 5.979 5.1 7.826 4.177 1.187 6.683 3.605 4.66 0.08793 -0.7474 -1.231 -1.671 3.254 -5.232 -5.408
4.365 4.836 6.683 4.133 3.298 -1.143 -0.9673 6.111 3.385 1.671 -3.034 -3.957 -2.726 -4.177 0.4397 -7.167 -7.826
4.37 -1.583 3.825 -2.55 -4.353 -8.837 -4.968 0.8793 -0.4397 -4.573 -7.738 -8.442 -5.364 -7.342 -4.66 -8.354 -10.68
4.375 -9.673 -1.935 -10.77 -10.51 -14.95 -9.409 -6.903 -5.672 -10.55 -11.48 -11.7 -8.002 -9.497 -8.574 -7.562 -11.43
4.38 -15.04 -7.035 -15.08 -12.49 -15.96 -11.52 -13.01 -8.617 -12.93 -11.12 -10.38 -8.002 -8.574 -8.617 -3.385 -8.134
4.385 -14.77 -8.002 -13.5 -10.68 -11.21 -9.893 -14.16 -8.134 -11.12 -6.155 -4.441 -4.089 -4.353 -4.573 2.77 -1.275
4.39 -9.409 -4.617 -8.486 -7.518 -4.089 -5.804 -10.95 -6.199 -7.87 0.3517 2.418 1.671 0.3517 0.1319 7.562 5.584
4.395 -2.198 0.3078 -4.001 -6.287 0.7035 -2.418 -7.035 -5.848 -7.035 4.353 5.892 5.188 1.891 1.671 7.958 8.222
4.4 2.99 3.605 -1.539 -7.474 1.231 -1.363 -4.88 -7.474 -8.969 4.265 4.617 4.353 -0.2638 -0.4397 4.133 5.76
4.405 4.836 4.221 0.8354 -7.079 -0.2638 -1.319 -3.605 -8.09 -9.233 2.242 1.319 1.495 -2.462 -2.33 -0.5276 1.847
4.41 4.397 3.913 5.1 -1.407 0.04397 0.5276 -0.3517 -4.397 -3.693 1.891 0.2198 0.8793 -1.055 -1.055 -1.803 0.3078
4.415 4.045 5.188 9.936 7.914 3.649 5.276 5.364 2.814 6.375 4.353 3.078 4.089 3.034 2.55 1.495 1.319
4.42 5.452 8.354 11.7 14.68 8.09 10.6 10.51 9.321 14.73 6.991 7.386 8.617 6.155 5.012 6.111 1.891
4.425 7.562 11.04 8.749 15.08 9.497 12.75 11.87 11.04 16.36 6.199 8.266 9.805 5.628 4.617 6.551 -0.3957
4.43 8.002 10.2 3.605 10.82 6.419 9.849 8.925 7.386 11.34 1.319 3.517 5.584 1.891 2.286 0.4397 -5.408
4.435 5.892 5.496 0.3517 5.628 1.143 3.517 3.649 1.539 3.561 -4.66 -3.957 -1.979 -2.77 -0.1759 -8.53 -10.64
4.44 2.55 -0.4836 0.5716 1.671 -2.506 -2.594 -1.099 -2.77 -2.286 -7.694 -8.881 -8.266 -5.716 -0.9673 -14.16 -12.71
4.445 -0.5276 -4.573 2.286 -0.6595 -2.418 -5.804 -3.605 -3.781 -3.913 -6.023 -8.354 -9.673 -5.276 -0.1319 -12.93 -9.673
4.45 -2.726 -5.188 2.374 -2.022 0.2198 -5.936 -3.781 -2.33 -2.506 -1.407 -4.045 -6.507 -2.55 0.9673 -6.375 -2.902
4.455 -4.045 -3.122 0.2198 -3.473 2.594 -4.617 -2.682 -0.5716 -1.671 2.418 0.4836 -2.066 -0.08793 0.5276 1.055 3.913
4.46 -4.045 -0.2198 -1.275 -4.617 2.858 -2.946 -0.8354 0.8793 -2.638 3.781 2.946 1.099 1.407 -0.5276 5.672 8.398
4.465 -2.99 2.066 1.275 -2.462 2.066 -0.8354 2.858 3.605 -2.858 3.649 3.517 3.166 3.869 0.7035 6.683 10.99
4.47 -0.9673 3.429 8.31 4.704 2.198 2.242 8.837 8.354 0.5716 3.913 3.693 5.672 8.134 5.32 5.979 12.66
4.475 0.9673 4.221 14.95 13.37 3.781 5.716 14.42 13.32 6.551 4.836 4.309 8.617 11.74 9.717 5.936 12.79
4.48 2.462 4.968 15.61 16.84 5.012 7.914 15.52 14.86 10.33 4.704 4.573 10.11 11.39 9.585 6.815 10.2
4.485 2.814 5.672 9.673 12.53 4.309 7.958 10.82 11.3 8.749 2.462 3.429 9.057 6.815 4.529 7.43 5.144
4.49 2.638 6.243 1.847 4.397 2.11 6.727 3.298 4.748 3.254 -0.7474 1.583 6.639 1.143 -2.066 6.815 -0.1319
4.495 3.254 6.771 -2.33 -2.242 0.7474 6.507 -2.506 -0.8793 -2.374 -2.242 1.495 5.364 -2.374 -5.936 6.067 -3.385
4.5 5.012 6.727 -1.891 -4.704 1.759 8.266 -3.737 -2.858 -4.617 -0.3078 4.66 6.859 -2.022 -4.66 6.595 -3.21
4.505 6.771 4.704 -0.5276 -3.254 4.704 10.95 -1.275 -1.803 -2.594 4.089 9.585 10.29 1.319 0.7035 8.178 0
4.51 6.155 -0.1319 -2.638 -0.4397 6.903 11.87 1.363 -0.9673 1.011 7.518 12.27 12.57 4.001 5.716 9.189 3.605
4.515 2.374 -7.123 -8.881 -0.1319 5.936 9.189 0.4836 -3.385 1.627 7.255 10.24 10.42 2.286 5.716 8.222 4.397
4.52 -2.726 -13.37 -15.3 -4.089 1.847 3.21 -4.748 -9.321 -2.858 3.385 4.265 3.429 -4.221 0.3957 5.012 1.055
4.525 -6.419 -16.22 -16.97 -9.936 -2.946 -4.001 -11.52 -15.43 -9.629 -1.407 -2.77 -5.848 -11.52 -6.023 -0.1759 -4.441
4.53 -7.738 -15.12 -12.88 -13.45 -5.76 -10.16 -16.31 -18.33 -13.89 -4.353 -8.178 -13.94 -15.74 -9.277 -6.331 -9.189
4.535 -7.035 -11.74 -7.386 -13.89 -6.199 -14.77 -18.25 -17.63 -14.07 -4.792 -11.08 -19.39 -16.31 -9.321 -11.83 -11.74
4.54 -5.628 -8.705 -5.848 -13.41 -6.067 -17.76 -19.04 -15.56 -12.18 -4.265 -12 -22.03 -14.99 -8.661 -15.08 -12.09
4.545 -4.748 -7.474 -9.541 -13.01 -6.991 -18.86 -19.43 -14.16 -10.2 -4.441 -12.13 -21.94 -12.88 -8.705 -15.34 -10.29
4.55 -4.748 -7.255 -14.07 -11.17 -8.793 -17.1 -18.07 -12.75 -8.222 -5.276 -11.43 -18.64 -9.497 -8.881 -12.53 -6.683
4.555 -4.573 -5.936 -14.11 -7.211 -10.07 -12.09 -13.01 -9.541 -5.496 -5.76 -9.057 -12.4 -4.836 -7.606 -7.474 -2.506
4.56 -3.429 -2.198 -7.782 -2.418 -9.233 -4.924 -4.353 -3.21 -1.363 -4.968 -4.704 -4.66 0.7914 -3.517 -2.022 0.9673
4.565 -1.671 2.946 2.198 1.935 -6.111 1.803 5.892 5.452 4.177 -3.078 -0.1319 2.242 6.683 3.122 1.715 3.517
4.57 -0.1759 7.386 11.39 5.452 -1.759 5.76 14.47 13.5 9.585 -1.319 2.55 6.595 11.21 9.365 2.858 5.1
4.575 1.231 9.497 16.75 7.738 2.066 6.331 18.47 17.85 12.09 -0.7474 2.374 7.694 12.18 11.3 2.154 5.1
4.58 2.726 9.101 18.25 8.486 4.045 4.617 17.59 17.5 10.6 -1.671 0.4836 6.199 9.233 7.958 0.8354 3.517
4.585 3.693 6.771 17.59 9.057 3.957 2.638 14.25 14.16 7.123 -3.078 -1.407 3.913 4.792 2.462 -0.9233 1.055
4.59 3.078 3.21 15.78 10.99 2.594 1.627 10.95 10.16 4.529 -3.429 -2.022 2.154 1.143 -1.187 -2.99 -1.275
4.595 0.7035 -0.3957 12 12.71 1.143 1.759 7.782 6.419 3.561 -1.935 -0.8354 1.363 -1.363 -1.935 -4.221 -3.341
4.6 -1.935 -2.726 5.408 11.48 0.4836 2.638 2.814 2.374 2.902 0.9233 2.022 1.627 -3.473 -0.7914 -2.726 -4.485
4.605 -2.99 -2.902 -2.198 7.255 1.011 3.473 -4.221 -1.935 2.286 4.045 5.012 3.298 -4.441 1.143 1.715 -3.254
4.61 -2.462 -1.583 -7.474 3.122 1.935 3.473 -11.26 -5.144 2.682 5.628 6.463 5.76 -3.122 3.254 7.079 0.6595
4.615 -1.759 -0.4397 -8.046 0.8793 1.979 1.979 -14.99 -5.804 4.529 4.748 5.76 7.474 0.04397 4.792 10.33 5.408
4.62 -2.198 -0.8354 -4.836 -0.4836 0.3517 -0.3957 -13.67 -3.693 6.595 1.891 3.869 6.903 3.781 5.76 9.717 8.31
4.625 -3.957 -2.638 -1.099 -2.11 -1.671 -1.935 -7.386 -0.3957 7.474 -0.5276 2.638 4.792 6.991 6.683 6.463 8.222
4.63 -5.012 -3.649 0.7474 -3.957 -1.715 -0.4397 1.539 1.979 5.936 -0.3517 3.649 3.254 8.661 7.43 3.869 5.804
4.635 -2.814 -1.451 0.1759 -5.892 1.187 4.309 9.717 2.242 1.671 2.77 6.815 3.649 7.87 6.507 4.309 2.242
4.64 2.286 3.561 -1.451 -7.782 5.408 9.717 14.2 0.7914 -3.781 6.507 9.805 5.188 4.924 3.649 6.463 -1.187
4.645 6.595 8.002 -2.506 -8.266 7.562 11.39 14.29 -0.3957 -7.211 7.43 9.145 5.276 1.759 0.04397 6.023 -3.385
4.65 5.892 7.914 -3.034 -6.243 5.276 6.595 10.64 -0.3517 -6.551 3.825 2.99 2.022 -0.5276 -3.429 0.3078 -4.221
4.655 0.08793 2.77 -4.397 -3.649 -0.5276 -3.078 3.825 -0.3957 -3.957 -2.374 -5.979 -4.309 -3.078 -7.035 -8.134 -4.748
4.66 -6.243 -3.957 -7.606 -3.517 -6.287 -12.49 -5.188 -2.638 -2.99 -7.606 -12.88 -10.82 -6.551 -10.86 -13.54 -5.496
4.665 -8.178 -8.09 -11.26 -5.76 -8.574 -16.71 -13.89 -6.947 -4.485 -8.925 -14.55 -13.98 -9.673 -12.97 -12.84 -5.54
4.67 -5.1 -8.53 -12.4 -7.211 -7.123 -14.9 -18.51 -10.46 -6.155 -6.683 -11.96 -13.1 -10.11 -11.61 -8.134 -4.089
4.675 -1.055 -7.518 -9.585 -5.716 -4.88 -10.46 -16.97 -10.11 -5.584 -3.957 -8.617 -10.42 -7.694 -7.079 -4.353 -2.154
4.68 -0.3517 -8.266 -4.221 -2.198 -4.748 -7.65 -10.51 -5.364 -2.814 -3.385 -7.255 -8.486 -3.957 -1.803 -4.529 -0.9673
4.685 -4.045 -10.86 1.143 1.803 -6.507 -7.562 -2.33 1.275 0.3078 -4.748 -7.43 -7.386 -0.7474 1.891 -7.123 -0.6155
4.69 -8.354 -11.78 5.1 5.672 -7.386 -7.826 4.309 6.155 1.891 -5.364 -6.639 -5.232 0.5716 2.374 -7.694 -0.3957
4.695 -7.914 -7.255 7.782 8.31 -4.836 -5.144 7.298 6.903 0.6595 -3.078 -2.814 -1.451 -0.6595 -0.3517 -3.429 -0.1319
4.7 -1.231 2.726 10.33 8.925 0.2198 0.5716 6.991 4.836 -1.847 1.451 3.122 2.374 -2.594 -3.649 3.429 0.4397
4.705 7.738 13.41 13.1 8.617 4.792 6.463 5.979 3.693 -2.022 5.672 7.782 4.353 -1.847 -3.737 8.134 2.066
4.71 13.28 18.99 14.55 8.749 6.551 9.277 6.375 6.331 2.286 7.43 9.013 4.704 3.561 0.9673 8.53 5.144
4.715 13.01 17.5 12.22 8.486 6.067 9.013 7.694 11.7 8.705 7.474 8.486 6.243 11.65 7.958 8.134 9.365
4.72 9.849 12.05 5.496 5.76 6.287 8.398 8.046 15.92 12.75 7.87 9.805 11.65 18.69 13.67 11.87 13.63
4.725 7.738 7.035 -2.814 1.055 8.969 10.2 6.683 16.36 12.66 9.98 14.07 20.36 22.03 16.58 19.87 17.19
4.73 7.562 4.529 -8.178 -2.418 12.31 13.67 5.1 13.01 10.29 12.22 18.03 27.08 21.15 17.1 26.16 18.42
4.735 7.386 3.166 -8.09 -2.858 12.44 15.26 4.573 8.09 7.782 11.52 16.88 25.41 15.92 15.21 23.92 15.39
4.74 4.836 0.3957 -4.045 -1.715 6.991 11.65 4.617 3.21 5.188 6.287 8.969 13.45 7.386 10.77 11.7 7.826
4.745 -0.1759 -4.177 0.1759 -0.7474 -2.11 3.254 3.781 -1.319 1.495 -1.451 -2.594 -3.122 -1.935 4.353 -4.353 -1.099
4.75 -5.276 -8.31 2.022 -0.6155 -9.717 -5.496 1.275 -5.672 -3.869 -7.562 -11.74 -15.39 -9.365 -2.638 -15.52 -7.738
4.755 -7.386 -8.925 1.715 -1.495 -11.74 -10.07 -2.726 -9.497 -9.936 -9.189 -13.85 -18.16 -13.67 -8.749 -16.84 -10.24
4.76 -5.804 -5.144 1.627 -2.902 -8.398 -9.013 -5.979 -11.17 -13.89 -6.771 -9.497 -13.15 -14.2 -11.7 -11.12 -9.365
4.765 -2.902 0.9233 4.045 -2.682 -3.429 -4.88 -5.672 -8.617 -12.09 -3.869 -3.869 -6.595 -10.82 -9.717 -5.628 -6.859
4.77 -1.055 6.111 8.134 0.7474 -0.7035 -1.363 -0.8354 -2.066 -4.309 -3.21 -1.847 -3.166 -4.836 -4.133 -4.792 -4.617
4.775 0.08793 9.057 10.2 4.968 -1.099 0.08793 5.408 4.88 4.309 -4.748 -3.737 -3.385 0.08793 0.3078 -6.727 -4.045
4.78 2.55 10.55 6.991 5.76 -2.286 0.6155 8.486 7.826 7.43 -5.979 -5.496 -3.913 1.055 0.1319 -6.331 -5.012
4.785 6.947 11.65 -0.6595 1.935 -1.275 2.594 6.463 4.968 3.737 -4.485 -3.649 -1.715 -1.231 -3.781 -1.671 -6.067
4.79 10.99 11.74 -8.134 -3.078 2.55 6.067 1.495 -1.055 -2.55 -0.4836 1.539 2.55 -3.913 -7.562 4.221 -6.067
4.795 11.43 9.057 -10.64 -5.804 6.947 8.442 -3.078 -6.375 -6.287 3.341 6.727 5.672 -5.012 -8.31 6.771 -5.276
4.8 7.035 2.55 -7.211 -5.188 8.31 6.683 -5.452 -8.222 -5.628 4.177 8.046 4.617 -4.045 -5.672 4.265 -4.001
4.805 -0.08793 -6.199 -1.055 -2.374 4.968 0.5276 -5.628 -6.815 -2.33 1.495 4.529 0.5716 -1.319 -1.187 -0.7474 -1.935
4.81 -6.155 -13.32 3.166 0.7035 -1.099 -7.167 -4.924 -4.089 0.04397 -2.286 -1.407 -2.902 1.715 2.286 -4.089 0.9673
4.815 -7.562 -14.68 3.078 1.451 -6.243 -11.96 -4.485 -2.066 -0.9673 -4.441 -5.716 -3.298 3.21 2.726 -3.298 3.517
4.82 -4.221 -8.925 -0.04397 -1.539 -7.298 -11.3 -4.441 -1.275 -4.441 -3.825 -6.023 -1.187 2.638 0.7035 -0.04397 4.265
4.825 0.8793 0.6595 -2.77 -6.243 -4.133 -6.507 -3.254 -0.7474 -6.375 -1.627 -3.561 0.8354 1.539 -0.7914 1.583 3.473
4.83 3.781 8.09 -2.858 -8.837 0.9233 -1.143 -0.5276 -0.08793 -4.265 -0.04397 -1.495 0.8354 1.451 -0.1759 -0.3957 2.462
4.835 3.078 8.969 -1.627 -8.749 4.529 1.231 1.935 -0.4836 -0.6595 -0.1759 -1.671 -1.451 1.231 0.6595 -4.573 1.847
4.84 -0.08793 3.078 -2.594 -8.486 4.441 -0.08793 1.583 -3.385 -0.3517 -1.319 -3.166 -4.748 -1.143 -0.7474 -7.65 1.187
4.845 -3.341 -5.232 -6.859 -9.057 1.231 -2.946 -1.715 -8.222 -4.968 -1.891 -4.177 -7.255 -6.023 -4.924 -8.134 -0.1319
4.85 -4.924 -10.73 -11.78 -8.925 -2.55 -4.836 -5.276 -12.31 -11.43 -0.8793 -3.517 -8.266 -11.91 -10.11 -7.211 -3.166
4.855 -4.748 -10.55 -13.59 -6.903 -4.748 -4.792 -6.815 -13.15 -15.04 1.011 -1.803 -8.574 -16.8 -13.98 -6.287 -8.31
4.86 -3.605 -6.111 -10.46 -3.957 -4.704 -3.781 -6.463 -10.68 -13.28 1.979 -0.4397 -8.925 -18.86 -14.82 -5.804 -13.89
4.865 -2.902 -2.066 -4.441 -1.143 -3.298 -3.122 -6.023 -6.683 -6.419 1.143 -0.6595 -9.013 -16.44 -11.65 -5.276 -16.66
4.87 -3.341 -1.759 0.3957 1.011 -1.099 -2.858 -6.595 -3.341 2.33 -0.2638 -1.803 -7.43 -9.761 -5.848 -3.781 -14.51
4.875 -3.869 -4.485 1.407 1.979 1.671 -1.715 -7.914 -1.495 8.354 -0.04397 -1.759 -3.693 -1.803 -0.7035 -0.7914 -8.53
4.88 -2.726 -6.331 -0.5276 1.539 4.968 1.759 -7.694 -0.1759 9.321 3.078 1.187 1.275 4.353 1.891 3.078 -1.715
4.885 0.6155 -3.737 -1.539 1.759 8.31 6.815 -3.298 2.682 7.123 8.178 6.199 6.375 8.222 2.77 6.155 4.045
4.89 5.012 2.946 1.407 4.704 10.42 11.21 5.496 7.606 5.672 12.22 10.24 10.46 10.77 3.957 7.518 8.31
4.895 8.002 9.893 7.298 9.277 9.893 12.71 14.99 12.79 6.507 12.49 10.9 12.71 12.57 6.199 7.255 10.9
4.9 8.178 13.15 12.31 12 6.639 10.82 20.14 15.43 8.31 8.486 8.09 12.79 13.28 8.969 5.979 11.78
4.905 5.188 11.26 13.67 11.87 2.506 7.342 18.82 14.29 9.673 2.418 3.781 11.21 12.75 11.39 3.781 10.95
4.91 0.7914 6.463 12.13 11.17 -0.08793 4.617 13.23 10.51 9.365 -2.418 0.08793 8.705 10.68 12 0.7474 8.398
4.915 -2.638 2.682 10.55 11.34 -0.3957 3.429 6.727 6.155 6.727 -4.529 -1.935 5.584 6.331 9.277 -2.242 3.869
4.92 -3.166 2.154 10.51 11.39 0.5716 2.902 1.715 2.594 2.33 -4.397 -2.462 2.33 0.3078 3.869 -4.089 -1.539
4.925 -0.7035 4.177 11.12 10.11 0.9673 1.935 -1.187 0.8793 -1.055 -3.957 -2.77 -0.1759 -4.441 -0.5276 -4.353 -5.364
4.93 2.374 6.023 10.2 7.518 0 0.2198 -1.891 0.9233 -0.7035 -4.221 -3.649 -1.275 -4.968 -1.055 -3.341 -5.452
4.935 3.957 5.584 6.375 4.177 -1.671 -1.275 -1.407 2.154 3.166 -4.924 -4.529 -1.143 -1.671 1.979 -1.451 -2.506
4.94 3.429 2.726 1.143 0.7914 -2.814 -1.803 -0.6155 3.473 7.518 -5.144 -4.397 -0.7474 2.506 5.628 0.5716 0.9233
4.945 1.143 -1.319 -2.506 -1.143 -2.638 -1.671 0 3.913 9.277 -4.133 -3.21 -1.099 4.836 7.035 2.022 2.99
4.95 -2.11 -4.792 -2.638 -0.6155 -1.539 -1.891 0.1319 2.506 7.035 -2.242 -2.066 -2.55 4.309 5.144 2.11 3.166
4.955 -4.66 -6.375 -0.9233 0.1319 -0.8354 -3.298 -1.055 -0.9233 1.539 -0.5276 -1.627 -4.88 0.9673 0.8354 1.143 1.583
4.96 -5.54 -5.628 -0.8354 -2.022 -1.715 -5.628 -3.781 -5.408 -4.748 0 -1.803 -7.474 -2.858 -3.078 -0.3517 -0.4836
4.965 -5.012 -3.693 -3.869 -6.595 -4.265 -7.87 -6.375 -8.398 -7.914 -0.6595 -2.154 -9.277 -4.045 -3.473 -1.759 -1.055
4.97 -4.924 -2.682 -7.65 -9.541 -7.694 -9.277 -6.287 -7.474 -5.936 -2.242 -2.77 -9.277 -1.275 -0.1319 -2.902 0.4836
4.975 -6.771 -4.001 -8.969 -8.31 -10.46 -9.497 -3.21 -2.99 -0.8354 -3.957 -3.341 -7.518 3.21 3.429 -3.078 2.946
4.98 -9.849 -7.518 -6.903 -4.397 -11.12 -8.661 0.7474 2.154 2.99 -5.012 -3.122 -4.485 6.111 4.309 -1.759 4.748
4.985 -12.4 -11.43 -3.473 -0.8354 -8.661 -6.507 3.298 4.792 3.429 -4.617 -2.066 -1.055 6.595 2.77 0.3078 5.848
4.99 -12.84 -13.76 -1.847 0.5276 -3.781 -3.429 3.693 3.517 1.319 -2.374 -0.4836 2.022 6.067 1.187 2.154 7.386
4.995 -10.46 -14.03 -3.605 -1.055 0.9673 -0.8354 2.506 -0.6595 -1.935 0.4397 0.7914 3.122 5.32 0.3957 2.726 9.365
5 -6.771 -13.23 -7.474 -5.188 2.726 -0.5716 0.7035 -5.32 -5.232 2.066 0.7474 1.143 3.957 -0.5716 1.495 10.29
5.005 -4.045 -12.88 -10.2 -9.365 0.3078 -3.078 -0.9673 -8.002 -7.826 1.011 -1.275 -2.946 1.231 -2.946 -1.407 8.134
5.01 -3.254 -12.4 -9.893 -10.73 -3.913 -6.507 -2.286 -7.87 -9.013 -1.803 -4.441 -6.287 -3.561 -7.298 -5.012 1.627
5.015 -2.814 -9.365 -7.65 -9.849 -6.067 -6.991 -4.485 -6.331 -9.233 -3.825 -5.848 -5.979 -10.29 -12.53 -6.727 -8.969
5.02 0.2638 -1.671 -6.155 -9.189 -3.254 -2.022 -8.354 -5.496 -9.277 -2.462 -3.078 -1.011 -16.84 -15.78 -4.441 -20.22
5.025 6.771 9.101 -6.727 -9.233 3.605 7.035 -12.49 -5.804 -8.705 2.638 3.254 6.903 -19.39 -14.03 1.407 -26.56
5.03 13.37 17.54 -8.002 -8.134 10.42 15.26 -14.42 -6.463 -7.035 8.793 9.585 13.98 -16.18 -7.738 8.002 -24.75
5.035 15.92 18.55 -8.31 -5.716 13.1 17.45 -13.45 -7.079 -5.452 12 12.18 16.05 -9.936 -1.319 11.78 -16.49
5.04 12.22 11.65 -7.386 -4.353 10.38 12.49 -11.04 -8.09 -5.54 9.936 9.717 11.52 -5.408 1.275 10.46 -7.035
5.045 4.397 1.583 -5.936 -5.276 4.441 3.517 -8.749 -10.02 -6.683 3.825 3.561 2.506 -4.792 0.04397 4.265 -0.6595
5.05 -3.605 -5.188 -4.485 -6.991 -1.055 -4.133 -6.947 -12.22 -6.903 -2.594 -3.122 -6.507 -6.683 -2.066 -3.869 1.671
5.055 -7.65 -5.54 -2.33 -7.298 -4.089 -7.211 -5.144 -12.84 -5.144 -6.331 -7.342 -12 -8.31 -2.462 -9.805 1.627
5.06 -5.979 -1.275 1.803 -4.968 -4.573 -5.76 -2.594 -9.761 -1.759 -6.463 -7.562 -12.09 -6.859 -0.7914 -10.51 1.671
5.065 -0.9673 3.034 7.914 0.7035 -3.166 -2.11 1.539 -1.847 2.814 -4.177 -4.485 -7.211 -1.231 2.198 -6.111 3.693
5.07 4.045 4.133 13.94 8.793 -0.2638 1.671 7.035 9.497 8.222 -1.363 -0.2198 0.7035 7.035 4.748 0.5276 6.859
5.075 7.386 2.814 16.4 15.39 3.605 4.573 11.61 19.61 12.71 0.6155 3.561 8.266 13.5 5.276 5.936 8.31
5.08 8.705 2.11 13.41 16.27 6.595 5.848 12.57 23.74 14.11 1.407 5.408 11.61 14.51 3.737 7.782 6.155
5.085 8.354 3.298 6.683 12 6.551 4.924 9.321 20.05 11.87 1.143 4.485 9.013 10.33 1.979 5.144 1.627
5.09 6.155 5.188 0.8354 7.342 2.99 1.891 3.957 10.99 7.211 0.2638 1.011 1.759 3.781 1.187 -0.3957 -2.506
5.095 3.078 5.54 -0.7474 5.584 -1.891 -1.495 -1.099 0.9673 1.583 -0.3078 -2.33 -6.331 -2.462 0.6155 -5.188 -4.485
5.1 0.7914 4.177 1.363 5.892 -4.441 -2.814 -4.045 -6.243 -3.737 0.3078 -2.77 -10.9 -6.683 -0.6155 -5.848 -3.957
5.105 0.6155 2.33 4.089 5.848 -2.682 -0.6595 -4.265 -9.013 -6.991 2.462 0.3078 -9.497 -7.606 -1.979 -1.803 -1.407
5.11 1.407 1.011 4.485 4.133 1.407 3.078 -1.979 -8.134 -7.123 4.88 4.397 -3.737 -5.32 -2.55 3.781 2.154
5.115 1.143 -0.3957 1.979 0.7035 3.385 4.617 1.451 -5.54 -5.144 5.1 5.452 1.363 -1.803 -2.286 6.859 4.968
5.12 -1.319 -3.429 -1.715 -3.429 0.1319 1.011 4.309 -2.77 -2.902 1.759 1.979 2.11 1.495 -1.275 5.012 6.155
5.125 -5.979 -8.002 -4.045 -5.1 -6.727 -6.287 6.023 0.4397 -0.3517 -3.957 -4.265 -0.8793 4.836 1.715 -0.2198 6.727
5.13 -9.761 -11.3 -3.341 -1.407 -11.74 -12.44 7.123 4.66 4.001 -8.31 -8.881 -3.122 9.057 6.903 -4.441 8.134
5.135 -9.409 -9.585 -0.3517 5.716 -10.55 -12.93 7.123 9.013 9.409 -8.046 -7.914 -0.7914 13.54 12.35 -3.21 10.29
5.14 -4.133 -1.891 2.682 10.95 -4.177 -7.211 4.836 11.34 13.15 -3.166 -1.407 5.804 15.78 15.04 3.781 11.65
5.145 2.99 8.398 4.045 11.04 2.55 0.6595 0.5716 10.38 13.23 2.814 6.067 12.09 14.42 13.01 11.43 10.55
5.15 7.123 15.08 3.649 7.518 5.012 5.848 -3.605 6.947 9.98 5.628 9.057 13.01 9.761 6.991 13.15 6.331
5.155 5.716 14.25 1.847 3.166 2.594 6.199 -5.408 3.341 5.32 3.385 5.936 6.947 3.429 -0.2638 6.771 0
5.16 0.7035 6.903 -0.3957 -0.08793 -1.319 3.429 -3.649 1.627 1.627 -1.583 -0.1319 -2.726 -1.495 -4.88 -3.561 -5.496
5.165 -3.957 -2.242 -1.979 -1.187 -2.682 1.011 1.143 2.55 0.9233 -5.012 -4.353 -9.717 -2.242 -3.869 -11.08 -6.595
5.17 -5.54 -8.486 -1.627 0.1319 -0.2198 1.143 6.947 4.529 2.902 -3.913 -3.869 -9.717 1.407 1.231 -11.08 -2.55
5.175 -3.781 -9.365 0.4397 1.495 3.869 3.561 10.68 4.968 4.177 1.099 0.8354 -3.473 5.672 5.364 -4.221 3.122
5.18 -0.3517 -5.32 2.946 0.2638 6.375 6.683 10.77 2.506 2.154 6.639 6.815 4.309 6.551 4.397 4.617 5.979
5.185 2.902 1.671 4.573 -2.638 6.067 9.013 9.013 -0.8354 -1.891 9.497 10.82 9.497 4.309 -0.1759 9.893 4.968
5.19 4.836 9.277 5.144 -3.429 4.441 10.29 8.793 -1.583 -3.429 8.793 11.08 10.82 2.33 -3.429 9.717 2.638
5.195 5.452 15.12 5.54 -0.3078 2.99 10.07 11.21 1.715 0 5.936 8.31 9.321 3.122 -2.022 6.375 2.242
5.2 5.276 16.75 6.331 4.353 1.847 7.694 13.94 7.211 6.155 2.462 4.265 6.551 5.892 2.902 3.429 4.441
5.205 3.693 12.35 7.123 7.65 -0.08793 2.638 13.15 10.51 10.77 -1.011 -0.3078 3.298 7.826 7.298 1.803 6.991
5.21 0.1759 2.594 6.419 7.87 -3.385 -3.957 7.079 8.442 10.38 -4.836 -5.144 -0.1759 5.892 7.035 -0.04397 6.507
5.215 -4.485 -8.661 2.55 4.485 -7.035 -9.585 -2.946 1.143 4.573 -8.749 -9.277 -3.825 -0.3078 1.275 -2.946 1.627
5.22 -7.386 -15.61 -3.693 -1.539 -8.705 -11.43 -12.44 -7.298 -3.341 -11.04 -10.51 -6.331 -7.211 -6.155 -5.584 -4.836
5.225 -6.419 -14.2 -8.31 -6.375 -6.551 -8.486 -16.36 -10.99 -7.606 -9.629 -7.562 -5.496 -9.145 -8.881 -5.408 -7.079
5.23 -1.671 -5.056 -6.595 -5.54 -0.9673 -1.979 -11.74 -6.551 -4.353 -3.561 -1.143 -0.3957 -3.254 -3.737 -1.231 -2.022
5.235 4.573 7.255 2.066 0.5276 5.936 5.056 -1.011 3.913 4.001 5.188 6.463 6.991 6.947 5.76 5.804 7.342
5.24 9.936 17.23 13.01 6.903 10.86 10.07 10.2 14.47 11.39 12.66 12.35 12.79 14.77 13.41 12.05 14.6
5.245 12.22 20.84 19.08 9.189 12.09 11.83 17.02 19.35 13.01 15.39 13.94 14.16 15.96 15.04 13.81 15.21
5.25 10.38 17.37 16 6.551 9.98 10.64 17.85 16.49 8.925 12.88 10.82 10.9 10.86 10.6 10.02 9.497
5.255 5.716 9.145 5.232 0.5276 6.287 7.738 13.45 7.826 2.022 7.298 5.452 5.276 2.55 2.77 3.341 0.8793
5.26 0.5276 -0.2198 -6.815 -6.463 2.726 4.045 5.76 -2.594 -4.485 1.979 1.143 -0.3517 -5.584 -5.012 -2.506 -6.815
5.265 -3.254 -7.65 -13.19 -10.95 0.3078 0.3517 -2.638 -10.82 -8.046 -1.187 -0.8354 -4.265 -10.9 -9.453 -5.496 -11.26
5.27 -4.836 -11.34 -11.04 -10.11 -0.9673 -2.946 -8.793 -14.16 -8.178 -2.154 -1.407 -6.287 -12.66 -9.717 -6.199 -12.57
5.275 -4.309 -11.08 -3.298 -5.452 -1.759 -5.32 -11.3 -12.88 -7.035 -2.418 -2.286 -7.782 -12.27 -7.738 -6.199 -12.53
5.28 -2.374 -8.222 3.561 -1.011 -2.594 -6.903 -10.29 -8.749 -7.035 -3.341 -4.177 -9.717 -11.04 -5.936 -6.639 -12.31
5.285 -0.7035 -5.54 5.056 0.4397 -3.737 -7.914 -7.342 -3.957 -8.002 -4.66 -6.903 -11.61 -9.101 -5.32 -8.046 -11.56
5.29 -1.231 -5.672 0.7474 -0.3957 -4.704 -8.749 -4.704 -0.7035 -8.178 -5.276 -9.453 -12.13 -6.771 -5.584 -9.893 -9.98
5.295 -4.045 -8.837 -6.771 -2.682 -5.364 -9.541 -5.408 -0.9673 -6.991 -4.924 -10.6 -10.73 -5.672 -6.727 -10.99 -9.013
5.3 -7.123 -12.4 -13.72 -6.023 -6.023 -10.11 -10.51 -5.32 -5.848 -4.485 -9.849 -8.046 -7.123 -8.222 -10.07 -9.936
5.305 -8.002 -12.79 -17.02 -8.705 -6.243 -9.761 -17.45 -11.52 -5.716 -4.792 -7.87 -4.836 -10.02 -8.881 -7.035 -11.78
5.31 -5.804 -8.442 -15.12 -8.442 -5.188 -7.562 -21.28 -15.87 -6.243 -5.496 -5.452 -1.583 -11.56 -8.002 -2.77 -12.05
5.315 -1.407 -1.319 -9.145 -5.408 -2.55 -3.693 -18.73 -15.83 -6.903 -5.364 -2.858 0.9233 -10.77 -6.815 1.187 -9.365
5.32 2.726 4.133 -2.55 -2.594 0.9233 0.3078 -11.21 -12.13 -7.738 -3.605 -0.1759 2.066 -8.266 -6.683 3.21 -4.573
5.325 4.133 4.309 0.9673 -2.198 3.078 2.154 -2.858 -7.342 -8.134 -0.7474 1.715 1.363 -5.276 -7.079 1.935 0.1319
5.33 2.11 -0.8793 -0.2198 -3.737 2.198 0.3078 2.462 -4.309 -7.386 1.055 1.011 -0.9233 -2.77 -6.639 -2.462 2.902
5.335 -1.319 -7.167 -4.924 -5.672 -1.539 -4.397 3.166 -3.693 -5.892 0.1319 -2.418 -4.309 -1.407 -4.924 -7.606 2.638
5.34 -2.814 -9.145 -9.761 -6.903 -5.628 -8.969 0.7035 -3.649 -4.309 -3.298 -6.815 -7.43 -0.6155 -2.242 -10.51 0.3517
5.345 -0.7914 -4.792 -10.68 -5.672 -6.463 -9.761 -1.451 -1.451 -2.242 -6.903 -9.365 -8.486 1.055 1.319 -9.849 -1.187
5.35 2.99 2.946 -6.023 -1.407 -2.682 -5.32 -0.7914 3.737 1.099 -7.694 -8.398 -6.287 4.001 4.836 -6.639 -0.08793
5.355 5.716 8.793 1.583 3.473 3.473 2.198 2.066 9.233 4.485 -5.012 -4.133 -1.803 6.595 6.683 -2.77 2.638
5.36 5.54 9.541 7.474 4.66 7.606 8.574 4.089 10.99 5.1 -1.011 1.143 2.858 6.419 5.892 0.6595 4.353
5.365 2.902 5.76 8.793 1.627 6.859 10.24 3.473 7.562 2.506 1.803 4.529 6.023 3.429 3.561 3.21 3.693
5.37 -0.1759 1.055 6.067 -2.066 2.462 7.43 1.011 0.8793 -1.363 2.242 4.265 7.255 -0.6155 1.363 5.012 1.319
5.375 -2.022 -1.495 1.759 -3.298 -1.935 2.814 -2.022 -5.584 -4.221 1.231 1.495 6.507 -4.045 -0.04397 6.199 -1.363
5.38 -2.638 -1.495 -2.594 -2.638 -3.429 -0.6595 -5.232 -9.761 -5.452 0.5276 -1.187 4.133 -6.023 -0.7474 6.331 -2.902
5.385 -3.341 -1.583 -6.727 -1.891 -2.198 -2.11 -8.398 -11.39 -5.012 0.8354 -2.242 0.8793 -5.979 -0.4397 4.88 -2.154
5.39 -6.067 -4.045 -10.64 -1.935 -0.8793 -2.594 -10.68 -11.3 -3.473 1.539 -1.891 -1.979 -3.957 0.6595 2.154 0.6595
5.395 -9.497 -8.222 -13.59 -2.77 -1.539 -3.122 -11.08 -10.16 -2.154 1.539 -0.5716 -3.298 -1.495 1.407 0.1759 3.298
5.4 -11.17 -11.21 -13.67 -3.913 -3.649 -3.473 -8.749 -7.518 -1.715 0.8793 1.319 -2.638 -0.1759 0.8793 0.4397 3.517
5.405 -9.233 -10.42 -9.321 -3.385 -4.529 -2.198 -3.649 -2.726 -0.9233 0.7914 3.341 -0.3957 0.08793 -0.1319 2.374 1.495
5.41 -4.66 -6.375 -0.7914 0.1759 -2.418 1.143 3.254 3.825 1.495 2.418 4.792 2.242 0.4836 -0.4397 3.341 -0.6595
5.415 -0.5276 -1.363 8.486 4.88 1.539 5.188 8.925 9.541 4.529 5.1 4.88 3.254 1.275 -0.08793 1.539 -1.407
5.42 1.671 2.55 14.33 6.727 4.529 7.255 10.9 11.7 5.848 6.991 3.781 1.979 2.066 0 -2.022 -0.4836
5.425 1.935 5.364 15.08 5.276 4.792 6.463 9.761 10.38 5.1 6.815 2.33 0.4397 3.034 0.04397 -4.265 1.627
5.43 2.286 8.354 12.62 4.089 3.605 4.485 8.661 8.398 4.792 5.144 1.847 1.759 4.617 0.7035 -2.462 4.133
5.435 4.309 12.27 9.893 6.199 3.737 4.045 9.761 8.266 6.419 3.869 3.473 7.035 6.419 2.198 3.561 5.76
5.44 7.738 15.78 8.178 10.46 6.155 6.023 12.18 9.673 9.013 3.869 6.463 13.41 7.255 4.089 10.55 6.111
5.445 9.936 15.87 7.386 13.85 8.793 8.354 13.23 10.24 10.2 4.177 7.914 16.36 6.727 5.628 13.32 5.848
5.45 8.266 10.9 6.375 14.38 8.222 7.562 10.51 7.342 7.958 2.77 5.232 12.62 4.748 5.452 9.321 5.188
