    T[sec] F7  F3  F4  F8  T3  C3  Cz  C4  T4  T5  P3  Pz  P4  T6  O1  O2 
41 23.01 23.01 23.01 23.01 23.01 23.01 23.01 23.01 22.01 23.01 22.01 22.01 22.01 23.01 23.01 23.01
0 -0.8989 -5.303 -3.146 -3.596 -2.247 -9.483 -5.933 -3.551 -3.611 -0.4494 -6.105 -6.964 -4.643 -5.483 -3.685 -4.854
0.005 -5.034 -13.08 -10.79 -7.775 -7.011 -18.02 -12.36 -10.43 -7.738 -2.247 -10.92 -14.96 -9.888 -9.169 -7.73 -8.27
0.01 -9.618 -18.97 -16.4 -10.92 -10.74 -22.34 -16.22 -17.3 -11.48 -3.056 -12.38 -19.78 -14.36 -12.58 -8.449 -10.97
0.015 -12.67 -19.87 -16.94 -11.78 -11.51 -19.15 -15.24 -21.8 -13.63 -2.337 -8.77 -18.49 -16.68 -14.38 -5.124 -11.69
0.02 -12.31 -15.69 -13.66 -10.83 -9.618 -11.73 -10.7 -22.65 -13.67 -1.258 -3.009 -13.58 -17.02 -14.02 -0.6292 -10.7
0.025 -9.528 -10.25 -9.933 -10.07 -7.596 -7.146 -6.517 -20.99 -12.6 -1.618 0.172 -9.888 -15.99 -12.49 1.798 -8.809
0.03 -6.921 -7.73 -7.416 -10.25 -6.787 -6.966 -5.258 -18.38 -11.22 -3.685 -0.08598 -7.996 -13.15 -9.798 2.067 -6.022
0.035 -6.382 -8.629 -6.966 -10.65 -6.742 -7.281 -6.022 -15.6 -9.544 -5.933 -0.2579 -4.987 -8.34 -5.843 1.798 -2.067
0.04 -7.191 -11.24 -9.483 -11.06 -6.292 -6.022 -6.742 -12.09 -7.48 -6.562 1.462 -0.6019 -3.009 -1.528 1.169 1.798
0.045 -8.719 -14.56 -13.84 -11.55 -5.573 -4.899 -6.517 -7.326 -5.288 -5.034 3.611 2.665 1.892 1.888 -0.3596 4.225
0.05 -11.15 -17.98 -16.58 -11.33 -5.438 -5.303 -5.798 -1.528 -2.923 -2.876 4.213 3.267 5.761 4.135 -2.517 4.764
0.055 -13.57 -19.46 -15.82 -9.573 -6.337 -7.236 -5.438 4.449 0 -2.247 1.978 1.118 7.738 5.753 -5.753 3.865
0.06 -14.2 -17.44 -13.17 -6.876 -8.404 -10.79 -6.202 8.629 2.665 -4.854 -4.557 -4.127 6.362 5.753 -10.79 1.079
0.065 -12.22 -12.09 -9.663 -4.449 -10.47 -14.34 -7.955 9.483 3.482 -9.618 -13.84 -10.83 1.978 3.506 -16 -3.506
0.07 -8.36 -4.764 -4.09 -2.652 -10.52 -13.48 -8.629 6.742 1.72 -13.39 -21.06 -14.87 -3.353 -0.4494 -19.24 -8.629
0.075 -2.876 3.281 2.562 -1.079 -7.461 -6.652 -6.831 1.978 -1.806 -14.11 -23.13 -14.53 -7.91 -4.404 -20.31 -12.76
0.08 3.146 9.663 6.607 -0.2247 -3.551 0.9438 -3.551 -2.697 -5.331 -12.22 -21.67 -12.64 -10.92 -7.011 -20.94 -14.83
0.085 7.461 12.09 7.191 0.2247 -1.348 3.461 -0.8989 -5.169 -6.964 -9.438 -20.21 -11.78 -10.92 -7.461 -20.13 -13.39
0.09 8.09 11.19 7.506 1.483 -1.124 1.393 0.4045 -4.18 -5.288 -6.562 -18.23 -10.32 -6.62 -4.854 -14.92 -7.64
0.095 6.831 10.25 9.124 3.955 -0.4494 -0.3146 1.753 -0.1348 -0.5159 -2.787 -13.33 -5.417 0.3439 -0.08989 -5.034 1.438
0.1 6.292 11.24 9.888 6.022 2.427 0.9888 4.18 4.899 5.116 2.157 -5.159 1.72 7.136 4.854 6.112 10.88
0.105 7.281 12.13 9.034 6.337 6.831 4.494 7.596 8.315 8.684 7.371 4.471 8.168 11.95 8.36 14.29 18.07
0.11 7.91 10.11 8.045 4.809 10.56 7.596 10.7 8.315 8.641 11.24 12.3 11.09 14.1 9.798 16.81 21.03
0.115 7.91 4.944 6.517 1.933 11.51 7.281 11.37 4.989 5.675 12.13 14.96 8.34 12.21 8.899 12.04 18.61
0.12 7.73 -0.6742 2.652 -1.438 9.348 2.517 8.539 -0.3596 1.29 9.708 11.44 0.6878 6.105 5.573 2.787 10.97
0.125 8.449 -2.787 -1.663 -4.135 6.787 -2.427 4.045 -4.809 -2.364 6.562 5.675 -6.448 -1.204 0.9888 -4.404 0.809
0.13 10.7 0.764 -2.337 -4.944 7.416 -1.034 1.258 -6.292 -4.213 6.382 3.869 -7.394 -6.277 -3.146 -4.674 -8.09
0.135 14.2 8.674 -0.2247 -4.315 12.04 7.91 1.663 -4.899 -4.385 9.438 8.082 -2.149 -8.168 -6.022 -0.3596 -13.39
0.14 17.17 15.6 0.5393 -3.64 16.49 17.89 3.416 -2.607 -3.912 12.58 13.93 3.353 -7.996 -7.281 2.966 -14.47
0.145 16.36 16.18 -0.9888 -3.191 16 21.26 3.461 -0.8539 -3.525 11.78 15.48 4.299 -5.847 -7.101 2.876 -11.87
0.15 10.43 10.11 -1.663 -2.382 9.483 15.82 0 0.2697 -3.052 6.472 10.32 0.6019 -2.751 -5.843 0.1798 -7.64
0.155 2.607 2.202 -0.8539 -1.169 0.1798 4.854 -6.517 0.6742 -2.278 -1.258 0.6878 -4.987 -0.6878 -4.674 -3.506 -4.225
0.16 -2.787 -2.382 -1.303 -0.3596 -7.551 -5.888 -13.89 -0.2247 -1.548 -8.09 -8.856 -9.114 -0.7738 -3.685 -6.382 -2.517
0.165 -4.135 -2.472 -3.326 -0.5843 -10.79 -12.09 -18.65 -2.652 -1.333 -11.15 -13.93 -9.2 -1.72 -2.427 -6.112 -0.8989
0.17 -2.966 -0.7191 -4.989 -1.843 -9.663 -12.81 -18.61 -6.472 -2.321 -10.07 -13.41 -5.675 -2.064 -0.8989 -3.416 1.258
0.175 -1.978 -0.6292 -6.247 -3.82 -7.011 -11.24 -14.34 -11.24 -4.514 -6.921 -10.06 -2.493 -3.009 0 -1.888 2.966
0.18 -2.697 -3.461 -8 -5.438 -5.753 -10.52 -7.506 -14.65 -6.706 -4.494 -7.738 -2.149 -4.901 0.08989 -3.685 2.966
0.185 -5.213 -7.326 -7.775 -4.809 -6.247 -10.2 0.5393 -13.39 -6.663 -3.775 -7.136 -3.095 -5.847 0.1798 -6.112 1.798
0.19 -7.91 -8.854 -2.202 -0.4944 -6.472 -7.461 8.719 -6.067 -3.138 -3.865 -6.706 -2.149 -3.611 1.528 -6.112 0.6292
0.195 -8.989 -6.427 6.067 5.708 -5.079 -2.022 14.92 4.764 3.052 -3.506 -4.987 1.118 0.9458 4.045 -3.955 0.7191
0.2 -8.09 -1.933 10.7 10.74 -3.101 3.236 16.94 13.98 9.243 -2.787 -1.978 4.901 5.933 7.191 -0.809 2.607
0.205 -6.921 0.7191 10.16 12.63 -2.472 4.989 14.34 18.29 13.28 -1.978 1.462 7.652 10.23 9.798 3.146 6.022
0.21 -7.191 -0.4494 8.09 11.69 -3.281 2.607 8.764 17.98 14.01 -0.5393 4.987 9.372 13.15 10.7 7.73 9.079
0.215 -8.09 -3.775 7.056 9.303 -4.225 -1.303 2.697 15.01 12.25 1.348 8.082 10.15 13.58 9.708 10.7 9.888
0.22 -7.64 -6.157 6.292 7.236 -4 -3.73 -1.483 11.96 9.759 2.517 10.49 11.01 12.04 8.09 11.33 9.079
0.225 -5.483 -5.618 6.337 6.742 -2.292 -2.652 -2.112 10.2 7.824 2.337 11.69 12.47 10.58 7.551 11.24 8.539
0.23 -2.966 -2.876 8.09 7.685 0.2697 1.393 0.4045 9.124 6.362 1.169 11.78 13.93 10.15 7.82 11.24 8.899
0.235 -1.528 0.04494 9.079 8.315 2.427 5.753 4.404 6.742 4.299 -0.1798 10.92 13.58 8.34 7.011 9.978 8.36
0.24 -1.528 1.348 6.382 7.146 3.101 8.449 8.18 2.876 1.419 -0.8989 10.06 10.58 3.697 3.955 6.831 5.753
0.245 -2.157 0.764 1.978 4.764 2.921 9.933 11.37 0.2247 -1.118 -0.1798 10.66 7.136 -1.376 0 4.045 1.528
0.25 -2.517 -0.3596 0.764 3.101 3.73 11.73 13.93 1.393 -1.72 2.607 12.72 5.589 -3.783 -2.966 3.416 -2.247
0.255 -0.9888 0 2.787 2.742 6.292 13.93 14.61 6.112 0.2579 6.022 14.36 5.933 -2.579 -3.056 3.775 -3.506
0.26 2.427 1.888 3.73 2.831 8.809 14.38 11.96 11.28 3.783 7.91 12.72 6.019 1.118 -0.3596 3.416 -1.528
0.265 5.303 3.416 1.798 2.202 9.034 11.24 6.382 14.02 7.222 7.281 6.964 4.643 6.191 3.865 2.787 2.966
0.27 5.483 2.697 -0.7191 0.3596 6.697 5.393 0.2697 13.35 8.985 5.213 -0.172 2.579 11.01 7.64 2.876 7.73
0.275 3.326 0 -2.697 -2.292 3.191 -0.3146 -3.775 10.29 8.856 3.506 -5.073 1.118 13.07 9.258 3.506 10.88
0.28 1.258 -2.652 -4.584 -4.404 0.5393 -3.551 -3.685 6.921 7.738 2.697 -5.761 1.72 12.04 8.809 4.944 12.58
0.285 0.8989 -3.506 -4.719 -4.09 0.04494 -3.281 1.034 5.573 6.878 3.146 -2.837 5.073 10.23 7.73 8.539 14.2
0.29 2.247 -1.213 -0.1798 -0.2697 2.157 -0.1798 8.449 6.382 6.577 4.225 1.032 10.15 9.372 6.472 13.57 15.73
0.295 5.034 4.18 7.011 5.258 5.528 3.596 15.19 7.191 6.105 5.034 2.751 13.67 8.168 4.584 15.91 15.19
0.3 8.539 10.7 12.04 9.573 7.64 5.573 18.07 5.753 4.643 4.135 0.6019 12.21 4.729 1.528 12.31 10.79
0.305 11.24 15.6 13.75 10.83 7.011 4.809 16 2.157 2.235 1.169 -4.385 6.105 -0.2579 -1.978 4.494 3.685
0.31 12.4 17.44 15.01 9.483 4.404 2.382 9.798 -2.112 -0.3009 -2.247 -9.544 -1.892 -4.901 -4.764 -3.596 -4.045
0.315 12.22 16.9 16.13 6.831 1.663 -0.764 0.7191 -5.978 -2.106 -4.764 -12.81 -9.286 -8.77 -6.382 -9.888 -10.16
0.32 11.6 15.24 14.43 4.404 -0.4944 -4.539 -9.258 -9.169 -2.966 -6.112 -13.67 -14.87 -12.04 -7.101 -13.66 -13.75
0.325 10.16 12.99 9.843 3.416 -1.798 -7.775 -16.54 -10.92 -2.837 -5.843 -11.95 -17.37 -13.15 -7.101 -14.02 -14.83
0.33 7.191 10.16 5.798 3.91 -1.663 -7.82 -17.48 -10.16 -1.892 -3.236 -6.792 -15.39 -10.83 -6.292 -11.06 -13.84
0.335 3.596 6.697 3.101 4.764 0.1798 -3.056 -10.92 -6.517 -0.2579 1.438 1.634 -9.802 -6.191 -4.944 -6.921 -11.6
0.34 0.9888 2.562 0.04494 4.674 3.056 4.764 0.764 -0.3596 1.978 7.011 11.44 -2.751 -1.032 -2.697 -3.146 -8.09
0.345 -0.08989 -1.888 -2.787 3.775 6.157 12.63 12.81 7.101 4.686 11.78 19.78 3.869 4.299 0.7191 0.8989 -3.416
0.35 -0.1798 -5.303 -2.562 3.371 8.899 17.62 19.82 14.16 7.48 14.56 24.25 9.028 8.942 4.225 5.843 0.6292
0.355 0.2697 -6.157 -0.5393 3.73 10.25 17.53 18.2 17.84 9.114 14.56 23.13 10.23 10.15 5.933 8.809 1.348
0.36 1.079 -4.629 -1.124 3.91 8.764 11.78 8.404 16.31 8.426 10.88 16.59 6.62 6.706 4.854 7.82 -2.157
0.365 0.809 -2.697 -4.764 3.236 4.404 2.831 -4.09 10.97 5.632 5.124 7.738 0.7738 1.204 2.157 4.674 -7.011
0.37 -1.169 -2.202 -7.461 2.202 -0.809 -4.989 -13.03 4.809 2.106 0.4494 0.7738 -3.353 -2.837 -0.08989 2.787 -9.438
0.375 -3.865 -3.506 -7.775 1.258 -4.449 -9.124 -15.1 -0.2697 -0.8598 -1.348 -2.321 -3.869 -4.213 -0.6292 2.517 -7.91
0.38 -5.124 -5.888 -7.865 0.3596 -5.753 -10.25 -11.78 -3.775 -2.493 -0.809 -3.009 -1.978 -3.611 0.3596 2.157 -3.506
0.385 -5.034 -8.449 -8.36 -0.3596 -5.573 -10.16 -6.921 -6.337 -2.966 -0.2697 -3.955 0.4299 -1.548 2.157 1.528 1.528
0.39 -4.764 -10.29 -7.685 -1.348 -5.213 -10.16 -4 -8.584 -3.267 -1.258 -6.964 1.978 1.204 3.596 0.6292 5.303
0.395 -5.124 -10.88 -7.191 -3.685 -6.157 -11.37 -4.674 -11.51 -4.557 -5.034 -12.38 1.376 2.493 3.506 -1.258 6.742
0.4 -6.022 -10.47 -9.888 -7.775 -9.034 -14.07 -7.551 -15.33 -7.179 -10.79 -19 -1.29 1.204 1.618 -4.045 6.921
0.405 -7.281 -9.348 -14.2 -12 -12.81 -16.63 -9.438 -18.47 -10.19 -16.45 -23.99 -3.955 -1.29 -1.348 -5.124 7.371
0.41 -8 -6.921 -15.1 -13.71 -14.74 -16.18 -8.045 -19.51 -12.17 -19.15 -24.59 -4.127 -3.439 -4.584 -3.506 7.73
0.415 -6.202 -2.112 -10.88 -12.09 -12.9 -11.69 -4.135 -18.38 -12.72 -17.8 -20.72 -2.837 -6.105 -8.629 -1.798 5.573
0.42 -0.9888 5.079 -4.944 -8.449 -8.045 -4.719 -0.3596 -16.49 -12.55 -13.84 -14.62 -2.665 -10.75 -13.39 -3.236 -0.3596
0.425 5.483 12.58 0.7191 -4.539 -2.202 2.427 1.573 -14.38 -12.42 -9.169 -8.168 -4.471 -15.91 -17.35 -6.831 -8.27
0.43 9.888 18.07 6.697 -1.483 2.921 8.809 1.843 -11.82 -12.38 -4.225 -2.064 -7.222 -19.43 -18.79 -10.25 -15.46
0.435 10.88 20.27 10.83 0.08989 6.652 13.62 1.348 -8.944 -11.95 0.3596 3.525 -9.802 -20.81 -17.35 -13.3 -19.96
0.44 8.989 18.7 9.573 -0.2247 8.584 16 0.2697 -6.112 -10.58 4.045 8.254 -11.95 -20.12 -13.39 -16.09 -21.48
0.445 5.753 13.57 3.461 -2.067 9.034 16 -1.438 -3.326 -7.652 6.742 11.61 -12.81 -16.85 -8.09 -17.26 -20.58
0.45 2.247 6.292 -2.921 -4.719 8.899 14.29 -4.27 -0.5843 -3.697 8.809 13.41 -11.61 -11.44 -2.966 -15.46 -18.43
0.455 -0.5393 -1.438 -7.775 -7.775 8.494 10.65 -8.854 0.9888 -0.4299 10.52 12.9 -9.716 -6.62 0.08989 -12.4 -16.63
0.46 -1.978 -8.36 -12.54 -10.74 7.011 4.494 -14.34 0.1798 0.8168 10.88 9.286 -8.856 -4.815 0.6292 -10.16 -15.46
0.465 -3.146 -13.98 -16.36 -12.22 3.73 -3.146 -18.16 -2.607 -0.3869 9.528 3.009 -8.942 -4.901 -0.5393 -8.449 -14.2
0.47 -5.213 -17.62 -16 -11.06 -0.2697 -9.798 -17.93 -5.438 -3.095 7.011 -3.439 -8.512 -4.815 -2.157 -6.652 -12.04
0.475 -7.371 -18.88 -11.78 -8 -3.865 -13.35 -13.66 -7.281 -5.933 3.865 -8.254 -7.136 -4.041 -3.596 -4.944 -8.989
0.48 -8.36 -17.62 -7.596 -5.213 -6.247 -13.98 -7.506 -7.146 -7.695 0.5393 -10.49 -4.729 -2.407 -4.135 -2.517 -4.674
0.485 -8.27 -15.01 -4.539 -3.82 -7.416 -12.22 -1.663 -4.449 -7.093 -1.798 -9.372 -0.172 1.548 -2.787 3.685 2.337
0.49 -8 -11.69 -0.8539 -3.146 -6.966 -8.315 2.742 0.6742 -3.912 -2.157 -4.729 7.394 8.168 0.809 14.38 11.6
0.495 -7.461 -7.82 2.742 -2.517 -5.169 -2.966 5.438 6.112 0.9458 -0.7191 1.978 16.25 14.96 5.573 25.17 20.58
0.5 -6.472 -3.91 2.697 -1.753 -3.281 1.843 6.652 9.079 5.503 0.3596 7.91 22.53 18.83 9.888 29.84 26.16
0.505 -5.034 -0.8539 -0.764 -1.169 -2.427 4.899 6.921 8.674 8.211 -0.7191 10.49 24.25 19.35 12.67 26.61 27.33
0.51 -3.865 1.213 -3.506 -1.034 -2.382 6.247 6.652 6.112 8.641 -3.775 9.544 22.01 17.8 13.66 18.07 24.54
0.515 -2.517 2.966 -4.045 -1.663 -2.607 6.427 5.303 2.966 7.394 -7.371 6.105 17.02 14.7 13.12 7.461 19.42
0.52 -0.6292 5.034 -4.225 -2.876 -3.011 5.573 2.472 0.4494 5.804 -10.25 1.892 10.75 10.58 11.78 -1.618 13.84
0.525 0.7191 6.921 -4.27 -3.461 -3.506 4.494 -1.393 -0.809 4.858 -11.24 -0.8598 5.159 6.878 10.25 -6.202 8.989
0.53 -0.1798 7.416 -2.247 -2.427 -3.596 3.91 -5.213 -1.348 4.6 -9.708 -0.6878 1.032 3.955 8.27 -6.112 4.494
0.535 -3.236 5.258 0.3596 -0.7191 -3.281 2.697 -8.944 -2.742 3.783 -6.652 1.376 -2.923 -0.172 4.584 -5.303 -1.169
0.54 -7.64 -0.04494 -0.1348 -0.08989 -3.82 -1.618 -13.03 -5.843 1.462 -3.865 2.665 -8.34 -6.706 -0.8989 -6.652 -8.09
0.545 -12.04 -7.64 -3.146 -0.9438 -5.933 -9.528 -16.99 -8.494 -1.505 -2.337 1.204 -14.1 -13.07 -6.202 -8.539 -14.2
0.55 -15.46 -14.79 -4.315 -1.663 -8.989 -18.43 -19.51 -7.461 -3.181 -1.438 -1.978 -17.28 -15.48 -9.079 -7.82 -17.17
0.555 -16.63 -18.47 -2.607 -1.303 -11.46 -24.72 -19.37 -2.247 -2.321 -0.1798 -4.987 -16.94 -13.76 -8.809 -4.494 -17.08
0.56 -14.92 -17.48 -1.393 -0.1348 -12.36 -26.56 -16.18 4.494 0.172 1.169 -6.277 -14.01 -9.974 -6.831 -0.4494 -15.28
0.565 -11.51 -13.3 -1.798 0.809 -11.28 -23.69 -10.34 9.079 2.364 2.157 -4.987 -9.716 -6.105 -5.034 4.225 -12.85
0.57 -7.73 -8.18 -1.348 1.124 -7.865 -16.67 -2.472 9.169 2.407 2.966 -1.634 -3.955 -2.837 -4.584 9.348 -9.978
0.575 -3.236 -2.787 0.809 0.7191 -2.652 -7.236 5.978 5.258 0.4729 3.506 1.978 2.407 -0.6878 -4.944 13.66 -6.112
0.58 3.056 3.011 3.056 0.5843 2.966 2.472 13.93 0.5393 -1.333 3.596 3.525 8.512 1.634 -3.955 15.55 -0.2697
0.585 10.34 9.303 6.022 2.382 7.82 11.6 21.17 -0.5393 -0.6019 3.775 3.009 14.01 6.792 0.4494 16.09 8.36
0.59 16.18 15.15 11.64 6.742 11.91 20.04 27.69 3.461 2.88 4.674 2.149 18.06 14.7 7.371 15.64 18.07
0.595 19.15 18.92 17.35 11.33 15.19 26.38 31.82 8.944 6.362 6.202 2.407 18.57 20.98 12.76 12.49 24.63
0.6 18.88 18.65 17.93 12.67 16.49 27.6 31.01 10.38 6.319 6.652 3.353 14.01 20.64 12.67 5.843 25.44
0.605 15.73 13.39 12.72 9.213 14.74 22.52 24.22 5.169 1.677 5.034 4.041 6.191 14.1 7.011 -1.438 21.03
0.61 10.34 4.315 6.067 2.652 10.47 13.3 12.99 -4.18 -4.987 2.067 4.299 -0.9458 5.503 -0.8989 -5.933 14.74
0.615 4.315 -5.124 0.1348 -4.315 5.393 3.955 0.4045 -12.85 -10.06 -0.5393 4.385 -4.557 -1.29 -6.652 -7.011 9.618
0.62 -0.9888 -12.04 -6.292 -9.528 1.213 -2.472 -9.933 -16.76 -10.92 -1.708 4.987 -4.643 -4.385 -7.73 -5.753 7.191
0.625 -5.303 -14.97 -12.58 -11.6 -0.764 -4.36 -14.79 -14.43 -7.781 -1.169 6.964 -1.634 -3.353 -4.404 -2.247 7.281
0.63 -7.91 -13.44 -15.1 -10.43 -0.04494 -1.528 -13.17 -7.236 -3.052 0.6292 9.974 3.353 -0.172 0.1798 2.607 7.551
0.635 -7.551 -7.73 -13.03 -6.921 2.292 3.461 -7.191 1.079 0.8598 1.798 11.78 7.738 1.634 2.607 5.393 4.854
0.64 -2.966 0.4944 -8.989 -2.337 3.82 6.966 -0.3596 7.91 3.267 0.1798 9.544 8.942 0.172 1.528 3.416 -1.348
0.645 3.416 8.719 -3.64 3.281 2.787 7.146 4.719 13.12 5.417 -4.404 2.923 6.878 -2.493 -0.8989 -1.798 -8.809
0.65 7.64 13.98 4 9.843 0 5.303 7.281 17.62 8.254 -9.079 -4.987 3.869 -3.439 -2.427 -6.112 -14.29
0.655 7.82 15.42 11.33 15.64 -2.382 3.371 7.551 20.67 11.05 -10.79 -10.15 1.376 -2.923 -2.427 -7.191 -16.54
0.66 4.854 13.39 13.44 18.2 -2.921 2.247 6.607 20.67 11.99 -8.36 -10.32 0.08598 -2.665 -1.798 -4.584 -15.64
0.665 1.528 9.438 10.65 16.9 -1.258 2.157 5.978 17.3 10.27 -2.966 -5.847 0.7738 -2.751 -1.348 1.258 -12.67
0.67 0.1798 5.393 8.135 13.39 2.067 3.416 7.146 12.31 6.792 3.506 0.6878 3.439 -2.407 -1.708 7.371 -9.798
0.675 2.157 3.191 8.719 10.25 5.978 5.393 9.573 7.461 3.31 8.809 5.847 5.847 -2.579 -2.697 8.989 -8.809
0.68 6.562 3.73 11.19 9.169 8.809 6.517 11.82 3.596 1.161 11.24 7.222 5.417 -3.955 -4.045 4.135 -9.798
0.685 10.97 6.831 15.42 10.83 9.753 6.517 12.81 1.079 0.4729 11.33 5.159 2.493 -5.245 -4.404 -2.966 -10.16
0.69 13.03 11.96 22.47 14.25 9.843 6.607 12.81 -0.3596 0.5589 10.79 2.665 -0.6019 -4.901 -3.056 -6.562 -7.64
0.695 13.48 18.07 29.89 16.63 9.978 7.596 12.18 -1.663 0.6448 10.79 2.149 -2.064 -3.095 -0.4494 -5.213 -2.067
0.7 13.75 22.88 31.82 15.64 9.978 8.944 11.06 -3.056 0.6448 10.61 3.611 -2.235 -0.6878 2.787 -1.978 4.764
0.705 13.84 23.19 26.65 11.42 9.348 9.708 9.528 -3.775 1.118 9.438 6.019 -1.72 2.235 5.753 0.2697 10.25
0.71 12.22 17.39 18.02 6.382 8.09 9.933 7.281 -2.876 2.364 7.371 7.91 -0.8598 5.847 7.91 -0.1798 12.4
0.715 8.539 7.371 8.989 2.562 6.472 8.899 3.416 -1.213 3.912 5.034 7.394 -1.462 8.168 8.449 -4.494 10.43
0.72 4.045 -3.101 0.2247 0.6742 3.775 4.989 -1.843 -0.04494 4.944 2.337 2.751 -4.901 8.168 7.91 -12.04 6.562
0.725 -0.6292 -11.06 -5.618 0.4944 -0.8539 -2.652 -6.607 0.6742 5.245 -1.079 -6.019 -11.09 7.222 7.64 -19.69 4.135
0.73 -5.303 -15.64 -5.753 1.034 -7.011 -12.58 -8.944 1.618 5.159 -4.674 -16.51 -18.06 6.878 8.09 -24.9 4.404
0.735 -8.989 -17.71 -3.056 0.5393 -13.17 -22.61 -9.438 2.292 4.514 -7.91 -25.62 -24.76 5.245 7.73 -28.67 4.854
0.74 -11.15 -18.7 -4.315 -2.652 -17.84 -30.7 -10.92 0.8539 2.321 -10.43 -31.21 -30.09 0 4.674 -31.28 2.427
0.745 -11.69 -19.51 -11.42 -8.27 -19.51 -34.34 -15.28 -3.326 -2.106 -11.06 -31.64 -31.64 -8.168 -1.348 -29.66 -3.416
0.75 -10.79 -18.97 -19.46 -14.34 -17.12 -31.46 -21.17 -9.034 -7.953 -9.079 -26.91 -27.08 -15.65 -8.36 -21.12 -10.16
0.755 -8.27 -15.6 -24.18 -18.92 -11.6 -23.01 -24.85 -13.57 -13.07 -5.124 -18.74 -17.02 -19.17 -13.39 -8.09 -14.02
0.76 -4.045 -9.618 -25.12 -20.76 -5.663 -12.67 -22.29 -14.25 -15.09 -1.798 -10.32 -5.417 -16.85 -13.84 3.955 -12.31
0.765 -0.08989 -3.73 -21.98 -19.19 -1.753 -3.865 -12.13 -9.393 -12.72 -0.5393 -3.697 4.557 -8.34 -9.348 12.04 -4.944
0.77 1.438 -0.08989 -14.25 -14.43 0 2.427 2.202 -0.4944 -7.179 -1.079 1.376 11.18 3.353 -2.607 15.73 4.315
0.775 1.258 1.843 -5.303 -8.404 1.034 6.607 13.89 7.506 -1.505 -1.708 5.245 13.67 12.04 2.697 15.55 10.7
0.78 1.258 3.551 -0.4045 -3.91 2.112 8.629 17.26 9.978 1.204 -1.978 7.738 12.47 13.58 4.404 13.03 12.04
0.785 2.067 5.888 0.2697 -1.888 3.056 9.348 12.45 6.247 0.3009 -1.798 8.77 9.544 9.802 3.775 10.88 10.52
0.79 2.876 8.36 1.124 -1.483 3.64 10.07 4.539 -0.4494 -2.579 -1.618 9.028 7.652 5.331 2.876 10.25 9.528
0.795 3.236 9.753 3.461 -1.663 3.685 11.55 -0.7191 -6.247 -5.288 -1.888 9.028 7.222 3.353 2.966 9.438 10.79
0.8 3.236 8.989 4.18 -1.888 3.056 12.99 -1.303 -8.674 -6.491 -3.236 8.684 7.652 3.869 4.045 7.191 13.66
0.805 2.427 6.112 2.292 -1.753 2.067 13.57 1.438 -7.011 -5.632 -5.034 8.082 8.684 6.534 5.483 5.663 16.72
0.81 0.809 2.337 0.4494 -0.9438 1.303 12.94 4.225 -1.978 -3.138 -5.843 7.05 10.92 10.66 6.742 7.461 18.52
0.815 -1.258 -0.4944 -0.9888 -0.2247 0.4494 9.888 4.404 3.955 0.2579 -5.663 4.729 13.41 13.93 7.551 10.61 17.98
0.82 -3.506 -2.202 -3.955 -0.2247 -1.798 3.416 1.843 8.494 3.697 -5.483 0.4299 13.76 14.62 8 10.88 15.1
0.825 -6.292 -3.685 -7.91 -0.9438 -5.753 -5.079 -1.348 10.7 6.534 -6.112 -4.815 11.09 13.24 8.09 7.011 10.61
0.83 -9.258 -5.258 -9.393 -1.663 -9.483 -11.87 -2.921 10.43 7.91 -6.472 -8.598 6.191 10.58 6.831 0.1798 4.584
0.835 -10.52 -5.843 -8.045 -1.933 -10.43 -14.52 -3.146 7.101 7.007 -5.303 -9.544 -0.6019 5.073 3.326 -7.82 -3.775
0.84 -8.539 -4.539 -6.787 -2.202 -8.315 -13.71 -4 0.9438 3.611 -2.697 -8.168 -8.942 -4.127 -2.427 -14.92 -13.84
0.845 -4.764 -2.247 -5.798 -2.292 -4.899 -11.87 -6.157 -6.202 -1.032 0.5393 -5.847 -16.77 -14.62 -8.629 -17.44 -22.47
0.85 -2.247 -0.764 -2.337 -1.393 -2.157 -10.65 -8.674 -11.01 -5.03 3.416 -3.181 -20.81 -22.18 -12.76 -13.93 -26.88
0.855 -2.876 -1.303 3.056 0.3596 -1.169 -10.2 -9.888 -11.69 -6.835 5.303 -0.4299 -20.12 -24.68 -13.93 -7.371 -25.89
0.86 -5.303 -3.73 6.067 2.067 -1.663 -9.843 -8.315 -8.18 -6.019 6.022 2.149 -15.56 -22.18 -12.13 -1.438 -20.58
0.865 -7.191 -6.742 5.798 3.326 -1.843 -7.73 -3.326 -1.393 -2.966 6.112 5.073 -8.254 -14.87 -8.18 3.236 -12.58
0.87 -6.831 -8.315 5.798 4.584 0.3146 -2.562 4.404 6.966 1.376 7.371 8.426 0.9458 -4.127 -2.966 7.91 -3.685
0.875 -3.416 -7.326 7.506 6.157 5.079 4.584 12.27 14.29 5.89 9.798 12.12 10.32 6.448 2.337 12.22 4.045
0.88 1.798 -4.18 8.899 7.551 10.16 10.47 17.03 18.2 9.458 12.13 15.05 17.37 13.67 7.011 15.28 10.07
0.885 5.843 -0.9438 9.663 8.719 13.08 13.35 17.03 18.34 11.52 13.21 16.68 21.15 16.94 10.34 17.35 14.02
0.89 6.742 1.258 11.46 9.573 13.12 14.07 12.85 15.6 11.91 12.67 17.37 21.92 17.11 11.42 18.25 15.28
0.895 5.393 2.607 12.99 9.169 11.24 13.84 6.382 10.61 10.58 10.79 16.34 18.66 13.5 9.079 15.1 12.13
0.9 4.584 3.73 10.74 6.831 8.494 12.63 0.3596 4.225 7.523 7.64 12.3 10.49 6.019 3.416 6.382 4.494
0.905 4.854 4.629 5.663 3.146 5.708 10.25 -2.787 -2.022 3.654 3.775 5.761 -0.2579 -2.665 -3.685 -5.034 -4.494
0.91 5.393 5.213 2.966 0.1798 4.18 7.506 -2.202 -6.202 0.3439 0.809 -0.7738 -9.372 -8.856 -9.438 -14.02 -11.6
0.915 5.573 5.573 3.865 -1.483 4.225 5.079 0.08989 -8.045 -1.763 -0.3596 -4.729 -14.01 -11.44 -12.22 -18.34 -15.01
0.92 5.663 5.888 4.764 -2.562 5.124 2.787 0.9888 -8.764 -2.622 -0.3596 -5.761 -15.05 -11.69 -12.04 -19.33 -15.28
0.925 5.573 5.933 3.551 -3.955 5.169 0.3596 -0.6292 -9.213 -2.751 -0.3596 -5.589 -14.7 -10.75 -10.07 -18.7 -13.93
0.93 5.034 5.528 1.753 -5.528 3.506 -2.382 -3.73 -9.573 -2.837 -1.258 -6.362 -14.96 -9.2 -7.91 -17.98 -13.03
0.935 4.315 4.629 -0.1348 -6.921 -0.3146 -6.292 -6.562 -9.843 -3.181 -3.865 -9.888 -17.11 -8.684 -7.011 -19.24 -13.75
0.94 3.146 2.831 -3.64 -7.506 -6.202 -12 -8.18 -9.438 -3.353 -8.36 -15.99 -20.38 -9.372 -6.742 -21.57 -15.1
0.945 0.4494 -0.5393 -7.551 -6.607 -13.03 -18.2 -8.449 -7.011 -2.235 -13.39 -21.49 -21.41 -8.77 -5.483 -20.76 -14.74
0.95 -4.944 -5.843 -8.989 -4.18 -18.25 -21.93 -8.18 -2.157 0.7308 -16.54 -22.44 -16.68 -4.815 -2.067 -13.93 -12.04
0.955 -11.87 -12.09 -9.124 -1.843 -20 -21.44 -8.449 2.966 4.385 -16.36 -17.8 -7.394 0.4299 2.607 -3.416 -8.629
0.96 -17.35 -17.89 -12.36 -1.843 -18.43 -17.8 -9.258 5.258 6.362 -13.66 -9.888 1.978 3.611 5.843 5.843 -6.112
0.965 -19.69 -21.84 -18.74 -4.36 -14.97 -12.94 -9.303 3.416 5.03 -9.888 -2.064 8.254 3.525 6.472 12.31 -4.764
0.97 -18.52 -22.7 -23.33 -7.551 -10.65 -7.865 -7.371 -1.079 0.6448 -5.933 3.955 11.35 1.892 4.674 16.9 -3.416
0.975 -13.93 -19.1 -23.64 -9.843 -6.112 -2.921 -4.494 -6.337 -5.073 -2.517 7.91 12.12 -0.7738 1.528 20.13 -2.067
0.98 -6.831 -11.42 -22.11 -10.92 -2.472 1.303 -3.326 -11.24 -10.19 -0.5393 9.974 11.26 -4.385 -1.438 21.3 -1.258
0.985 0.08989 -2.427 -20.27 -11.55 -0.08989 4.584 -5.798 -16.09 -13.97 0.2697 10.83 9.2 -8.684 -3.685 20.85 -1.528
0.99 3.865 4.584 -17.66 -12.54 1.528 7.326 -12.04 -21.89 -17.32 0.809 11.01 6.362 -13.33 -6.022 18.61 -3.596
0.995 3.596 7.416 -15.73 -14.92 2.876 8.539 -20.81 -30.02 -21.67 1.708 10.32 1.548 -19.35 -9.438 13.12 -7.73
1 1.079 5.618 -17.89 -18.83 3.551 6.787 -30.07 -39.55 -26.91 2.247 7.824 -5.589 -25.97 -13.39 4.315 -12.4
1.005 -2.427 0.2247 -22.97 -22.61 2.697 1.753 -36.81 -45.98 -30.31 1.708 3.697 -12.55 -29.06 -15.1 -4.135 -14.29
1.01 -5.933 -6.067 -25.66 -23.15 0.5393 -4.135 -38.29 -43.96 -28.07 0.08989 -0.172 -15.13 -24.07 -12.13 -8.36 -11.24
1.015 -7.73 -10.16 -23.51 -18.79 -2.112 -8.404 -33.26 -31.28 -18.44 -1.978 -2.665 -11.35 -11.35 -4.315 -8.27 -3.775
1.02 -7.011 -10.16 -18.25 -10.25 -4.315 -9.888 -22.52 -11.19 -3.482 -4.225 -3.353 -2.837 5.073 6.022 -5.663 6.382
1.025 -4.764 -6.876 -10.61 0.5843 -5.393 -8.629 -8.135 10.47 12.04 -5.573 -2.751 7.824 20.72 15.55 -1.348 16.72
1.03 -3.056 -2.787 0.2697 10.88 -4.719 -5.528 6.472 27.19 22.91 -4.944 -1.376 17.8 31.9 21.39 4.045 24.63
1.035 -2.427 0.1348 11.01 17.35 -3.146 -2.697 16.85 34.34 26.14 -2.787 -0.6878 23.47 35.51 22.02 8.27 27.69
1.04 -2.517 0.6742 15.46 17.89 -2.562 -2.697 20.31 31.37 22.31 -0.9888 -2.407 22.78 30.69 18.25 9.079 25.44
1.045 -2.876 -0.9888 12.99 13.66 -4.18 -5.393 17.62 22.43 14.83 -0.5393 -6.362 17.2 21.32 12.22 7.73 19.96
1.05 -3.146 -2.652 9.079 8.719 -6.202 -7.551 12.76 13.71 7.91 -0.7191 -10.06 10.75 12.12 6.292 6.921 14.11
1.055 -1.618 -1.483 8.36 6.382 -6.022 -6.292 9.258 9.034 3.783 -0.4494 -11.26 5.675 4.901 1.438 6.562 9.079
1.06 2.517 3.685 10.61 7.416 -2.742 -1.213 8.494 8.315 2.364 -0.08989 -9.888 2.064 -1.118 -2.427 5.213 4.854
1.065 7.64 11.24 15.24 10.61 2.427 6.112 10.38 9.843 2.364 -0.3596 -6.706 -0.4299 -5.933 -5.213 2.697 1.079
1.07 11.24 18.74 22.38 13.98 7.506 14.11 14.25 11.55 2.407 -1.348 -2.493 -1.634 -8.684 -6.742 0.1798 -1.888
1.075 12.76 24.85 29.39 16.04 11.15 21.8 19.33 12.13 2.192 -2.157 2.321 -1.376 -9.286 -7.281 -2.247 -4.225
1.08 13.48 29.84 32.54 16.49 13.35 28.45 24.99 11.96 2.192 -1.798 7.48 0.3439 -7.652 -6.472 -3.955 -4.674
1.085 15.01 34.07 32.54 16.76 15.42 34.29 30.88 12.67 3.224 1.169 13.5 3.955 -3.009 -3.865 -2.517 -2.337
1.09 17.17 37.21 33.62 18.07 18.65 39.51 35.37 15.15 5.546 6.921 19.95 9.2 3.869 -0.1798 2.337 1.348
1.095 19.06 38.02 35.19 18.97 21.98 41.84 35.69 17.39 7.609 13.21 24.42 13.07 8.684 2.517 6.831 2.787
1.1 18.7 34.16 31.64 16.99 22.11 37.57 29.75 16.09 7.394 16.18 23.56 11.87 7.222 2.067 6.292 -0.08989
1.105 13.93 24.18 21.26 11.51 16.54 25.3 18.83 10.02 4.041 13.93 16.34 5.159 0.3439 -1.438 1.348 -5.753
1.11 4.584 9.618 8.449 4.944 6.517 8.09 6.292 1.618 -1.419 8.09 5.675 -3.095 -7.222 -6.202 -3.865 -10.16
1.115 -5.573 -5.079 -1.978 0.4494 -3.73 -9.258 -4.629 -5.933 -6.663 1.888 -4.815 -9.544 -11.44 -9.438 -6.202 -9.978
1.12 -11.87 -15.6 -9.393 -1.124 -10.79 -22.79 -12.9 -10.25 -9.286 -2.607 -12.64 -12.47 -10.58 -8.899 -5.034 -4.225
1.125 -12.94 -20.49 -13.12 -0.6742 -13.35 -30.2 -18.34 -10.34 -8.469 -5.034 -16.59 -11.26 -4.385 -3.955 -0.4494 5.483
1.13 -11.24 -21.03 -12.76 -0.7191 -12.22 -30.38 -20.49 -7.281 -4.901 -5.663 -16.42 -5.761 5.675 3.596 5.933 15.82
1.135 -9.348 -19.46 -11.64 -3.416 -9.303 -24.18 -18.97 -3.326 -0.7308 -5.124 -12.38 2.493 15.65 10.79 11.6 23.64
1.14 -8.719 -17.84 -14.29 -8.854 -6.517 -14.43 -13.35 -0.1798 2.364 -3.865 -5.417 11.52 22.61 15.46 14.65 27.87
1.145 -9.618 -17.17 -19.24 -14.02 -4.225 -4.27 -4.315 2.427 3.998 -1.528 3.353 19.78 26.57 17.35 16.99 29.66
1.15 -10.79 -16.99 -20.4 -15.33 -1.798 4 5.618 5.798 4.901 2.517 12.38 26.05 28.89 17.35 19.96 29.84
1.155 -9.978 -16 -15.91 -12.31 0.9438 8.18 12.63 9.169 5.632 7.191 18.4 27.77 27.86 15.82 21.21 27.24
1.16 -6.742 -13.89 -10.16 -7.865 2.742 6.427 13.71 10.29 5.933 10.07 17.97 22.27 21.75 12.4 17.08 20.58
1.165 -2.966 -11.64 -6.652 -4.944 2.157 -0.3146 9.573 8.09 5.159 9.348 10.92 10.66 11.26 7.461 7.371 10.16
1.17 -1.258 -10.2 -4.674 -4.27 -0.4944 -8.539 3.281 3.011 3.095 5.843 0 -3.353 -0.6019 1.528 -4.764 -1.798
1.175 -1.888 -9.663 -3.416 -4.899 -4.045 -15.1 -2.202 -3.82 -0.2149 1.258 -11.01 -16.42 -12.12 -4.764 -16.81 -13.39
1.18 -2.966 -9.393 -3.64 -5.213 -7.281 -19.19 -6.022 -11.01 -4.256 -3.416 -20.03 -27.34 -22.27 -10.34 -27.15 -22.47
1.185 -2.966 -8.719 -3.506 -4.09 -9.573 -20.81 -8 -16.58 -8.082 -7.64 -26.22 -34.74 -29.15 -14.2 -33.35 -27.42
1.19 -1.169 -6.876 0.1348 -1.348 -9.798 -19.01 -7.82 -18.92 -10.66 -10.34 -28.8 -37.32 -31.04 -15.73 -34.07 -27.96
1.195 2.337 -2.921 6.022 1.438 -7.551 -13.21 -5.438 -18.16 -11.87 -11.24 -27.69 -34.99 -28.8 -15.46 -31.28 -25.44
1.2 7.64 2.966 9.303 2.517 -3.281 -4.36 -1.258 -15.51 -11.61 -10.34 -23.13 -29.23 -24.5 -13.75 -27.78 -21.39
1.205 12.58 9.258 8.944 1.978 1.798 5.663 4.09 -11.69 -9.845 -8.18 -15.82 -21.06 -18.66 -10.88 -23.28 -16.72
1.21 15.64 14.47 8.989 1.753 6.652 14.92 9.258 -6.876 -6.663 -4.404 -6.706 -11.09 -11.61 -7.101 -16.27 -11.69
1.215 16.54 18.02 11.51 2.831 10.61 21.08 12.49 -1.933 -2.493 0.1798 2.493 -0.9458 -4.901 -3.416 -7.281 -7.011
1.22 16.63 20.27 13.98 4.719 12.94 22.34 13.03 2.562 1.892 4.225 9.888 7.394 0.2579 -0.4494 1.978 -2.607
1.225 16.09 21.44 14.97 6.787 13.89 19.91 12 7.146 6.105 7.73 15.39 14.53 5.503 2.247 11.6 2.427
1.23 15.1 21.66 15.87 8.36 14.79 17.12 11.78 12.49 9.845 11.6 20.72 21.75 12.38 5.124 21.84 9.079
1.235 14.29 20.9 15.91 8.989 16.45 16.36 12.9 17.75 12.72 16.36 26.74 28.63 19.6 8.18 30.2 16
1.24 14.38 18.47 12.18 7.865 18.07 16.85 14.29 20.99 14.1 20.58 31.98 32.33 23.9 10.79 33.8 21.48
1.245 13.93 13.62 5.618 5.573 17.8 16.67 14.52 21.08 13.58 22.47 34.22 31.12 23.9 12.22 32.54 24.18
1.25 11.33 6.562 0.5843 3.326 15.1 14.43 12.67 18.07 11.09 21.21 31.98 25.36 20.12 12.13 28.31 23.37
1.255 6.472 -1.034 -1.708 1.708 10.43 9.528 7.64 12.04 6.878 17.08 25.36 15.99 13.15 9.888 21.21 18.79
1.26 1.079 -7.281 -4.225 -0.04494 4.719 1.888 -1.393 3.461 1.419 10.97 15.65 4.471 3.869 6.022 11.42 11.06
1.265 -3.596 -11.19 -7.955 -2.112 -0.8989 -6.876 -12.81 -6.067 -4.127 4.674 5.933 -6.277 -4.643 1.708 1.528 2.607
1.27 -6.292 -12.58 -10.25 -4.36 -4.674 -13.26 -22.88 -13.57 -8.082 0.2697 -0.8598 -12.72 -9.544 -1.618 -5.753 -4.315
1.275 -6.292 -11.73 -10.56 -6.742 -5.798 -14.97 -27.33 -16.81 -9.587 -1.978 -3.783 -13.84 -10.49 -3.596 -10.25 -8.719
1.28 -3.865 -9.483 -11.33 -9.124 -5.258 -12.63 -23.37 -14.88 -8.469 -3.685 -4.643 -11.61 -8.942 -4.135 -13.39 -10.52
1.285 -1.888 -7.685 -12.31 -10.47 -4.899 -8.629 -11.6 -7.865 -5.245 -6.382 -5.589 -8.168 -5.159 -3.416 -14.83 -9.528
1.29 -2.787 -7.506 -9.978 -9.169 -6.067 -5.573 3.146 1.978 -0.8598 -9.708 -7.48 -4.987 0.2579 -1.798 -13.75 -6.742
1.295 -6.292 -8.674 -4.18 -5.483 -8.719 -5.348 13.62 10.2 2.88 -12.4 -10.32 -3.783 4.643 -0.4494 -11.42 -4.494
1.3 -9.798 -9.888 0.764 -1.258 -12.27 -8.494 14.34 12.63 4.729 -13.93 -13.67 -6.019 5.073 -0.4494 -10.16 -4.404
1.305 -10.97 -9.888 2.921 1.708 -15.19 -12.63 6.517 9.034 4.299 -14.38 -16.42 -10.15 2.064 -1.888 -9.978 -6.742
1.31 -9.618 -7.64 4.629 3.551 -15.46 -13.57 -3.64 2.831 2.708 -13.75 -17.28 -13.15 -1.892 -3.955 -9.888 -10.25
1.315 -6.382 -2.697 6.697 4.854 -12.49 -9.798 -10.07 -2.112 1.075 -12.85 -15.99 -13.84 -5.675 -6.022 -10.88 -13.93
1.32 -2.337 3.64 7.416 6.292 -7.955 -4 -11.24 -4.09 0.129 -12.49 -14.01 -13.58 -9.114 -7.64 -13.48 -16.63
1.325 0.6292 9.213 7.506 8.584 -4.449 0 -9.618 -3.326 -0.08598 -12.22 -11.95 -13.33 -11.61 -8.539 -16 -17.26
1.33 1.618 12.13 9.843 11.28 -2.607 0.8989 -8.944 -1.573 -0.08598 -10.34 -9.544 -13.15 -12.55 -8.809 -16.18 -16.45
1.335 1.978 12.4 12.94 12.49 -1.303 -0.2247 -10.56 -1.213 -0.8598 -5.933 -6.277 -13.41 -13.07 -9.169 -15.37 -15.73
1.34 3.056 10.74 11.78 9.888 0.5393 -1.124 -12.09 -2.921 -2.665 -0.1798 -2.321 -14.27 -13.76 -9.438 -15.82 -15.91
1.345 4.135 7.416 5.169 3.91 3.685 0.1348 -9.034 -4.764 -4.428 5.393 2.149 -14.01 -12.55 -8.18 -16.54 -15.01
1.35 3.416 2.742 -2.202 -2.382 7.685 4.494 0.4045 -4.315 -4.514 10.43 7.824 -9.888 -7.05 -4.404 -14.11 -10.7
1.355 0.809 -2.831 -7.236 -6.652 11.42 9.978 11.87 -1.753 -2.622 14.83 14.44 -1.634 1.376 1.079 -6.831 -2.697
1.36 -2.247 -8.315 -11.15 -8.584 13.26 13.03 17.75 -0.1348 -0.129 18.16 20.29 7.996 8.942 6.202 3.865 6.382
1.365 -4.225 -13.03 -14.47 -9.483 12.49 11.96 12.94 -1.888 1.075 19.78 23.56 15.73 12.55 8.449 15.1 12.49
1.37 -4.944 -16.04 -16 -10.43 10.38 8.09 -1.213 -7.326 -0.2149 19.42 23.04 19.17 11.52 6.472 22.65 12.4
1.375 -4.944 -16.67 -16.9 -12.45 8 3.371 -18.7 -14.88 -3.783 16.36 18.23 16.42 5.847 0.9888 21.48 5.303
1.38 -4.494 -15.37 -19.64 -14.83 5.393 -1.573 -32.31 -21.98 -7.996 10.52 9.544 7.48 -2.837 -5.483 10.61 -5.483
1.385 -4.944 -13.53 -22.7 -15.6 1.798 -6.292 -37.84 -25.66 -10.58 2.876 -0.6878 -4.213 -10.66 -9.978 -3.955 -14.56
1.39 -6.742 -11.91 -21.03 -13.03 -2.427 -9.798 -35.6 -24.58 -10.27 -4.045 -8.942 -13.24 -14.1 -11.06 -14.29 -18.25
1.395 -8 -10.2 -13.98 -8.18 -6.202 -11.28 -29.53 -20.09 -7.824 -8.719 -13.24 -17.2 -14.19 -9.888 -17.53 -17.44
1.4 -7.371 -7.461 -6.742 -3.82 -8.899 -11.37 -23.64 -14.47 -4.944 -11.51 -14.19 -17.02 -13.24 -8.449 -16.09 -15.19
1.405 -5.573 -4.045 -2.427 -1.663 -10.65 -10.74 -18.34 -7.82 -2.278 -13.39 -13.58 -14.27 -11.44 -6.831 -13.12 -12.94
1.41 -5.213 -0.809 0.5393 -0.5393 -11.55 -9.348 -11.69 1.213 0.7738 -14.38 -12.55 -9.286 -6.878 -4.135 -9.528 -10.07
1.415 -6.921 1.438 3.056 1.079 -11.69 -7.596 -2.787 12.67 4.858 -14.47 -12.04 -3.525 0.4299 0.5393 -6.562 -5.483
1.42 -8.989 2.472 3.73 3.955 -11.87 -6.697 6.517 24.04 9.587 -14.11 -12.64 1.548 8.426 6.562 -3.775 1.258
1.425 -9.708 2.472 3.416 7.551 -12.31 -6.921 13.12 31.82 13.54 -13.75 -14.19 5.073 15.3 12.31 0.2697 9.258
1.43 -8.09 2.517 5.079 10.74 -11.96 -7.146 15.15 33.57 15.26 -12.76 -15.05 7.996 19.86 15.91 6.831 16.18
1.435 -4.045 4.225 8.539 12.09 -9.978 -6.472 13.48 28.9 14.32 -10.97 -14.44 10.49 20.72 16.18 13.57 20.04
1.44 0.9888 7.82 10.52 11.1 -6.742 -4.809 11.46 20.54 11.78 -8.36 -12.04 12.64 18.23 14.02 17.8 20.94
1.445 5.034 12.09 10.83 9.528 -3.146 -1.618 13.48 13.53 9.716 -5.213 -7.738 15.65 15.56 11.69 20.49 20.85
1.45 6.292 15.6 13.08 9.843 0.3146 4.764 21.08 11.55 9.415 -1.348 -1.634 20.72 15.22 10.52 23.73 21.12
1.455 5.933 17.98 17.39 12 3.775 13.53 30.88 13.57 10.06 2.697 5.159 25.97 15.82 9.888 26.52 20.94
1.46 6.382 19.06 19.33 13.71 6.472 21.17 36.49 15.01 9.63 5.393 10.66 27.94 14.01 8.36 26.61 19.24
1.465 7.461 17.89 16.54 12.85 7.461 23.82 33.93 12.4 6.964 5.933 13.67 25.36 9.974 6.112 23.91 16.45
1.47 7.281 13.57 11.01 9.213 6.787 20.27 23.69 6.022 2.751 5.124 14.53 20.12 6.362 4.045 20.58 14.11
1.475 4.584 6.337 4.09 3.955 4.809 12.04 9.843 -1.843 -1.333 3.775 13.67 14.1 4.299 3.056 16.81 12.49
1.48 0.1798 -2.247 -4.584 -1.124 1.933 1.888 -3.146 -8.584 -4.127 1.169 10.23 7.48 2.493 2.517 11.33 10.16
1.485 -4.225 -9.888 -12.31 -4.36 -1.438 -6.652 -12.31 -12.72 -5.632 -2.787 3.869 0.3439 -0.4299 1.169 4.135 5.663
1.49 -6.831 -14.07 -14.2 -4.629 -4.225 -10.79 -17.12 -14.56 -6.749 -7.461 -4.385 -7.136 -5.331 -1.888 -3.865 -1.438
1.495 -6.112 -13.39 -10.07 -3.191 -5.483 -11.1 -19.15 -15.96 -8.598 -11.15 -12.98 -14.87 -12.72 -6.562 -12.67 -10.16
1.5 -2.517 -9.528 -5.393 -2.157 -5.663 -10.61 -19.46 -17.57 -11.01 -12.94 -19.86 -22.27 -20.81 -11.06 -21.39 -17.26
1.505 0.4494 -6.292 -3.551 -2.427 -5.933 -11.37 -17.12 -17.39 -12.42 -12.22 -23.13 -26.91 -25.54 -12.94 -26.79 -19.78
1.51 -0.4494 -6.427 -3.236 -3.146 -6.517 -12.58 -10.97 -13.12 -11.26 -9.169 -21.58 -26.31 -23.9 -11.51 -26.25 -17.62
1.515 -4.854 -9.663 -3.461 -3.506 -7.101 -13.12 -2.787 -5.573 -7.523 -5.034 -16.77 -21.49 -18.49 -8.539 -21.57 -13.75
1.52 -10.16 -13.53 -5.393 -3.506 -7.596 -13.08 3.146 1.034 -3.052 -1.528 -11.26 -16.42 -14.19 -6.382 -16.9 -11.78
1.525 -13.3 -15.82 -7.865 -3.191 -8 -13.21 3.101 3.461 0.2149 0.809 -7.222 -13.24 -12.47 -5.573 -13.48 -11.78
1.53 -13.84 -15.91 -7.551 -2.112 -7.326 -13.21 -2.787 1.303 2.064 3.056 -3.955 -10.92 -11.01 -4.674 -9.798 -11.24
1.535 -12.22 -13.89 -4.584 -0.4494 -4.944 -12.09 -10.65 -2.787 3.267 5.843 -0.08598 -7.566 -6.964 -2.157 -5.303 -7.73
1.54 -8.809 -10.34 -2.607 1.124 -1.393 -8.539 -14.47 -5.034 5.159 8.27 4.815 -1.806 0.5159 2.427 -0.08989 -0.6292
1.545 -4.854 -5.528 -1.708 2.787 2.742 -1.303 -9.708 -2.292 8.641 9.258 10.66 7.308 11.44 8.629 6.831 9.888
1.55 -0.2697 1.303 2.202 5.079 7.281 10.2 3.596 5.213 13.07 8.899 16.68 19.52 23.73 14.56 16.18 21.66
1.555 5.393 10.47 9.843 7.326 12.18 23.06 19.96 13.8 16.42 8.27 21.41 31.21 33.02 18.07 25.44 32.27
1.56 12.58 20.18 16.36 7.775 16.58 32.31 31.73 18.52 16.64 8 23.21 38.09 35.85 18.43 31.19 39.37
1.565 19.15 26.61 18.11 5.618 19.28 34.47 34.74 17.3 13.24 8.36 22.1 38.17 32.93 16.36 32.72 42.07
1.57 22.2 26.88 15.6 1.663 19.82 30.16 29.62 11.55 7.222 9.438 19.69 33.45 27 12.85 31.01 39.82
1.575 21.12 21.48 9.438 -3.416 18.25 22.38 19.82 3.371 0.3439 10.43 17.54 26.4 19.26 8.449 26.34 32.36
1.58 17.26 13.12 -0.5843 -9.169 14.43 13.48 8.899 -5.438 -6.148 10.07 15.48 18.49 9.544 3.775 19.06 20.85
1.585 11.87 4.494 -11.42 -14.61 8.719 5.483 -0.4494 -13.17 -11.22 8 12.98 11.18 -0.4299 -0.4494 11.69 8.719
1.59 5.573 -2.697 -17.48 -18.65 2.427 -0.4045 -7.416 -18.11 -14.32 5.303 9.888 5.503 -8.168 -3.146 7.101 -0.8989
1.595 -0.2697 -7.506 -17.93 -20.63 -2.652 -4 -12.09 -20.31 -15.91 3.236 6.277 0.6019 -13.41 -4.944 4.584 -7.461
1.6 -4.135 -9.528 -16.49 -20.63 -5.708 -5.933 -14.97 -20.81 -16.47 1.798 2.407 -5.417 -17.71 -6.831 1.618 -12.22
1.605 -5.393 -8.449 -14.7 -18.25 -6.472 -6.337 -15.37 -20.09 -16.29 1.169 -1.118 -12.47 -21.15 -9.348 -3.056 -16.63
1.61 -3.955 -4.27 -9.933 -13.12 -4.539 -4.674 -12.54 -17.93 -15.05 1.888 -3.181 -18.66 -22.96 -12.04 -8.629 -21.21
1.615 0.08989 2.472 -2.382 -6.382 -0.08989 -1.393 -7.461 -14.02 -12.17 4.045 -3.955 -23.21 -23.39 -14.2 -15.73 -25.98
1.62 5.753 9.393 3.82 0 4.989 1.303 -1.663 -7.596 -7.265 6.742 -4.643 -26.4 -22.18 -14.29 -24.54 -29.48
1.625 10.79 12.94 6.921 5.528 8.539 1.933 4.27 3.056 0.172 8.989 -5.417 -27.26 -17.37 -10.97 -31.82 -29.84
1.63 12.4 11.6 9.573 11.01 9.573 1.303 11.06 18.7 9.759 10.34 -5.159 -23.64 -7.308 -4.494 -32.99 -25.8
1.635 10.7 7.281 13.17 16.94 8.315 0.3146 18.65 36.22 19.3 10.79 -2.837 -15.3 5.675 3.056 -27.06 -18.25
1.64 7.64 3.146 15.78 22.07 5.303 -1.034 25.44 49.57 25.79 9.528 0.172 -4.729 16.77 8.899 -16.81 -9.438
1.645 4.135 1.079 16.76 24.49 1.438 -3.191 29.03 53.75 27 6.652 2.064 4.729 23.13 11.69 -5.753 -1.079
1.65 0.8989 0.6742 17.62 23.06 -1.753 -4.944 27.78 47.37 22.66 2.966 1.978 11.09 24.68 11.24 3.236 5.213
1.655 -1.618 0.8989 17.12 17.48 -2.966 -4.719 21.57 32.85 14.4 -0.5393 0.2579 13.24 21.67 8.449 7.101 8.629
1.66 -2.067 0.9438 12.36 9.034 -2.562 -1.933 12.45 15.15 5.116 -3.506 -1.634 11.09 15.3 4.854 5.573 9.528
1.665 -1.079 0.9888 4.944 1.169 -1.798 3.371 4.315 0.1348 -2.536 -5.753 -2.235 7.566 8.512 1.978 2.697 9.888
1.67 0 2.112 0.7191 -3.281 -1.528 9.978 -0.1348 -8.944 -7.136 -7.281 -1.032 5.761 3.869 0.4494 3.146 11.15
1.675 0.1798 4.809 1.124 -4.135 -2.292 14.47 -1.933 -13.44 -9.587 -8.899 -0.5159 4.987 0.08598 -0.4494 5.933 11.96
1.68 -0.9888 7.551 1.573 -4.36 -4.719 12.45 -4.629 -17.53 -11.95 -12.22 -3.869 1.462 -5.503 -2.067 6.472 10.52
1.685 -4.225 6.652 -1.978 -6.562 -9.079 2.921 -10.83 -23.42 -15.56 -17.35 -11.61 -6.191 -12.9 -4.854 2.966 6.202
1.69 -9.528 0.1798 -8.494 -10.88 -14.07 -10.29 -19.55 -30.07 -19.73 -22.29 -19.43 -15.48 -19.43 -8 -2.427 0.3596
1.695 -15.28 -10.16 -16.22 -16 -17.98 -21.44 -27.73 -34.74 -22.83 -24.18 -22.18 -22.18 -23.21 -10.43 -6.472 -5.034
1.7 -18.79 -19.91 -24.22 -20.49 -19.69 -26.7 -32 -35.19 -23.34 -22.11 -17.63 -23.56 -24.07 -11.51 -6.831 -8.18
1.705 -19.33 -24.81 -28.94 -22.43 -18.92 -25.08 -30.61 -30.88 -20.85 -16.18 -7.05 -18.83 -21.75 -10.79 -2.157 -8.27
1.71 -17.44 -22.88 -25.8 -20.67 -14.97 -17.53 -24.09 -23.33 -16.21 -7.64 5.589 -9.716 -17.11 -9.169 5.753 -7.281
1.715 -13.3 -14.92 -15.91 -15.87 -7.82 -6.921 -15.46 -16.27 -11.78 1.528 16.08 -0.6878 -13.41 -8.539 11.69 -7.73
1.72 -7.101 -4.539 -5.933 -9.888 0.9438 2.876 -8.27 -12.58 -9.329 9.079 21.24 3.783 -13.33 -9.708 10.7 -11.15
1.725 -0.1798 3.551 0.2247 -4.27 9.124 9.303 -3.73 -11.96 -8.899 13.93 21.15 3.353 -15.39 -11.69 4.045 -15.64
1.73 4.854 6.472 3.73 0.3146 14.65 11.96 -1.438 -11.15 -8.641 16.54 18.06 1.032 -15.3 -12.49 -3.146 -18.43
1.735 7.011 4.404 5.438 2.966 16.54 11.06 -0.7191 -7.596 -6.534 17.26 13.58 -0.3439 -10.92 -10.7 -7.64 -17.8
1.74 6.562 -0.5393 3.73 2.831 14.43 6.517 -1.708 -1.618 -1.849 16 8.34 -0.5159 -3.181 -6.382 -9.438 -14.11
1.745 3.506 -6.427 -0.6292 0.809 9.528 -0.1348 -3.64 5.483 4.772 13.12 3.095 0.6878 6.706 -0.3596 -8.27 -8.18
1.75 -1.348 -11.96 -4 -1.303 4.18 -5.753 -5.393 11.51 11.39 10.16 0 3.525 16.94 5.663 -4.135 -1.528
1.755 -6.382 -16.18 -5.843 -2.427 0.7191 -8.135 -6.247 14.34 15.65 8.18 0.2579 6.792 24.07 9.978 0.8989 4.225
1.76 -9.978 -18.88 -8.719 -2.966 -0.8989 -7.865 -6.337 13.39 16.51 6.652 2.579 8.598 25.88 11.87 4.225 7.82
1.765 -11.78 -20.27 -12.13 -3.011 -1.663 -6.742 -5.753 10.88 14.75 4.944 4.729 8.77 23.82 11.96 5.933 9.438
1.77 -12.49 -19.73 -11.51 -1.798 -2.337 -5.753 -4.27 10.11 12.68 2.876 4.987 8.34 21.15 11.51 7.281 9.708
1.775 -11.6 -15.91 -5.618 0.8989 -3.056 -5.438 -2.337 12.18 11.82 0.1798 2.064 7.48 18.57 10.88 7.101 8.719
1.78 -8.18 -8.674 1.663 4.135 -4.09 -6.562 -0.8539 14.97 11.91 -3.326 -4.471 4.471 14.79 9.618 3.326 6.382
1.785 -3.416 -0.3596 6.966 6.292 -6.022 -9.258 -0.7191 15.51 11.39 -7.91 -13.41 -1.29 9.114 7.461 -3.596 2.966
1.79 0.2697 5.798 10.07 6.292 -8.719 -12.54 -2.337 11.69 8.426 -12.94 -22.61 -9.028 2.235 4.135 -11.24 -0.9888
1.795 1.798 8.135 10.43 3.596 -11.64 -15.6 -6.067 3.056 2.536 -17.44 -30.01 -17.37 -5.933 0.08989 -17.8 -5.753
1.8 1.708 7.011 6.876 -0.9438 -14.43 -18.34 -11.33 -8.494 -5.03 -20.85 -34.39 -24.68 -14.79 -4.225 -22.29 -10.52
1.805 0.6292 4.629 2.112 -4.449 -16.31 -19.55 -15.33 -18.74 -11.69 -22.47 -34.82 -28.2 -22.01 -7.64 -22.56 -13.84
1.81 -0.3596 3.551 1.528 -4.404 -15.96 -16.99 -14.83 -23.91 -15.05 -21.66 -30.78 -25.28 -25.28 -9.528 -17.71 -15.01
1.815 0.1798 5.573 5.438 -1.034 -12.85 -10.2 -8.629 -23.91 -15.13 -18.7 -23.73 -17.45 -25.36 -10.43 -11.06 -15.01
1.82 3.775 10.2 8.944 2.742 -8.18 -1.573 1.348 -21.44 -13.5 -15.46 -17.28 -9.2 -24.68 -11.06 -7.461 -14.92
1.825 9.169 15.46 9.888 5.034 -3.371 6.472 12.54 -18.16 -11.65 -12.94 -13.41 -3.869 -23.04 -11.24 -8 -14.56
1.83 14.65 19.87 11.96 6.921 1.573 13.12 23.1 -13.21 -9.501 -10.52 -11.61 -1.118 -18.74 -10.34 -9.978 -13.12
1.835 19.6 24.22 17.39 10.56 7.056 18.74 31.37 -5.528 -5.976 -7.011 -10.06 0.3439 -12.21 -8.719 -11.6 -10.34
1.84 24.27 29.26 24 16.76 12.63 22.92 35.91 4.494 -0.7308 -2.787 -7.824 0.8598 -5.761 -6.921 -13.03 -7.551
1.845 27.69 33.75 28.81 23.87 16.9 25.17 35.51 14.47 5.46 0.7191 -5.245 1.118 -1.204 -5.663 -14.02 -6.202
1.85 28.22 35.15 30.65 28.63 18.56 25.71 29.84 20.85 10.32 2.337 -2.579 1.72 1.29 -5.034 -13.39 -6.921
1.855 25.71 31.55 27.1 27.82 17.35 24.45 19.46 20.85 11.99 1.978 -0.172 2.407 1.72 -4.674 -11.33 -8.899
1.86 21.21 22.79 16.04 20.85 14.02 21.3 6.652 14.92 10.36 0.6292 2.665 3.611 1.118 -3.506 -8 -8.989
1.865 15.19 10.88 1.169 10.92 10.02 16.99 -4.18 7.73 7.652 0.2697 7.308 7.222 3.009 -0.08989 -1.258 -4.135
1.87 7.91 -0.8989 -10.11 2.966 7.101 13.21 -9.843 4.135 6.448 2.607 14.62 15.05 9.63 5.573 9.618 5.753
1.875 0.9888 -9.124 -15.42 -1.393 5.528 10.29 -10.88 4.719 7.48 6.831 22.53 24.76 18.06 11.33 20.85 16.72
1.88 -4.315 -13.03 -18.83 -3.73 3.91 6.337 -11.37 5.663 8.813 10.43 27.34 31.04 23.21 14.92 27.15 23.73
1.885 -7.73 -14.02 -23.19 -5.933 1.213 0.764 -14.47 3.506 8.512 11.33 27.08 30.44 22.53 14.92 28.04 24.9
1.89 -9.888 -14.07 -26.02 -7.955 -1.169 -4.539 -19.69 -1.393 6.019 10.79 23.73 24.76 17.8 12.04 27.42 22.56
1.895 -10.52 -13.62 -24.76 -8.315 -1.079 -7.011 -23.64 -6.022 2.837 10.97 20.81 17.45 11.52 7.82 27.96 19.87
1.9 -8.809 -12.27 -20.27 -5.978 2.067 -6.292 -22.88 -6.787 0.6878 12.85 19.86 11.26 5.847 3.775 28.76 18.97
1.905 -5.933 -10.25 -13.08 -1.213 6.517 -3.416 -16 -2.427 0.5159 15.37 20.12 7.738 3.009 1.258 28.4 19.87
1.91 -3.685 -8.27 -3.371 4.27 9.753 0.5843 -5.079 4.764 1.806 17.08 20.12 6.534 3.955 0.7191 25.71 20.85
1.915 -2.427 -6.382 5.169 7.685 10.47 4.045 5.124 10.47 2.923 16.81 18.31 5.589 6.362 1.618 19.33 19.78
1.92 -1.618 -4.629 7.326 7.146 8.629 5.708 10.61 11.46 2.837 14.65 14.7 2.321 7.222 2.966 9.978 16.18
1.925 -1.438 -3.326 3.281 4.045 5.573 4.989 11.01 9.034 2.364 11.6 10.23 -2.751 6.362 4.315 1.169 12.04
1.93 -2.427 -2.652 -0.3146 1.169 2.787 2.382 9.124 7.101 2.622 8.989 6.105 -7.222 5.503 5.303 -3.865 8.989
1.935 -4.315 -2.517 0.3146 -0.04494 0.08989 -2.202 6.876 7.461 3.74 6.382 1.462 -10.83 4.643 5.213 -6.472 6.742
1.94 -6.652 -3.236 3.146 -0.9888 -3.955 -9.303 4.36 8.18 3.998 1.978 -5.675 -15.39 1.806 3.236 -10.61 3.506
1.945 -9.618 -5.438 5.213 -3.775 -10.2 -17.39 0.5393 6.157 1.505 -4.494 -14.87 -21.24 -3.525 -0.5393 -16.63 -1.348
1.95 -13.39 -8.629 6.157 -8.944 -16.45 -22.56 -4.629 -0.1798 -4.299 -10.88 -22.87 -26.22 -9.974 -5.753 -21.57 -7.551
1.955 -16.45 -11.24 4.809 -15.28 -19.64 -22.29 -10.43 -10.02 -11.91 -14.29 -26.48 -28.29 -17.11 -11.6 -24.18 -14.29
1.96 -17.26 -11.96 -0.3596 -20.58 -18.65 -17.8 -14.79 -20.04 -18.61 -14.38 -25.28 -27.26 -23.9 -16.54 -24.9 -20.22
1.965 -16.27 -11.24 -6.652 -22.07 -15.37 -12.72 -15.15 -25.71 -21.37 -12.49 -21.49 -23.64 -27.34 -18.79 -23.46 -23.28
1.97 -14.74 -9.933 -8 -18.38 -12.36 -9.483 -10.52 -24.27 -19.22 -10.34 -17.45 -17.37 -24.68 -17.08 -18.7 -21.57
1.975 -13.03 -8.135 -3.281 -11.28 -10.79 -8.584 -3.101 -17.03 -13.58 -9.079 -14.19 -9.458 -16.85 -11.96 -11.33 -16
1.98 -9.978 -4.944 1.978 -4.899 -10.25 -8.854 3.236 -8.09 -7.308 -8.449 -11.35 -0.9458 -7.91 -5.753 -3.056 -8.989
1.985 -5.213 0.08989 4.045 -1.708 -9.124 -7.73 5.978 -0.7191 -2.407 -7.64 -7.652 8.254 -0.4299 -0.6292 5.573 -2.966
1.99 0.7191 6.831 4.18 -0.809 -5.618 -3.461 5.753 4.809 0.9458 -5.303 -2.149 18.66 5.589 2.607 14.29 0.7191
1.995 7.011 14.02 4.27 -0.08989 0.1348 3.191 4.944 9.573 3.869 -1.528 4.557 28.29 10.4 4.674 20.85 2.787
2 12.49 19.19 3.775 1.978 5.708 8.854 5.798 14.29 7.609 2.157 10.32 33.62 14.44 7.281 23.19 5.753
2.005 14.92 20 3.506 5.528 8.899 11.19 9.348 19.33 12.47 5.213 14.36 33.7 19.35 12.13 23.37 12.31
2.01 13.39 15.82 5.169 8.899 9.708 11.15 14.56 23.55 17.15 8.27 17.71 30.87 26.22 18.61 24.27 22.56
2.015 9.528 8.854 6.966 9.438 9.753 10.38 18.25 24.63 19.52 11.87 21.06 27.26 32.59 24.09 25.8 32.54
2.02 6.202 2.067 4.315 5.573 10.07 9.573 18.07 21.17 18.06 15.1 23.13 23.56 35.17 25.8 25.17 37.39
2.025 4.674 -3.101 -2.427 -1.034 10.43 8.404 14.88 15.01 13.63 16.27 22.53 19.86 33.79 23.37 21.75 35.78
2.03 4.135 -6.202 -7.91 -6.652 10.56 7.551 11.64 9.888 8.598 14.92 19.52 16.85 30.87 18.79 17.26 30.02
2.035 3.775 -7.551 -9.303 -8.764 10.38 7.461 10.29 7.91 4.987 11.96 15.65 13.76 27.17 14.29 12.85 23.64
2.04 3.506 -7.775 -9.528 -8.09 9.798 7.865 9.888 7.551 3.267 8.719 12.47 9.2 21.58 10.97 8.18 18.52
2.045 2.427 -7.865 -10.43 -6.292 8.764 8.494 8.539 6.472 2.45 6.652 11.09 3.697 14.27 8.36 3.596 14.47
2.05 0.6292 -8.18 -10.38 -4.225 8.09 9.933 5.438 3.82 1.634 7.101 12.12 -0.7738 7.05 5.663 0.5393 10.16
2.055 -1.169 -8.045 -8.404 -1.798 8.494 12.04 1.753 0.4944 0.5589 9.528 14.27 -3.267 0.6019 2.157 -1.528 3.865
2.06 -1.258 -6.742 -6.247 1.348 9.618 13.75 -0.809 -1.618 -0.08598 12.13 15.65 -4.643 -4.557 -1.528 -3.685 -3.596
2.065 0.1798 -4.18 -4.045 5.393 10.74 14.47 0 -0.764 0.4299 13.12 15.3 -5.073 -7.308 -4.225 -4.944 -9.888
2.07 1.978 -0.8989 0.4045 9.798 11.73 14.83 4.09 2.787 2.021 12.4 13.84 -4.471 -7.05 -5.034 -4.045 -13.12
2.075 3.865 3.056 6.427 12.63 12.58 15.28 8.854 5.843 3.181 10.43 11.69 -3.697 -6.019 -5.034 -2.787 -14.11
2.08 6.562 7.506 10.43 12.63 12.58 14.83 11.37 5.483 2.493 7.551 8.684 -4.299 -6.964 -5.753 -3.596 -14.47
2.085 9.528 11.51 12.31 10.38 11.19 13.3 11.51 2.067 0.4299 4.404 4.987 -5.589 -8.942 -7.101 -5.663 -14.92
2.09 11.6 14.61 15.51 8.225 8.764 11.42 10.83 -1.034 -1.419 1.888 1.806 -5.417 -9.544 -7.73 -5.663 -14.56
2.095 12.22 16.81 20.09 7.326 6.157 9.483 10.25 -1.888 -1.849 0.4494 -0.5159 -3.353 -8.34 -7.101 -3.146 -13.3
2.1 11.6 17.48 21.35 6.652 2.876 6.067 8.494 -1.483 -1.204 -1.348 -2.837 -1.548 -7.738 -5.393 -0.5393 -11.78
2.105 8.719 15.06 17.35 5.169 -1.393 0.08989 4.36 -1.843 -0.8168 -4.225 -5.933 -1.204 -8.254 -3.416 0.7191 -10.34
2.11 3.416 9.124 11.6 3.371 -5.888 -6.876 -1.393 -3.506 -1.247 -7.73 -9.2 -1.634 -8.254 -1.888 1.438 -8.719
2.115 -2.157 1.483 7.011 2.247 -8.944 -12.13 -6.202 -5.348 -2.021 -10.34 -11.44 -1.29 -6.792 -1.079 1.708 -6.652
2.12 -5.034 -4.584 3.371 2.157 -9.798 -13.98 -7.64 -5.663 -2.064 -11.87 -12.55 -0.5159 -4.213 -0.6292 0.7191 -4.404
2.125 -4.404 -6.921 0.5843 3.011 -9.124 -12.72 -5.348 -3.461 -0.5589 -12.76 -13.58 -0.172 -1.118 0 -1.798 -2.517
2.13 -2.337 -5.528 0.4045 4 -8.719 -10.47 -1.798 -0.1798 1.591 -14.29 -16.16 -1.892 0.7738 0.4494 -6.022 -2.607
2.135 -1.258 -2.697 1.708 3.91 -10.16 -10.65 -1.798 0.3146 2.192 -17.26 -22.1 -8.254 -2.064 -0.7191 -13.57 -6.652
2.14 -3.056 -1.888 0.5393 1.618 -14.38 -15.96 -8.18 -5.124 -0.3869 -21.84 -31.12 -19.78 -11.09 -4.225 -24.36 -14.11
2.145 -8.18 -5.573 -3.461 -2.247 -20.13 -24.94 -19.01 -15.01 -5.632 -25.89 -39.98 -32.59 -22.61 -8.899 -33.8 -21.57
2.15 -15.37 -12.85 -6.876 -5.933 -24.4 -32.49 -28.81 -24.4 -10.88 -26.43 -43.68 -40.15 -30.18 -12.22 -36.04 -25.08
2.155 -21.3 -20 -8.854 -9.034 -24.99 -34.61 -33.57 -29.53 -14.01 -22.47 -40.41 -39.89 -31.55 -13.3 -31.64 -24.18
2.16 -23.01 -23.46 -12.58 -12.45 -22.74 -31.96 -33.21 -29.93 -14.57 -16.54 -33.02 -35.17 -29.32 -12.58 -26.43 -21.66
2.165 -21.3 -22.65 -18.2 -16.4 -20.13 -28 -30.07 -27.37 -13.37 -12.31 -26.14 -30.52 -25.97 -11.33 -24.72 -20.4
2.17 -18.52 -19.01 -21.35 -19.19 -18.38 -24.67 -25.93 -23.24 -11.18 -10.97 -22.01 -27.51 -22.27 -10.34 -26.16 -21.03
2.175 -15.55 -13.62 -19.42 -18.92 -16.36 -21.17 -21.39 -18.38 -8.34 -11.06 -19.52 -24.59 -18.4 -9.258 -27.69 -21.75
2.18 -11.33 -7.146 -14.74 -15.28 -12.27 -15.24 -15.82 -12.9 -4.686 -9.978 -15.56 -19.26 -13.84 -7.011 -25.98 -19.78
2.185 -5.663 -0.2247 -9.618 -9.258 -5.708 -5.079 -8.449 -6.427 -0.2149 -6.382 -7.48 -9.63 -7.222 -2.876 -18.34 -13.48
2.19 0.2697 5.933 -3.955 -2.652 2.517 8.584 0.04494 0.8989 4.299 0 4.901 3.697 1.806 2.697 -4.944 -4.225
2.195 5.213 9.753 0.809 2.202 10.07 21.26 6.921 7.146 7.566 7.281 18.49 16.08 9.802 7.461 9.348 4.494
2.2 8.18 9.888 1.663 3.955 14.79 27.33 9.618 10.56 8.598 12.94 28.98 22.7 13.93 9.528 19.15 9.708
2.205 8 5.888 -0.809 3.551 16.04 25.17 8.27 11.64 8.297 16.45 34.39 23.56 14.79 9.169 24.27 12.04
2.21 5.393 -0.08989 -1.978 3.416 15.64 18.56 5.843 12.63 8.254 19.06 35.85 22.87 15.91 8.27 28.22 13.48
2.215 2.876 -4.315 -0.3146 4.809 15.37 12.81 4.899 14.56 9.071 21.57 34.91 23.73 18.14 7.73 31.91 14.74
2.22 3.146 -4.404 1.483 7.011 15.28 10.11 6.112 16.54 9.931 22.47 31.73 25.28 19.43 7.191 33.26 15.28
2.225 5.663 -0.8539 2.517 9.303 13.98 9.573 8.854 17.66 9.673 20.13 26.22 25.54 18.49 6.112 31.28 14.29
2.23 8.449 4.404 5.483 11.6 11.28 9.528 12.22 17.75 7.781 14.83 19.09 23.9 15.91 4.225 26.97 12.22
2.235 10.16 9.348 10.52 13.3 7.955 8.315 14.52 16.58 4.944 8.18 11.35 20.21 11.87 1.798 21.21 9.798
2.24 11.06 12.85 13.35 13.39 4.584 4.989 13.93 13.21 1.978 1.618 3.267 14.19 6.362 -0.4494 13.66 7.551
2.245 10.79 13.48 11.06 10.79 0.764 -0.04494 9.573 7.236 -0.9458 -4.135 -4.987 6.448 0.2579 -1.798 5.483 5.663
2.25 8.09 10.38 5.393 5.438 -3.73 -5.213 2.427 -0.9888 -4.342 -8.719 -12.81 -2.064 -5.245 -2.697 -2.067 3.326
2.255 2.966 3.91 -2.157 -2.112 -8.494 -9.483 -5.753 -10.61 -9.028 -12.22 -19.17 -11.01 -10.92 -4.404 -9.348 -0.6292
2.26 -3.236 -3.865 -11.51 -10.92 -12.76 -12.72 -12.72 -19.96 -15.05 -14.74 -22.87 -19.86 -17.45 -7.64 -16.99 -5.843
2.265 -9.348 -10.74 -19.82 -18.52 -15.19 -14.25 -15.82 -26.16 -20.55 -15.19 -22.27 -25.79 -22.61 -11.24 -22.38 -10.16
2.27 -13.75 -14.34 -22.29 -22.2 -14.34 -12.4 -13.8 -26.65 -23.04 -12.49 -16.59 -25.11 -22.87 -12.94 -22.29 -10.7
2.275 -14.65 -13.44 -18.7 -21.35 -10.25 -6.831 -8.225 -22.07 -21.37 -7.011 -7.738 -18.06 -17.97 -11.6 -17.26 -7.73
2.28 -11.33 -8.944 -13.93 -17.98 -4.854 0.3146 -2.472 -15.42 -16.55 -1.528 0.4299 -8.684 -10.83 -8 -11.33 -2.966
2.285 -5.573 -3.506 -10.56 -13.66 -0.4045 6.292 1.528 -8.899 -10.4 1.708 5.073 -1.032 -3.525 -3.326 -6.562 1.708
2.29 0.08989 1.258 -6.292 -8.809 2.831 10.34 4.135 -2.921 -4.514 2.607 6.019 4.041 3.267 0.9888 -2.697 5.213
2.295 4.584 6.337 0.2697 -3.281 5.843 12.76 6.427 2.787 0.6019 2.517 5.159 6.706 7.996 3.775 0 6.562
2.3 8.899 12.85 7.056 3.056 8.989 13.71 8.809 7.865 4.772 2.247 3.439 7.05 9.114 4.674 0.6292 5.303
2.305 13.03 20.09 12.67 9.978 11.55 13.62 11.24 12.27 8.297 1.888 1.376 6.792 7.566 4.135 -0.1798 2.517
2.31 15.91 25.57 18.34 16.94 12.67 13.66 14.02 16.22 11.31 1.348 -0.08598 8.082 6.62 3.146 0 0
2.315 17.08 27.15 23.19 22.29 12.67 14.7 17.03 19.46 13.28 0.8989 0.172 11.87 7.652 2.247 1.888 -0.5393
2.32 16.81 24.27 23.64 23.82 11.87 16.13 19.96 21.35 13.76 0.809 3.095 17.11 10.32 1.708 4.854 1.438
2.325 14.83 17.71 19.33 21.35 10.88 17.35 22.43 21.93 12.9 1.798 8.856 22.87 14.1 2.067 9.438 5.663
2.33 10.79 9.528 14.25 16.63 10.29 18.07 23.73 21.48 11.18 4.584 16.25 27.77 18.14 3.236 15.73 9.888
2.335 5.663 2.247 10.25 11.51 9.978 17.48 21.98 18.97 8.942 8 21.67 29.06 19.35 4.135 20.76 11.06
2.34 1.169 -2.562 5.528 6.652 8.854 14.34 15.78 13.3 6.105 9.528 21.84 24.42 15.13 3.596 20.67 7.91
2.345 -1.888 -4.719 0.3146 2.831 6.112 9.079 6.697 5.798 3.095 8.18 16.51 15.22 7.738 1.708 16.27 3.146
2.35 -3.685 -4.494 -1.978 0.5393 2.787 4.225 -1.798 -0.764 0.5589 5.303 9.458 6.277 1.806 -0.08989 11.87 0.6292
2.355 -3.955 -2.292 -0.764 -0.5393 0.3146 1.438 -7.506 -5.124 -1.29 3.506 4.643 0 -1.204 -0.9888 9.258 1.708
2.36 -2.876 0.1348 -0.08989 -1.753 -1.303 -1.034 -11.1 -8.27 -2.966 3.146 2.235 -5.245 -3.353 -1.348 6.472 4.404
2.365 -2.427 -0.2697 -2.562 -4.09 -3.551 -5.888 -14.92 -11.78 -5.116 3.146 -0.2579 -11.95 -6.448 -1.618 1.708 5.573
2.37 -4.854 -5.528 -6.562 -7.461 -7.371 -14.25 -20.58 -15.96 -7.996 1.978 -5.331 -20.98 -10.32 -2.337 -5.483 3.506
2.375 -9.888 -14.43 -11.15 -11.82 -12.22 -24.67 -27.91 -20.58 -11.01 -0.7191 -13.15 -30.61 -14.36 -3.685 -14.29 -0.8989
2.38 -15.19 -23.51 -17.35 -16.99 -16.94 -34.52 -35.15 -24.76 -13.37 -4.494 -21.32 -38.26 -17.63 -4.944 -23.01 -5.124
2.385 -19.33 -29.62 -24.04 -21.8 -20.22 -40.4 -39.51 -26.92 -14.23 -7.371 -25.97 -40.41 -17.97 -5.303 -27.96 -6.562
2.39 -21.48 -31.42 -27.06 -24.54 -20.81 -40.04 -39.06 -26.2 -13.28 -7.91 -24.68 -35.68 -14.53 -4.135 -26.52 -5.124
2.395 -21.12 -28.85 -25.17 -24.31 -18.43 -33.84 -34.11 -23.1 -11.26 -6.382 -19.26 -26.4 -9.802 -2.787 -21.12 -3.506
2.4 -17.62 -22.97 -21.03 -21.53 -14.43 -24.85 -26.38 -18.74 -9.028 -5.393 -13.76 -17.02 -7.05 -2.607 -16.27 -4.315
2.405 -11.51 -14.74 -15.15 -16.4 -10.34 -15.24 -16.04 -12.31 -6.534 -6.382 -10.58 -8.598 -5.245 -3.326 -12.58 -6.382
2.41 -4.404 -4.629 -4.854 -8.854 -6.292 -5.079 -2.517 -2.427 -2.88 -8.09 -7.996 1.032 -1.462 -3.596 -6.562 -6.112
2.415 2.697 6.652 8.944 0.1798 -1.663 5.708 13.3 10.25 2.235 -7.82 -2.837 12.98 5.245 -2.517 3.056 -1.708
2.42 8.989 16.63 20.31 8.494 3.371 15.19 27.87 21.89 7.695 -4.404 5.933 24.76 12.04 0 14.38 5.843
2.425 12.76 21.62 25.12 14.2 7.82 21.08 37.12 28.76 11.69 1.528 16.16 32.93 16.85 3.146 24.45 13.75
2.43 12.58 19.78 24.94 17.03 10.97 22.88 39.01 29.48 13.15 7.82 24.5 35.6 19.43 6.022 31.46 19.69
2.435 9.978 13.53 21.93 17.44 12.54 21.3 33.93 24.99 12.25 12.31 27.94 32.76 19.95 8.09 33.89 22.56
2.44 7.551 7.416 16.67 15.87 12.49 17.03 24.54 17.8 9.974 13.39 25.28 26.05 18.74 9.438 31.46 23.19
2.445 6.472 4.36 10.65 13.17 10.79 11.28 14.38 11.06 7.953 11.51 18.23 18.74 17.71 10.79 27.06 23.64
2.45 5.753 4 6.966 10.29 8.36 5.618 6.247 6.652 7.05 8.989 10.32 13.67 18.31 12.58 23.55 24.45
2.455 4.944 4.494 4.854 7.146 6.607 1.393 0.7191 3.955 7.007 7.191 3.783 10.32 18.83 14.2 19.69 23.73
2.46 4.584 4.045 0.6742 3.506 5.663 -1.169 -2.876 1.169 6.878 6.022 -1.548 6.105 15.99 14.2 12.31 19.24
2.465 4.494 2.292 -5.124 0.5393 5.034 -1.573 -4.09 -1.708 6.448 4.404 -6.277 0 10.32 12.49 1.528 11.06
2.47 4.764 0.9888 -7.461 0.08989 4.539 1.079 -2.022 -3.056 6.105 2.157 -10.06 -5.933 4.385 9.708 -9.169 1.169
2.475 5.663 1.798 -4.225 2.157 4.18 5.573 2.427 -1.978 6.062 -0.3596 -12.38 -10.58 -0.9458 6.382 -17.53 -8.539
2.48 7.191 4.449 0.4944 4.989 3.191 8 6.517 0.5393 5.976 -2.876 -14.01 -14.87 -6.277 2.247 -24.09 -16.99
2.485 7.73 6.157 3.056 6.697 0.9888 5.438 7.461 3.146 5.374 -5.303 -15.48 -19.52 -11.61 -2.247 -28.67 -23.73
2.49 5.573 4.674 4.539 7.011 -2.337 -1.888 4.539 5.438 4.385 -7.101 -16.68 -23.9 -15.22 -6.382 -30.56 -27.87
2.495 1.438 0.6292 5.843 6.966 -5.753 -11.15 -0.9438 6.382 3.224 -8.18 -17.63 -27.43 -17.37 -9.708 -30.38 -30.02
2.5 -2.247 -3.101 6.067 7.101 -8.674 -19.19 -7.236 5.258 1.892 -9.079 -18.57 -30.09 -19.26 -12.13 -29.66 -30.38
2.505 -4.045 -4.584 5.528 7.596 -10.83 -23.73 -12.22 2.112 0.3869 -10.43 -18.83 -30.44 -20.55 -13.3 -27.78 -29.03
2.51 -4.225 -3.551 6.067 7.82 -11.51 -23.01 -14.61 -2.022 -1.419 -11.42 -17.02 -26.57 -19.78 -13.21 -23.28 -26.16
2.515 -3.236 -1.124 6.427 6.517 -10.02 -17.48 -13.93 -5.933 -3.568 -11.15 -12.3 -18.66 -17.63 -12.31 -16.81 -22.56
2.52 -1.798 1.124 3.236 3.056 -6.787 -9.303 -10.29 -8.629 -5.675 -9.798 -5.503 -8.856 -14.96 -11.06 -10.7 -18.52
2.525 -1.169 1.798 -2.562 -0.8989 -2.787 -0.2697 -2.787 -8.494 -6.706 -7.191 2.579 1.29 -11.01 -8.719 -4.764 -13.12
2.53 -1.888 1.079 -5.528 -2.921 1.213 9.348 8.36 -4.404 -5.847 -3.056 10.92 12.04 -4.127 -4.854 3.236 -5.483
2.535 -2.607 0.4045 -3.506 -2.607 5.303 18.7 19.91 1.663 -3.482 2.247 18.14 22.1 4.557 -0.1798 12.58 3.775
2.54 -1.169 1.258 -0.6742 -2.202 8.629 25.21 26.61 6.022 -1.118 7.011 21.92 28.98 11.95 4.135 20.67 12.76
2.545 2.337 2.966 -0.7191 -3.955 10.16 26.7 24.9 6.427 0 9.438 21.67 31.64 16.85 7.281 26.43 20.58
2.55 5.573 4.27 -2.742 -7.416 9.618 22.92 15.46 3.416 -0.172 9.258 18.31 30.78 20.21 9.528 30.83 26.79
2.555 6.292 4.045 -5.483 -10.97 7.506 15.01 2.202 -1.169 -1.118 7.461 13.84 27.08 21.67 10.97 33.35 31.01
2.56 4.494 1.888 -9.393 -13.17 4.18 4.584 -10.56 -5.978 -2.235 5.573 9.2 20.55 20.03 11.15 32.09 32.09
2.565 0.5393 -2.562 -13.62 -13.44 0.4045 -5.798 -19.55 -10.02 -3.568 4.764 5.331 12.47 15.13 9.528 27.33 29.48
2.57 -4.404 -8.225 -15.37 -12.54 -2.562 -13.17 -24.18 -12.9 -5.288 5.663 2.751 5.159 8.512 5.933 20.94 22.92
2.575 -8 -13.35 -15.06 -12.31 -4.045 -16.63 -26.07 -15.33 -7.523 6.921 0.7738 -1.032 0.9458 0.7191 12.85 13.12
2.58 -9.258 -16.85 -16.09 -13.71 -5.124 -18.34 -27.01 -18.2 -9.974 5.843 -2.923 -7.91 -7.308 -4.674 2.157 2.427
2.585 -9.348 -19.33 -18.56 -15.6 -7.73 -20.9 -26.88 -20.45 -11.44 0.5393 -9.372 -16.16 -13.67 -7.91 -9.978 -6.112
2.59 -11.06 -21.62 -18.56 -15.69 -12.36 -24.63 -24.31 -20.31 -10.88 -7.551 -17.28 -24.25 -15.39 -7.461 -20.13 -10.43
2.595 -13.84 -23.24 -14.83 -13.48 -17.66 -27.96 -19.24 -17.57 -8.813 -15.1 -24.42 -30.09 -13.84 -4.764 -27.15 -11.78
2.6 -15.46 -22.34 -11.01 -10.79 -21.3 -28.76 -13.08 -13.8 -6.835 -19.33 -28.55 -32.67 -13.41 -3.326 -32.09 -13.84
2.605 -14.2 -17.62 -8.719 -8.854 -21.66 -25.44 -7.326 -9.978 -6.234 -19.42 -28.63 -31.3 -16.25 -5.393 -34.52 -18.97
2.61 -10.25 -9.079 -5.348 -6.787 -17.93 -17.44 -1.933 -5.843 -6.878 -16.18 -24.85 -25.88 -21.15 -10.88 -33.44 -26.97
2.615 -4.944 1.843 0.8989 -3.056 -11.15 -6.652 3.326 -0.9438 -7.48 -11.6 -19.17 -19.17 -26.31 -17.53 -30.47 -35.6
2.62 0.08989 11.78 7.82 2.966 -4 3.281 8.225 4.18 -6.577 -7.91 -14.19 -15.3 -29.92 -22.38 -28.76 -41.71
2.625 2.966 17.03 13.57 10.47 1.034 9.843 12.31 9.213 -3.525 -5.843 -10.75 -14.79 -29.23 -22.92 -28.04 -42.34
2.63 2.697 16 18.65 17.53 3.596 14.02 15.42 13.84 1.204 -4.045 -7.308 -14.1 -22.7 -18.97 -24.99 -36.76
2.635 0.6292 10.7 21.8 21.62 5.258 17.48 16.85 17.08 5.804 -0.9888 -1.806 -10.15 -12.72 -12.31 -17.98 -26.97
2.64 -0.8989 4.854 20.13 21.3 7.101 20.76 16.58 17.8 8.727 3.146 5.589 -2.321 -3.697 -5.573 -7.64 -15.73
2.645 -1.079 1.303 14.97 17.89 9.663 23.33 15.82 16.67 9.673 7.281 13.76 8.082 3.181 0.6292 5.483 -4.315
2.65 -0.08989 1.258 11.82 14.25 12.94 25.21 16.45 15.87 9.845 11.24 21.75 20.03 9.974 6.831 21.03 7.371
2.655 2.067 4.809 13.17 12.31 16.58 26.7 19.15 16.63 10.49 15.1 29.06 31.47 17.54 13.3 36.13 19.33
2.66 5.753 10.25 15.55 11.78 19.42 27.19 22.92 18.74 12.17 18.43 34.99 40.07 24.93 19.51 47.1 30.47
2.665 9.348 14.38 15.87 11.6 19.96 26.2 26.07 21.48 14.57 20.4 39.12 45.14 31.3 24.63 53.21 39.46
2.67 10.88 14.83 14.61 11.24 18.07 23.78 26.92 23.73 16.72 20.85 41.01 47.29 35.68 27.6 55.73 44.67
2.675 9.528 11.73 11.73 10.07 14.61 19.64 23.6 23.37 17.11 19.87 39.55 45.48 35.6 27.51 54.02 44.67
2.68 6.921 6.966 5.393 7.191 10.7 13.08 14.79 18.25 14.66 17.35 33.62 37.83 29.32 24.27 46.29 39.01
2.685 4.674 3.011 -3.506 2.787 7.191 5.169 2.022 8.944 9.587 13.48 23.82 25.28 19.09 19.06 33.71 29.84
2.69 3.685 1.213 -10.52 -1.978 4.989 -1.393 -10.88 -1.528 3.439 9.258 12.81 11.61 9.458 13.39 19.6 19.78
2.695 4.854 2.022 -13.62 -5.888 4.36 -4.584 -20.04 -9.933 -2.106 5.213 3.095 0 2.579 7.64 5.663 10.43
2.7 7.461 4.09 -15.24 -8.674 4.27 -5.303 -23.73 -14.88 -6.191 0.8989 -4.815 -9.544 -2.923 1.978 -8.629 2.067
2.705 9.618 5.213 -16.13 -9.843 3.146 -5.573 -22.43 -16.13 -8.512 -4.045 -11.18 -17.2 -7.136 -3.326 -21.39 -5.034
2.71 9.348 4.719 -13.66 -9.124 0.809 -6.112 -18.07 -14.52 -9.243 -8.27 -15.82 -22.18 -9.544 -7.101 -29.75 -9.978
2.715 7.281 4 -7.371 -7.101 -1.528 -6.562 -13.62 -12.18 -9.157 -10.52 -18.23 -24.16 -10.49 -8.899 -32.99 -12.49
2.72 5.213 4.629 -1.034 -5.124 -3.101 -6.652 -11.24 -11.19 -8.942 -10.88 -18.57 -24.07 -11.18 -8.899 -32.9 -12.94
2.725 3.685 5.843 2.787 -3.865 -3.775 -6.022 -10.61 -11.6 -8.555 -10.34 -17.28 -21.92 -11.18 -7.64 -30.83 -11.78
2.73 1.528 5.753 5.438 -2.921 -3.551 -4 -10.02 -11.91 -7.523 -9.528 -14.87 -17.88 -9.716 -5.933 -27.06 -9.978
2.735 -1.079 3.371 7.056 -2.247 -2.562 -0.9888 -8.764 -11.28 -5.847 -8.449 -11.87 -13.41 -7.738 -4.854 -22.92 -8.899
2.74 -3.056 -0.4494 5.573 -2.517 -1.528 1.528 -7.416 -10.2 -3.826 -7.281 -9.114 -10.49 -7.05 -4.674 -19.69 -8.989
2.745 -4.225 -4.225 1.438 -3.82 -1.258 2.517 -6.067 -8.449 -1.806 -5.663 -6.277 -8.34 -6.362 -4.494 -15.28 -8.36
2.75 -4.944 -6.787 -1.528 -5.213 -1.708 2.697 -3.82 -5.034 0.6878 -3.506 -2.149 -3.525 -2.493 -2.876 -6.382 -5.034
2.755 -6.022 -8.135 -2.427 -6.022 -2.337 2.742 0.04494 0.2247 3.955 -0.9888 3.611 5.589 4.643 0.1798 6.382 0.8989
2.76 -7.011 -9.213 -4.27 -6.157 -2.921 2.292 5.438 6.607 7.781 0.8989 9.888 16.85 12.72 3.506 18.97 7.551
2.765 -8.09 -11.24 -7.775 -5.213 -3.416 1.124 11.87 13.44 12.04 2.337 15.56 27.43 19.95 6.472 28.58 13.3
2.77 -9.258 -13.3 -8.989 -2.247 -2.876 0.5843 18.47 20.22 16.25 4.494 20.29 35.25 25.79 8.809 35.69 17.35
2.775 -8.629 -12.67 -5.348 2.697 -0.4944 1.798 23.19 25.44 19.35 8 24.07 38.43 28.98 10.43 39.82 19.51
2.78 -5.124 -7.955 0.5843 8.584 2.831 3.865 24 26.88 20.29 11.42 25.19 35.51 27.77 11.06 39.1 19.42
2.785 -0.3596 -1.124 6.157 13.8 5.169 5.348 20.18 23.69 18.66 12.4 22.35 27.43 22.78 10.52 33.35 16.99
2.79 2.517 4 11.15 17.21 5.258 5.528 13.17 16.9 15.05 10.07 15.73 17.37 16.16 8.719 24.27 12.22
2.795 2.247 5.348 14.16 17.84 3.281 4.629 4.899 8.315 10.15 5.483 6.964 7.652 8.512 5.393 12.76 4.944
2.8 0.1798 3.685 12.36 14.92 0.4944 2.652 -2.472 -0.3146 4.729 0.5393 -2.064 -1.548 -0.172 1.438 -0.3596 -3.685
2.805 -1.618 1.348 6.427 9.483 -2.202 0.2247 -7.101 -6.742 -0.4729 -2.787 -9.286 -9.716 -8.082 -1.798 -12.22 -11.06
2.81 -2.517 0.2247 1.258 3.596 -3.685 -1.753 -8.315 -9.663 -4.686 -3.955 -13.84 -15.99 -12.55 -3.596 -19.87 -15.1
2.815 -1.978 0.7191 -1.438 -1.483 -3.91 -3.64 -7.596 -10.16 -7.953 -4.135 -16.85 -21.06 -14.19 -4.494 -24.63 -16.63
2.82 -0.809 1.348 -4.494 -5.933 -4.18 -7.371 -7.91 -11.1 -10.7 -5.663 -20.72 -26.4 -15.91 -6.112 -29.84 -17.89
2.825 -0.4494 0.04494 -9.034 -9.978 -6.022 -13.35 -10.34 -13.8 -13.2 -9.348 -25.79 -31.47 -18.31 -8.629 -35.33 -19.6
2.83 -1.978 -2.966 -12.13 -12.94 -9.169 -19.33 -13.66 -17.44 -14.96 -13.3 -30.09 -33.53 -19.6 -10.97 -37.39 -20.76
2.835 -4.315 -5.483 -12.04 -14.61 -12.22 -22.61 -16.4 -20.58 -15.99 -15.1 -31.3 -31.21 -19.17 -12.04 -34.61 -20.04
2.84 -4.944 -5.213 -11.28 -15.37 -14.07 -22.79 -17.66 -22.47 -16.34 -14.38 -29.06 -26.48 -18.14 -11.69 -29.39 -17.44
2.845 -3.416 -2.562 -11.42 -15.33 -14.47 -20.99 -17.17 -22.34 -15.82 -12.04 -24.85 -21.75 -16.51 -10.61 -24.18 -14.02
2.85 -1.618 0.1798 -10.52 -13.84 -12.76 -18.07 -14.52 -18.97 -13.84 -8.899 -19 -17.8 -13.41 -9.618 -19.33 -11.15
2.855 0 1.843 -7.461 -10.47 -8.315 -13.98 -9.348 -11.96 -10.06 -5.124 -11.44 -14.19 -9.286 -8.989 -14.92 -9.618
2.86 1.708 2.337 -3.865 -5.348 -1.978 -8.809 -1.798 -1.933 -4.471 -0.6292 -2.321 -10.66 -5.073 -8.09 -10.52 -8.629
2.865 3.596 2.202 -0.1348 0.9888 4.539 -2.472 7.91 9.888 1.978 4.315 7.738 -6.191 -0.4299 -5.843 -4.135 -6.292
2.87 5.393 2.157 5.528 7.865 9.663 4.944 17.98 21.12 7.867 9.079 17.02 0 5.331 -2.157 4.854 -1.888
2.875 7.101 3.011 11.82 13.17 12.63 11.82 24.76 27.87 11.13 12.31 22.96 5.761 9.716 0.9888 12.31 2.697
2.88 9.348 5.213 14.11 14.97 13.3 15.51 24.9 26.7 10.45 12.85 23.47 7.996 9.286 1.528 13.66 4.404
2.885 11.78 8.449 11.6 13.53 12.63 15.42 18.74 18.56 6.663 11.15 19.52 6.362 4.471 -0.7191 9.528 2.966
2.89 14.02 12.4 9.393 11.64 12.31 13.93 10.29 8.27 2.321 9.618 14.87 4.729 -0.3439 -3.416 5.933 0.5393
2.895 16.18 16.94 11.01 11.73 13.17 13.75 4.18 0.7191 -0.3009 9.798 11.95 5.933 -2.493 -4.135 6.292 -0.3596
2.9 18.43 20.9 14.34 13.3 13.89 14.61 2.292 -2.517 -0.7738 10.25 9.802 8.856 -2.149 -2.157 8.809 0.7191
2.905 18.79 21.89 16.09 14.38 12.09 14.16 3.551 -2.652 -0.129 8.36 5.761 11.26 -0.6019 1.169 10.34 2.787
2.91 15.28 18.29 15.82 12.76 7.371 11.06 5.663 -2.202 -0.04299 3.056 -1.032 11.69 1.118 4.045 8.809 4.225
2.915 8.27 11.55 12.9 7.551 1.438 5.753 5.888 -3.64 -1.892 -4.045 -8.942 9.544 1.032 4.674 3.955 3.596
2.92 0.8989 4.584 5.708 -0.4944 -3.775 -0.08989 3.236 -7.865 -5.503 -10.34 -15.3 5.245 -2.064 2.876 -2.787 1.348
2.925 -3.865 -0.2697 -3.775 -8.539 -7.056 -4.494 -1.483 -13.08 -9.501 -13.3 -17.8 0.9458 -6.62 0.2697 -7.371 -0.9888
2.93 -5.483 -2.337 -10.29 -13.53 -8.18 -5.753 -5.978 -16.4 -11.99 -12.4 -16.16 -0.6878 -9.458 -1.348 -6.472 -1.888
2.935 -4.584 -2.202 -11.6 -14.7 -7.955 -4.719 -9.753 -17.03 -12.25 -9.258 -12.9 -0.172 -10.23 -1.708 -2.427 -1.798
2.94 -2.517 -1.573 -11.19 -13.84 -7.326 -4.27 -13.35 -16.31 -10.83 -6.831 -11.18 -0.3439 -10.75 -1.618 -0.08989 -1.618
2.945 -1.258 -2.202 -11.33 -12.67 -7.011 -6.067 -16.72 -15.15 -8.469 -6.292 -11.61 -2.407 -11.01 -1.438 -0.809 -1.348
2.95 -1.888 -4.764 -10.61 -11.28 -6.292 -8.899 -18.61 -13.21 -5.847 -6.112 -11.87 -4.557 -9.114 -0.7191 -1.348 0
2.955 -3.775 -8.045 -8.539 -9.528 -4.809 -10.56 -18.16 -10.11 -3.353 -4.225 -9.716 -5.245 -5.073 0.3596 0.1798 2.247
2.96 -5.213 -10.7 -7.865 -8 -3.281 -10.74 -16.04 -6.382 -1.247 -0.8989 -5.417 -5.245 -0.9458 1.348 2.067 3.955
2.965 -6.562 -12.94 -9.483 -6.966 -3.146 -10.38 -13.26 -2.022 0.8168 2.337 -0.7738 -5.417 2.493 1.888 3.146 4.315
2.97 -9.438 -15.42 -10.38 -5.978 -4.315 -10.02 -10.56 3.371 3.31 4.315 3.525 -5.589 5.761 2.247 3.685 3.955
2.975 -13.48 -17.93 -8.899 -4.539 -5.393 -9.393 -8.899 8.854 6.277 5.213 7.824 -5.589 8.426 2.876 4.135 3.775
2.98 -16.72 -19.64 -7.236 -2.921 -4.989 -8.494 -9.034 12.54 8.856 5.753 12.12 -5.503 9.028 3.596 4.674 4.494
2.985 -17.17 -19.87 -6.382 -1.348 -2.966 -6.831 -10.07 13.39 9.931 6.652 16.68 -4.127 8.082 4.584 7.281 6.652
2.99 -14.74 -18.07 -4.315 0.1348 0.2697 -3.506 -10.16 11.6 9.071 8.18 20.81 0.2579 7.566 5.483 13.57 9.618
2.995 -10.07 -13.93 -0.8989 0.4045 3.82 1.483 -7.91 7.775 6.405 9.348 23.13 7.05 7.566 5.573 20.94 11.87
3 -4.225 -8.36 0.764 -1.798 6.427 6.337 -3.281 2.787 2.493 8.809 22.1 13.5 6.792 4.404 24.36 12.22
3.005 0.3596 -3.551 -0.4045 -5.843 7.101 9.169 3.551 -1.483 -1.161 6.022 18.14 17.45 5.761 2.697 22.65 11.33
3.01 2.157 -1.213 -1.348 -9.618 6.067 9.618 11.73 -3.371 -3.783 2.607 12.64 19 5.761 1.258 18.34 10.43
3.015 1.618 -0.764 -0.5393 -11.55 3.955 7.865 18.88 -3.191 -5.374 -0.1798 6.362 17.88 5.675 0 12.94 9.348
3.02 0.6292 -0.3146 -0.1798 -11.69 0.809 3.64 22.34 -3.326 -6.706 -3.146 -2.149 12.64 2.665 -2.427 5.393 6.472
3.025 0.3596 1.169 -0.8539 -10.11 -3.775 -2.202 21.21 -4.674 -8.168 -7.82 -13.58 3.611 -3.353 -6.112 -4.225 1.438
3.03 0.08989 3.73 0.4045 -6.742 -8.854 -7.281 16.63 -6.517 -9.2 -13.84 -26.14 -6.792 -9.716 -10.07 -14.02 -4.854
3.035 0.1798 6.607 4.719 -1.933 -12.63 -9.258 10.38 -7.64 -9.243 -19.69 -36.46 -16.59 -14.87 -13.21 -23.1 -11.06
3.04 0.8989 8.539 8.809 2.921 -14.25 -8.494 3.64 -7.82 -8.555 -23.37 -41.61 -25.11 -18.83 -14.83 -31.55 -16.18
3.045 1.978 8.09 10.29 6.202 -14.07 -6.876 -2.337 -7.146 -7.523 -23.91 -41.01 -31.12 -21.15 -14.65 -37.39 -19.42
3.05 1.888 5.483 10.29 7.191 -12.76 -5.843 -6.921 -5.573 -6.448 -21.48 -35.68 -32.84 -20.72 -13.03 -37.57 -20.13
3.055 0.7191 2.202 9.124 5.618 -11.06 -5.978 -10.07 -3.865 -5.331 -17.62 -28.12 -29.83 -17.88 -10.25 -32.54 -18.88
3.06 -0.9888 -0.3146 4.719 2.202 -9.663 -7.236 -12.27 -2.472 -3.74 -14.02 -20.55 -23.13 -13.58 -6.652 -24.63 -15.64
3.065 -2.427 -2.157 -2.472 -1.034 -8.674 -8.315 -12.85 -0.7191 -0.8168 -10.79 -12.72 -13.41 -6.792 -1.438 -14.65 -9.438
3.07 -3.775 -4.225 -8.135 -1.708 -6.921 -6.966 -10.29 3.011 3.869 -5.843 -2.579 -0.08598 4.041 5.753 -1.348 0.2697
3.075 -4.584 -6.157 -9.753 0.4494 -2.831 -2.067 -3.64 8.494 9.372 2.157 10.83 15.48 17.11 13.3 13.66 12.04
3.08 -3.506 -7.236 -9.169 3.685 3.416 4.899 6.157 14.11 14.1 11.78 24.76 29.49 28.2 18.88 26.07 22.92
3.085 -1.258 -7.146 -7.281 6.562 9.978 11.55 17.39 18.43 16.85 19.87 35.6 38.95 34.91 21.03 33.71 30.92
3.09 1.258 -5.978 -2.157 8.899 14.97 16.9 27.69 21.08 17.24 24.45 41.1 43.33 37.49 20.04 37.57 35.24
3.095 3.955 -3.64 5.933 10.88 17.62 20.45 33.89 21.35 15.39 25.44 41.36 42.65 35.94 16.81 38.11 35.78
3.1 7.461 -0.4494 12.22 11.73 17.75 21.53 33.66 18.29 11.44 23.82 37.83 37.06 29.83 12.22 35.15 32.63
3.105 11.15 2.697 13.8 10.92 15.91 20.09 27.69 12.31 6.362 20.94 32.76 28.46 20.81 7.461 30.2 26.79
3.11 13.03 5.034 12.4 8.809 13.57 17.57 19.33 5.888 1.548 18.07 27.77 20.21 12.21 3.326 25.17 19.87
3.115 12.13 6.472 10.11 6.202 11.69 15.33 12.18 1.348 -1.462 14.74 23.13 13.76 5.503 0.3596 19.24 12.31
3.12 8.899 7.281 6.427 3.955 9.753 13.48 7.91 -0.3146 -2.278 10.07 17.11 8.168 0.2579 -1.438 10.25 4.764
3.125 4.315 7.326 2.247 3.101 6.607 11.28 5.933 1.079 -0.9888 4.135 9.114 2.407 -3.095 -1.798 -0.7191 -2.337
3.13 -0.1798 7.416 1.348 4.27 2.562 8.719 4.989 4.629 1.376 -1.348 0.3439 -3.095 -4.127 -0.9888 -10.34 -8.27
3.135 -2.517 9.169 4.584 6.652 -0.9888 5.753 2.876 7.955 3.482 -4.944 -7.738 -8.512 -4.729 -0.4494 -17.17 -13.57
3.14 -1.258 13.39 8.944 8.809 -2.921 1.933 -1.303 8.449 4.299 -6.652 -14.1 -14.53 -7.566 -1.528 -22.65 -19.15
3.145 2.337 18.34 12.22 10.52 -3.326 -2.652 -6.427 6.157 4.127 -7.82 -18.31 -20.21 -12.21 -3.865 -26.61 -24
3.15 4.944 21.48 15.87 12.72 -2.652 -6.157 -9.888 3.461 3.955 -8.449 -19.43 -22.87 -15.05 -5.843 -27.15 -26.43
3.155 4.764 21.08 19.24 15.15 -1.753 -7.371 -10.74 2.202 4.213 -8.36 -17.37 -21.15 -14.36 -6.022 -24.09 -25.44
3.16 2.427 17.21 18.02 15.64 -1.348 -6.876 -10.29 2.112 4.471 -7.371 -13.67 -16.94 -11.18 -4.315 -19.24 -21.3
3.165 -0.7191 10.79 10.65 12.36 -2.112 -6.382 -10.16 2.382 4.127 -5.933 -10.23 -12.47 -6.62 -1.528 -13.84 -15.1
3.17 -3.955 3.146 1.213 5.978 -3.551 -6.697 -10.88 2.292 3.224 -4.494 -7.996 -9.028 -1.29 1.258 -7.82 -8.27
3.175 -6.112 -3.91 -6.202 -1.258 -4.854 -8.315 -12.4 1.034 2.021 -3.146 -7.136 -7.308 2.665 3.056 -2.427 -2.607
3.18 -6.831 -9.348 -11.19 -6.652 -5.978 -11.33 -14.47 -2.022 0.8168 -2.247 -6.964 -7.48 3.353 3.416 1.258 0.9888
3.185 -6.921 -13.17 -14.38 -8.944 -6.876 -14.88 -15.87 -5.888 -0.08598 -0.809 -5.675 -7.222 2.064 3.326 5.483 3.865
3.19 -7.73 -15.33 -14.92 -8.674 -6.966 -16.36 -15.55 -8.764 -0.5159 2.427 -1.29 -2.923 2.493 4.045 13.48 8
3.195 -9.258 -15.78 -14.11 -8.135 -5.393 -14.2 -13.66 -9.798 -0.7308 7.281 6.191 5.417 5.675 5.573 23.46 13.84
3.2 -10.43 -15.19 -15.06 -9.124 -2.607 -9.708 -11.28 -9.528 -0.9888 11.06 13.67 13.5 9.544 7.011 29.57 19.96
3.205 -11.33 -15.24 -17.12 -10.47 -0.4944 -5.393 -9.213 -8.494 -1.075 11.51 17.8 16.85 12.3 7.64 28.31 24.18
3.21 -12.4 -16.27 -15.51 -9.303 0.3146 -2.876 -7.551 -6.876 -0.8598 8.809 17.45 14.79 12.98 7.191 21.48 24.63
3.215 -12.31 -16.45 -8.674 -4.854 0.3146 -2.202 -7.236 -5.933 -0.6448 5.303 13.84 8.598 10.15 5.034 12.67 19.78
3.22 -9.348 -12.94 -1.663 0.08989 0.8989 -2.517 -9.843 -7.64 -1.634 3.146 8.684 0.3439 1.978 0.809 4.225 9.528
3.225 -2.966 -5.303 0.4494 1.753 2.697 -2.247 -15.37 -12.27 -4.213 2.607 3.611 -7.136 -9.63 -4.944 -2.247 -3.775
3.23 4.315 3.955 -1.708 -1.213 5.573 0.1348 -22.02 -18.07 -7.953 2.966 -0.5159 -12.04 -20.46 -10.7 -7.011 -16.72
3.235 9.798 11.06 -5.753 -7.101 8.36 4.27 -27.15 -22.88 -11.69 2.787 -4.041 -15.13 -28.03 -15.19 -12.67 -27.06
3.24 11.51 13.17 -10.34 -12.54 9.258 7.416 -28.45 -25.3 -14.14 0.809 -7.824 -18.57 -32.5 -17.53 -21.21 -33.44
3.245 9.348 10.02 -13.17 -14.34 7.506 7.596 -24.45 -24.4 -14.32 -2.157 -11.69 -21.75 -33.19 -17.17 -29.3 -35.33
3.25 4.584 4.494 -10.92 -11.42 4.27 5.618 -15.46 -19.73 -12.04 -4.225 -13.84 -21.32 -29.06 -14.38 -31.01 -32.81
3.255 0.5393 0.6742 -4.629 -5.978 1.798 4.045 -4.045 -13.12 -8.34 -4.225 -12.98 -15.73 -21.92 -10.7 -25.26 -27.78
3.26 -0.3596 0.1798 0.04494 -1.798 0.9438 4.18 6.157 -7.416 -5.116 -3.596 -10.4 -7.738 -15.39 -7.73 -17.44 -22.92
3.265 0.8989 1.213 0.1798 -0.7191 0.4494 5.528 13.12 -4 -3.525 -3.775 -7.824 -1.032 -11.01 -6.292 -12.49 -19.42
3.27 1.348 0.8989 -1.573 -1.438 -0.4045 7.011 16.94 -1.888 -3.181 -4.944 -6.019 2.923 -7.566 -5.663 -10.61 -16.54
3.275 0.08989 -1.303 -2.292 -1.843 -1.438 7.326 18.61 0.4045 -2.88 -5.393 -4.815 4.557 -4.213 -4.854 -9.798 -13.21
3.28 -1.528 -3.91 -2.697 -0.9888 -2.067 5.348 18.61 3.82 -1.29 -4.404 -3.869 4.987 -0.8598 -3.236 -7.82 -8.629
3.285 -2.427 -5.438 -3.236 1.303 -2.112 1.573 17.12 8.674 2.106 -2.247 -3.009 6.277 3.525 -0.08989 -3.056 -2.067
3.29 -2.337 -5.708 -1.753 4.36 -1.798 -1.888 14.52 14.25 6.234 0.08989 -1.806 9.716 9.888 3.955 4.404 5.753
3.295 -2.247 -5.258 1.708 6.787 -1.393 -3.551 10.65 17.98 8.942 1.258 -0.7738 13.33 16.08 7.551 10.07 12.76
3.3 -1.978 -5.034 3.775 6.697 -1.573 -4.18 5.753 17.26 8.383 0.809 -0.2579 13.33 18.4 9.079 9.798 16.99
3.305 -1.978 -5.573 2.697 4.18 -2.337 -5.079 1.303 12.36 4.987 -0.2697 0.172 9.028 17.02 8.629 5.303 18.97
3.31 -1.618 -6.202 1.348 1.169 -2.562 -6.022 -0.4944 6.787 1.419 -0.08989 2.321 4.041 15.3 7.91 2.787 20.4
3.315 0.08989 -5.034 2.202 -0.08989 -0.9888 -5.843 0.9888 3.82 0 2.067 6.706 1.806 15.3 8.09 4.854 22.02
3.32 3.865 -1.169 4.045 0.9438 1.843 -3.775 4.809 4.494 1.247 4.764 11.52 2.235 15.65 8.899 8.809 22.56
3.325 8 4.494 5.978 3.461 4.135 0.2247 9.348 7.64 3.611 5.573 14.19 3.955 14.7 9.348 11.24 20.76
3.33 10.25 10.29 9.573 6.067 5.124 6.247 13.3 11.01 5.03 4.045 13.76 5.933 12.38 8.27 11.24 16.27
3.335 10.34 15.15 13.89 6.787 5.303 13.17 15.15 11.96 4.17 1.618 11.09 6.878 8.168 4.944 9.169 9.708
3.34 9.798 18.25 14.61 4.809 5.483 18.11 13.89 9.438 1.677 -0.4494 7.738 5.589 2.321 0.3596 6.202 3.056
3.345 9.618 18.34 10.16 1.348 5.573 18.7 9.888 5.348 -0.3439 -1.438 5.245 3.181 -2.407 -3.146 4.404 -0.9888
3.35 8.809 14.74 4.449 -0.8539 5.213 14.97 5.169 2.787 -0.4299 -1.348 4.557 1.978 -3.009 -3.506 5.843 -1.888
3.355 6.921 8.494 0.764 -0.764 3.865 8.18 1.798 3.056 1.419 -1.079 4.557 2.149 -0.6019 -1.528 8 -1.258
3.36 3.955 1.528 -1.798 0.1798 0.9888 -0.3596 0.4494 4.539 3.482 -1.888 3.095 1.72 0.6878 0.2697 6.472 -2.157
3.365 0.3596 -4.764 -4.09 0.08989 -3.461 -9.034 1.528 5.483 4.428 -4.225 -1.29 -0.3439 -0.8598 0.08989 0.6292 -5.573
3.37 -3.865 -9.663 -4.18 -1.438 -7.91 -15.1 4.225 5.303 4.041 -6.742 -6.878 -3.009 -3.525 -1.888 -6.112 -10.07
3.375 -7.191 -12.27 -1.663 -3.371 -10.47 -16.76 6.787 4 3.009 -7.91 -11.52 -5.589 -6.277 -4.764 -11.24 -14.2
3.38 -8.27 -12.27 0.7191 -4.36 -10.56 -14.79 7.056 1.843 1.548 -8.09 -14.27 -9.114 -9.544 -7.371 -15.55 -17.44
3.385 -7.011 -10.07 1.933 -3.506 -9.258 -11.06 4.539 -0.7191 -0.129 -8 -15.65 -13.5 -13.24 -9.169 -18.97 -19.51
3.39 -4.764 -6.652 3.865 -0.8989 -7.506 -7.236 0.9888 -2.742 -2.106 -7.91 -15.91 -17.11 -15.73 -10.25 -19.78 -20.13
3.395 -2.517 -2.831 6.876 1.573 -5.798 -4.36 -2.067 -4.539 -3.912 -6.921 -15.3 -18.66 -16.59 -11.15 -17.8 -19.06
3.4 -0.6292 -0.1348 7.011 1.708 -4.36 -2.966 -4.404 -6.966 -5.073 -4.674 -13.58 -17.63 -15.99 -11.42 -14.02 -15.64
3.405 -0.1798 -0.2697 2.157 -1.169 -3.101 -2.382 -5.933 -9.528 -4.987 -1.169 -9.63 -13.15 -12.55 -9.528 -7.551 -8.539
3.41 -1.978 -3.596 -4.989 -5.618 -1.258 -0.4494 -6.787 -10.56 -3.482 3.326 -2.235 -4.385 -4.557 -4.045 2.876 2.247
3.415 -4.764 -8.18 -11.91 -9.978 1.798 3.91 -7.461 -9.393 -1.376 7.91 7.738 7.136 6.105 4.045 15.1 14.38
3.42 -6.472 -11.51 -18.92 -13.53 5.079 8.629 -8.315 -6.607 0.4299 10.52 16.68 17.11 15.22 12.13 24.18 24.27
3.425 -6.562 -12.81 -25.35 -15.64 6.652 10.74 -8.899 -2.652 1.935 10.25 21.24 22.53 21.15 18.07 27.87 30.38
3.43 -6.382 -12.63 -27.33 -15.33 5.798 9.258 -8.135 2.067 3.912 8 20.81 23.64 25.11 21.3 27.6 32.81
3.435 -6.382 -11.24 -23.42 -12.36 3.506 5.483 -6.067 6.697 6.405 5.753 16.94 21.49 27 22.2 24.54 31.91
3.44 -5.753 -8.18 -16.54 -8.09 1.258 1.303 -4.135 9.034 8.125 4.225 11.61 16.68 25.02 20.76 18.43 28.04
3.445 -4.045 -3.326 -9.618 -4.09 0.08989 -1.213 -3.326 8 7.394 3.056 6.277 10.23 18.57 17.17 10.52 21.39
3.45 -1.618 2.787 -2.517 -1.393 0.1348 -1.258 -3.551 3.775 3.439 1.438 1.548 4.127 9.63 11.78 3.416 13.21
3.455 0.9888 8.719 4.315 -0.5393 0.4045 0 -4.225 -2.337 -2.622 -1.348 -3.439 -1.032 0.08598 4.674 -2.337 4.494
3.46 2.607 12.58 7.64 -1.213 -0.764 -0.3146 -4.899 -9.124 -8.727 -5.753 -9.458 -6.105 -8.77 -2.787 -8.09 -3.775
3.465 2.067 12.76 6.966 -1.843 -4.315 -3.596 -4.809 -14.34 -12.51 -11.33 -16.08 -10.92 -14.96 -8.809 -13.3 -10.16
3.47 -0.6292 10.16 6.337 -0.4944 -8.764 -8.27 -3.461 -16.09 -13.03 -15.91 -21.24 -13.76 -16.94 -12.04 -15.64 -14.38
3.475 -3.326 7.461 8.315 2.966 -11.64 -11.73 -1.933 -14.79 -11.48 -18.07 -23.47 -14.62 -16.94 -13.57 -15.91 -17.98
3.48 -3.056 6.921 10.61 6.607 -11.91 -13.3 -1.888 -12.76 -10.02 -17.98 -23.39 -15.48 -18.49 -15.1 -16.81 -22.2
3.485 -0.3596 7.73 10.52 8.629 -11.06 -13.8 -3.73 -11.15 -9.673 -16.72 -22.44 -17.2 -21.49 -17.26 -18.79 -26.34
3.49 1.798 7.236 8.944 8.539 -10.38 -13.8 -6.157 -8.854 -9.114 -14.92 -20.64 -17.97 -21.92 -18.52 -18.97 -27.78
3.495 0.9888 3.955 6.562 6.921 -10.25 -12.94 -7.326 -4.539 -6.749 -12.04 -17.11 -16.08 -17.45 -17.17 -15.82 -25.17
3.5 -1.978 -1.393 2.157 4.225 -9.528 -11.24 -6.697 1.888 -2.106 -7.91 -11.35 -11.87 -9.458 -12.85 -10.88 -19.24
3.505 -4.854 -6.966 -3.371 1.393 -6.921 -8.225 -4.539 9.303 3.654 -2.517 -3.525 -6.191 -0.4299 -6.562 -5.393 -12.04
3.51 -5.843 -10.56 -5.933 -0.3596 -1.573 -3.236 -1.258 15.73 8.426 4.225 6.019 0.4299 7.652 -0.5393 0.4494 -5.393
3.515 -3.685 -10.43 -3.416 -0.2247 6.157 3.865 2.337 18.83 10.62 11.69 16.34 6.792 12.38 3.596 5.663 -0.5393
3.52 1.348 -6.427 0.6742 1.528 13.98 11.42 5.708 17.53 10.36 18.34 25.71 11.69 12.98 5.573 9.169 2.697
3.525 7.461 -0.08989 3.775 4.719 19.73 18.02 9.303 14.02 9.372 23.1 33.36 15.82 12.21 7.551 12.76 6.742
3.53 11.87 6.697 6.831 9.303 22.65 23.46 13.71 11.82 9.845 25.62 38.69 21.32 14.36 11.42 19.33 13.39
3.535 14.02 12.58 10.88 14.29 23.1 27.06 17.8 12.27 11.95 25.89 40.5 27.86 19.78 16.72 27.42 22.11
3.54 14.38 16.36 13.66 17.75 21.03 26.56 19.1 13.35 13.76 23.01 36.28 31.64 24.33 21.03 32.18 30.2
3.545 12.76 16.58 14.25 18.52 15.51 20.36 16.49 12.36 13.2 16.18 25.28 30.09 25.19 22.2 31.01 35.42
3.55 8.27 12.99 14.79 17.03 6.831 9.843 11.33 8.719 9.888 6.472 10.06 24.16 22.53 19.96 25.71 36.94
3.555 1.978 7.506 15.78 14.02 -2.876 -1.348 6.067 3.506 4.901 -3.506 -4.557 16.68 17.28 15.19 18.97 34.43
3.56 -3.146 2.921 14.25 9.708 -10.83 -9.798 2.517 -1.888 0.08598 -11.42 -15.39 9.2 10.06 9.528 11.6 28.22
3.565 -5.393 0.9438 9.034 4.674 -14.83 -13.17 1.528 -5.753 -3.396 -16 -20.89 3.009 2.837 4.404 4.764 19.6
3.57 -4.584 1.843 4.045 0.4944 -14.25 -10.79 2.966 -7.371 -5.245 -16.9 -21.84 -1.29 -2.579 0 -0.3596 9.888
3.575 -1.528 5.169 2.697 -1.978 -9.888 -4.27 5.888 -7.506 -6.448 -14.92 -20.12 -4.471 -7.222 -4.404 -4.944 -0.4494
3.58 2.876 9.978 3.955 -2.876 -4.225 2.831 8.854 -7.506 -7.609 -11.78 -17.54 -8.512 -12.98 -9.438 -11.42 -11.15
3.585 7.101 13.89 5.798 -2.562 0.2697 7.596 11.19 -6.427 -8.254 -8.629 -14.62 -13.24 -19 -14.02 -18.97 -21.03
3.59 9.169 14.74 8.18 -1.528 3.191 9.213 12.63 -2.427 -7.093 -4.944 -10.49 -16.34 -21.58 -16.54 -24.63 -28.13
3.595 9.169 11.69 9.663 -0.7191 5.258 8.539 11.91 4.135 -3.826 0 -5.331 -17.2 -19.35 -16.09 -27.6 -31.73
3.6 7.82 5.798 6.876 -1.213 7.056 5.798 7.775 10.34 0.172 5.393 -0.8598 -17.28 -14.27 -13.39 -29.48 -32
3.605 5.843 -1.079 0.04494 -3.011 8 1.798 1.079 13.35 3.267 9.258 1.376 -17.2 -8.34 -9.708 -29.75 -29.12
3.61 2.966 -6.427 -5.618 -4.584 7.82 -1.708 -5.213 12.4 4.428 10.61 1.72 -15.48 -2.321 -6.022 -25.89 -23.37
3.615 0.1798 -8.27 -6.472 -5.213 6.787 -3.281 -8.404 8.584 3.783 9.618 1.548 -11.61 2.407 -3.416 -17.44 -15.82
3.62 -1.438 -6.876 -4.899 -5.618 4.764 -3.281 -8.18 3.461 2.021 6.921 1.806 -6.964 4.127 -2.247 -8 -8.09
3.625 -1.978 -5.034 -4.09 -6.337 1.978 -3.011 -5.888 -1.348 -0.04299 3.326 2.149 -3.267 3.611 -2.427 -0.2697 -0.9888
3.63 -2.966 -5.483 -3.82 -6.966 -1.079 -3.011 -3.685 -4.809 -1.935 0.3596 2.837 -0.6878 3.095 -2.966 5.483 4.854
3.635 -4.494 -8 -3.506 -6.742 -3.191 -2.966 -3.506 -7.551 -3.74 -0.8989 3.697 0.9458 2.579 -3.865 9.169 8.809
3.64 -5.483 -10.52 -4.27 -5.483 -3.775 -3.281 -5.888 -10.88 -5.89 -0.5393 4.643 1.634 0.3439 -5.213 10.61 10.16
3.645 -5.393 -11.46 -5.843 -3.056 -3.506 -4.045 -9.708 -14.52 -7.867 0.7191 5.503 1.978 -3.353 -6.382 11.51 9.708
3.65 -4.944 -10.88 -5.348 0.2697 -2.966 -5.213 -12.94 -16.85 -8.899 2.247 6.362 3.267 -6.277 -6.742 13.75 8.719
3.655 -5.034 -9.438 -2.112 3.236 -2.742 -6.517 -14.74 -17.71 -8.985 3.146 6.105 4.385 -7.91 -6.202 15.73 7.191
3.66 -5.213 -7.685 0.1798 3.865 -3.596 -8.584 -15.64 -18.29 -9.028 1.708 2.579 2.665 -9.974 -6.022 13.21 4.494
3.665 -5.483 -5.753 -1.034 1.438 -5.798 -10.83 -15.42 -19.46 -9.802 -2.337 -4.041 -1.806 -12.72 -6.472 6.022 0.2697
3.67 -5.573 -3.416 -3.416 -2.966 -8.135 -11.19 -12.81 -20.4 -11.05 -7.371 -11.01 -6.019 -14.27 -7.101 -1.618 -4.225
3.675 -4.674 -0.4045 -4.989 -7.955 -8.629 -8.135 -7.865 -20.18 -12.04 -10.25 -14.44 -7.394 -14.1 -7.371 -6.562 -7.91
3.68 -2.427 2.157 -7.191 -12.49 -6.831 -3.011 -2.427 -18.38 -11.74 -9.528 -12.98 -6.534 -13.15 -6.831 -9.258 -9.978
3.685 -0.1798 2.202 -11.01 -15.46 -3.955 1.348 0.8539 -14.61 -9.458 -5.933 -7.996 -5.503 -11.44 -5.034 -10.43 -9.978
3.69 0.1798 -1.079 -14.07 -15.69 -1.348 3.191 0.4494 -8.584 -5.116 -1.438 -2.149 -5.417 -7.91 -1.708 -10.16 -8.449
3.695 -1.258 -5.753 -14.74 -13.12 0.764 2.472 -3.91 -1.258 0.3869 2.067 1.634 -6.706 -3.439 2.157 -9.348 -6.831
3.7 -2.517 -8.764 -15.19 -9.213 2.067 -0.08989 -10.56 5.483 5.718 3.596 2.064 -9.458 -0.172 5.393 -9.798 -6.652
3.705 -2.247 -9.258 -16.18 -5.483 2.921 -2.966 -15.91 10.83 9.888 3.685 -0.172 -12.12 2.064 7.551 -10.52 -7.371
3.71 -1.079 -8.449 -15.15 -2.382 3.596 -4.764 -16.63 14.88 12.68 4.315 -2.321 -12.21 4.987 8.989 -9.348 -7.191
3.715 0.1798 -7.91 -10.65 0.1348 4.18 -5.483 -12.22 17.21 13.63 6.022 -3.095 -9.802 8.082 9.528 -6.831 -5.573
3.72 1.169 -8.18 -5.169 2.067 3.955 -6.562 -5.034 17.08 12.85 7.281 -3.353 -7.48 8.684 8.629 -5.933 -3.685
3.725 1.708 -8.584 -0.809 3.91 1.888 -8.899 2.517 15.01 10.96 5.933 -4.385 -6.362 6.878 6.831 -6.831 -1.888
3.73 1.528 -7.461 4.09 6.921 -1.213 -10.88 9.483 12.99 9.372 2.337 -5.933 -4.643 5.417 5.483 -6.292 0
3.735 1.888 -3.101 10.29 11.1 -3.146 -9.978 15.46 12.18 9.114 -1.258 -6.105 -0.3439 6.362 5.573 -2.427 2.787
3.74 3.685 4.225 15.51 15.55 -2.337 -5.348 20.27 12.31 10.23 -2.607 -3.439 6.191 9.114 7.101 3.236 6.472
3.745 6.562 11.91 17.98 19.24 0.9888 1.618 23.06 12.58 12.04 -0.9888 2.235 13.67 12.55 9.438 9.798 10.97
3.75 8.629 17.26 19.42 21.93 5.438 9.124 23.19 12.72 13.24 2.607 9.888 21.32 15.99 11.33 17.08 15.64
3.755 9.348 19.19 20.58 22.88 9.213 15.1 19.73 11.78 12.72 5.753 16.85 27.17 17.2 11.24 23.64 18.7
3.76 9.438 18.38 18.74 20.9 10.52 17.35 12.63 8.809 9.759 6.112 19.78 28.72 14.01 8.719 26.97 18.88
3.765 8.36 15.37 12.85 15.69 8.315 15.37 4.135 4 5.03 3.146 17.2 25.36 8.426 5.034 26.61 16.9
3.77 5.303 10.52 6.202 8.315 3.775 10.7 -2.697 -0.9888 0.2149 -0.809 11.01 19.26 4.213 2.247 24.27 14.38
3.775 0.2697 4.809 1.348 0.5843 -0.8989 5.573 -6.472 -5.393 -3.568 -3.506 4.127 12.12 2.751 1.258 20.04 11.69
3.78 -5.303 -0.809 -3.326 -6.472 -4.18 0.9888 -7.955 -8.809 -5.804 -4.315 -1.118 4.729 1.806 1.079 12.13 8.27
3.785 -9.708 -6.157 -8.989 -11.51 -5.798 -2.697 -8.27 -10.52 -6.362 -4.135 -3.955 -1.634 0.172 1.169 2.337 4.494
3.79 -12.4 -10.47 -13.08 -13.21 -5.618 -4.18 -7.236 -8.854 -5.331 -3.326 -3.869 -4.901 -0.4299 1.169 -4.854 2.067
3.795 -12.67 -12.54 -13.35 -11.46 -3.73 -2.337 -4.449 -3.775 -3.009 -1.798 -1.118 -4.471 0.5159 1.618 -7.011 1.348
3.8 -10.07 -11.33 -11.33 -7.865 -0.8539 1.933 -0.04494 2.831 -0.3009 0.2697 2.235 -2.751 1.892 2.247 -5.843 1.618
3.805 -6.112 -7.596 -8.899 -4.18 1.573 6.517 4.584 8.584 2.149 2.157 4.643 -1.72 2.751 3.056 -3.775 1.258
3.81 -3.056 -3.236 -5.258 -1.528 2.831 9.573 7.82 11.6 3.697 3.236 5.245 -1.634 3.267 3.865 -2.247 -0.809
3.815 -1.618 0.04494 -0.809 -0.3596 2.742 9.978 7.955 10.79 3.74 2.876 3.611 -2.579 2.407 3.236 -3.775 -4.674
3.82 -1.348 1.169 1.483 -0.8539 1.079 6.831 4.809 6.067 2.021 0.2697 -0.5159 -5.589 -1.204 0.8989 -10.07 -9.348
3.825 -1.888 -0.4944 0.809 -2.247 -2.292 0.4944 0.5843 -0.4045 -0.9458 -4.404 -6.62 -10.15 -5.847 -2.337 -18.52 -12.31
3.83 -3.416 -4.045 0.1798 -3.191 -6.562 -6.562 -2.742 -5.708 -3.998 -9.079 -12.38 -14.1 -8.082 -4.854 -23.01 -12.04
3.835 -5.393 -7.191 1.169 -3.551 -9.933 -11.82 -5.258 -8.944 -6.491 -11.42 -15.48 -15.91 -7.91 -6.202 -20.67 -10.07
3.84 -5.933 -7.416 0.6742 -4.629 -11.19 -14.34 -9.124 -11.64 -8.555 -10.97 -15.13 -15.82 -8.942 -7.64 -13.66 -9.978
3.845 -4.494 -4.09 -3.101 -6.876 -9.933 -13.89 -14.97 -15.15 -10.79 -8.36 -11.95 -13.67 -12.81 -10.16 -5.034 -12.85
3.85 -1.348 1.798 -6.742 -8.674 -6.067 -9.843 -19.78 -18.61 -13.07 -4.225 -6.362 -8.34 -17.45 -13.39 3.596 -16.9
3.855 3.056 8.854 -6.112 -8.09 -0.08989 -2.067 -19.19 -19.96 -14.7 0.7191 0.5159 -0.2579 -19.95 -16.09 10.52 -18.7
3.86 8 14.92 -1.933 -4.629 6.247 7.101 -11.01 -17.53 -14.49 5.213 7.308 8.34 -18.31 -16.45 14.2 -15.46
3.865 11.78 17.75 3.056 0.4045 10.56 14.65 2.742 -10.47 -11.35 8.18 12.9 15.99 -10.92 -12.76 16.72 -6.022
3.87 12.31 16.22 7.73 5.079 11.87 18.83 17.35 0.4944 -5.202 9.798 17.54 23.47 2.837 -4.494 21.93 8.449
3.875 10.07 11.6 10.65 7.416 11.37 19.69 27.01 12.31 2.493 10.52 21.58 30.44 19.26 6.022 29.03 24
3.88 7.011 6.562 9.528 6.697 10.47 17.89 29.35 21.26 9.329 10.7 23.9 34.48 31.73 15.19 32.99 35.6
3.885 4.854 2.562 5.258 4.36 9.573 14.38 26.07 25.57 13.58 9.978 22.78 33.1 36.89 20.31 30.02 40.36
3.89 3.146 -0.6742 2.112 2.607 8.36 10.16 20.67 25.93 14.87 8.449 17.63 26.22 35.34 20.94 20.76 38.02
3.895 1.169 -3.73 1.528 1.933 6.067 5.303 14.56 22.88 13.76 6.292 9.2 14.87 28.89 17.98 7.371 30.2
3.9 -1.528 -6.742 -0.4045 0.4944 2.022 -1.213 6.607 16.36 10.83 3.146 -1.376 0.6019 18.66 12.85 -7.371 19.42
3.905 -4.674 -9.573 -6.382 -3.371 -3.371 -9.034 -3.461 7.056 6.663 -1.079 -11.26 -12.81 7.394 7.551 -19.24 8.989
3.91 -7.461 -10.97 -12.49 -8.674 -7.73 -14.88 -13.35 -2.742 1.763 -4.674 -17.2 -21.06 -1.548 3.416 -24.45 1.348
3.915 -7.64 -9.348 -13.71 -12.94 -8.584 -15.51 -19.37 -11.01 -3.568 -6.472 -17.88 -23.56 -8.168 -0.4494 -24.45 -4.584
3.92 -4.404 -5.124 -9.843 -14.25 -5.978 -11.46 -20.09 -16.76 -8.985 -6.742 -15.39 -23.82 -15.22 -5.393 -24.27 -11.15
3.925 0.3596 -1.079 -3.506 -12.22 -2.742 -6.652 -16.99 -19.87 -13.76 -6.742 -13.24 -25.28 -23.73 -11.6 -26.7 -19.6
3.93 2.876 0.04494 3.685 -7.596 -1.933 -4.674 -13.17 -20.31 -16.77 -7.461 -13.33 -28.12 -31.12 -17.62 -29.57 -28.22
3.935 1.528 -1.618 10.02 -2.112 -4.045 -6.921 -11.64 -19.15 -17.24 -8.539 -15.56 -30.69 -35.34 -21.48 -30.38 -34.52
3.94 -1.798 -3.551 12.58 2.472 -7.551 -11.87 -12.85 -17.66 -15.3 -9.978 -18.49 -31.38 -35.68 -22.11 -28.67 -36.31
3.945 -4.225 -3.461 11.33 5.348 -10.02 -16.13 -14.34 -15.82 -11.61 -10.79 -19.69 -28.63 -31.73 -19.33 -23.28 -32.99
3.95 -4.135 -1.079 9.843 7.101 -9.618 -16.04 -13.12 -13.08 -7.007 -9.978 -17.11 -21.24 -23.56 -14.11 -13.48 -25.89
3.955 -1.618 2.202 9.438 7.685 -6.157 -11.28 -8.989 -9.708 -2.923 -7.101 -10.58 -11.01 -13.93 -8.629 -1.708 -17.62
3.96 1.438 4.18 6.652 6.337 -1.888 -5.303 -4.18 -6.921 -0.3869 -3.326 -2.665 -1.892 -6.792 -4.854 7.281 -10.97
3.965 2.876 2.697 -0.3146 3.146 0.3596 -1.888 -0.764 -4.36 0.7308 -0.08989 4.213 4.385 -2.493 -2.607 11.69 -6.202
3.97 0.9888 -2.337 -7.775 0.04494 -0.08989 -1.843 1.618 -0.04494 2.021 2.427 9.458 8.856 2.407 0 14.11 -1.888
3.975 -3.236 -8.989 -11.87 -1.393 -2.022 -3.416 3.236 7.056 4.987 4.494 13.07 13.07 9.544 4.135 16.27 2.966
3.98 -7.371 -14.97 -13.39 -1.573 -4.135 -5.079 3.685 15.19 9.759 6.022 14.96 16.51 17.45 9.528 17.8 7.91
3.985 -10.43 -19.06 -14.88 -1.753 -5.753 -6.472 2.157 21.35 14.92 6.831 14.44 18.4 24.25 15.19 18.7 13.03
3.99 -12.67 -20.94 -16.04 -2.876 -6.517 -7.281 -1.393 22.88 18.06 7.011 11.61 18.66 28.98 19.42 19.42 18.52
3.995 -14.11 -20.04 -16.09 -4.989 -5.888 -7.056 -5.843 18.52 17.02 6.652 6.792 16.42 29.83 20.58 18.25 23.46
4 -13.12 -16.18 -16.04 -7.73 -3.865 -5.843 -9.438 8.989 11.13 5.303 0.2579 10.32 24.76 17.44 11.87 25.89
4.005 -9.348 -10.56 -16.18 -10.29 -1.618 -3.73 -10.2 -2.292 2.192 2.157 -6.964 1.376 15.05 10.97 1.079 24.63
4.01 -4.135 -5.348 -14.07 -11.96 -0.04494 -0.2697 -7.461 -10.88 -6.319 -2.247 -12.72 -6.534 4.901 3.596 -9.079 20.31
4.015 0.1798 -1.169 -9.438 -12.99 0.1798 3.955 -2.607 -14.65 -11.87 -7.101 -15.91 -10.4 -2.923 -2.517 -15.19 14.11
4.02 2.337 2.022 -5.798 -14.25 -1.348 6.742 1.573 -14.43 -13.37 -11.87 -16.85 -10.32 -8.512 -6.292 -17.53 7.461
4.025 1.798 4.494 -4.809 -15.24 -4.494 6.337 3.82 -11.78 -11.61 -16.27 -16.77 -7.824 -11.52 -7.371 -17.26 1.888
4.03 -0.2697 6.112 -3.596 -14.07 -7.955 3.685 4.854 -7.64 -7.996 -19.06 -15.99 -4.127 -11.26 -6.292 -15.1 -2.247
4.035 -1.618 7.596 0.4494 -9.573 -9.483 1.348 5.618 -3.326 -4.256 -19.24 -14.1 -1.032 -9.2 -4.584 -12.67 -6.112
4.04 0.08989 9.213 5.393 -2.787 -8.045 0.9438 6.067 -0.3596 -1.72 -16.72 -11.52 -0.08598 -8.34 -3.865 -12.58 -11.06
4.045 4.225 11.06 8.539 3.955 -4.315 2.562 6.742 1.258 -0.2579 -12.22 -8.254 -0.9458 -8.684 -4.225 -13.66 -16.09
4.05 8.449 13.35 10.97 9.438 0.9438 6.202 8.539 2.831 0.8598 -6.292 -4.041 -0.6878 -7.652 -4.584 -12.49 -18.88
4.055 11.15 16.27 14.25 13.62 7.056 10.79 12 5.169 2.278 0.5393 0.9458 1.548 -4.643 -4.404 -8.27 -18.79
4.06 12.85 19.51 17.03 16.67 12.63 14.11 16.04 7.371 3.525 6.562 5.589 3.697 -2.579 -4.764 -4.045 -17.35
4.065 13.93 21.3 18.29 18.97 15.91 14.52 19.06 8.404 3.912 10.43 9.114 3.525 -3.697 -6.292 -1.348 -16.81
4.07 14.47 20.49 19.87 20.76 16.31 12.72 19.87 7.73 3.009 12.4 12.12 1.462 -7.48 -9.258 1.258 -18.07
4.075 13.93 18.07 22.29 21.3 14.83 10.65 17.8 5.483 0.6878 13.21 15.65 -0.6019 -12.64 -12.67 4.674 -20.13
4.08 12.85 15.82 22.43 19.37 12.67 9.124 13.17 2.067 -2.021 13.57 19.86 -1.806 -17.11 -14.83 7.91 -20.94
4.085 10.97 13.89 17.75 14.79 10.61 8.135 7.551 -0.5843 -3.482 13.48 23.9 -0.9458 -17.37 -13.57 11.06 -17.71
4.09 7.551 10.56 10.07 9.079 8.989 7.551 3.011 -0.5393 -2.235 13.21 27.08 3.181 -10.15 -7.73 16 -9.169
4.095 2.787 4.27 1.573 3.82 7.73 6.966 -0.1798 1.933 1.548 12.76 28.46 9.2 2.493 1.438 21.66 2.427
4.1 -2.787 -5.124 -8.315 -0.8539 5.753 5.034 -3.011 4.449 6.062 11.42 26.22 14.1 15.05 11.06 24.81 13.48
4.105 -8.629 -15.6 -18.74 -4.899 1.843 1.393 -5.528 5.933 9.544 8.539 20.29 16.25 23.73 18.79 24.54 21.93
4.11 -14.38 -23.78 -24.94 -7.191 -3.236 -2.472 -6.517 7.236 11.35 4.944 12.81 17.02 28.98 23.28 23.01 27.51
4.115 -18.34 -26.43 -23.55 -6.652 -7.551 -4.404 -5.169 9.528 12.04 2.157 6.792 17.45 30.95 24.45 21.03 30.29
4.12 -18.7 -22.56 -16.58 -3.011 -9.213 -3.416 -2.247 12.76 12.47 1.169 3.955 16.94 29.15 22.38 17.53 29.66
4.125 -14.74 -14.43 -7.371 3.011 -7.596 0.2697 1.483 16.31 13.33 1.888 4.557 15.05 23.99 18.34 13.12 26.25
4.13 -8.09 -4.854 3.596 10.79 -2.831 6.921 5.978 19.91 14.75 4.674 7.824 13.33 18.23 14.11 10.61 21.57
4.135 0 4.944 15.87 18.74 4.494 16.09 11.64 22.74 15.99 8.719 12.12 12.98 13.67 11.06 10.25 16.9
4.14 8.899 14.97 26.2 24.54 12.63 25.26 17.84 23.96 16.38 12.49 14.87 13.76 10.06 8.989 9.708 12.94
4.145 17.26 24.22 31.96 27.1 18.7 30.97 23.73 23.78 15.73 13.84 14.36 14.7 7.824 8 8 9.978
4.15 23.01 30.74 34.47 26.79 20.76 31.24 27.55 22.65 14.53 12.13 10.83 15.91 7.566 7.371 6.562 7.91
4.155 24.63 33.17 34.92 24.54 18.65 26.29 27.24 20.31 12.77 8 5.159 16.08 7.738 6.022 5.663 5.303
4.16 22.47 31.46 31.87 20.76 13.26 17.3 21.71 15.6 10.06 2.067 -1.892 13.15 5.245 3.236 3.506 1.169
4.165 17.8 26.74 24.76 15.91 6.337 7.056 12.54 8.674 6.234 -4.764 -9.458 7.136 -0.08598 -0.6292 0 -4.225
4.17 12.67 20.85 17.3 11.01 0.4494 -1.258 3.371 1.393 1.462 -10.16 -15.13 0.5159 -5.245 -4.315 -2.427 -8.989
4.175 9.438 15.73 11.82 6.337 -2.337 -5.888 -3.64 -4.764 -3.482 -12.4 -17.02 -4.385 -8.77 -7.461 -3.326 -12.76
4.18 9.169 12.09 6.742 1.573 -1.753 -7.64 -8.494 -9.843 -7.953 -11.24 -15.05 -7.91 -12.12 -10.34 -4.315 -16.18
4.185 10.79 9.034 0.3146 -3.191 0.5393 -8.539 -11.96 -13.8 -10.96 -7.91 -10.75 -10.32 -15.82 -12.76 -5.483 -19.06
4.19 11.06 5.213 -5.169 -6.831 2.831 -8.809 -13.93 -16.18 -11.82 -4.135 -5.761 -10.92 -18.06 -13.75 -5.393 -20.4
4.195 8.27 0.809 -7.865 -8.719 4.27 -7.865 -14.47 -17.26 -10.92 -1.169 -1.978 -9.63 -18.14 -13.03 -4.045 -19.96
4.2 3.416 -4 -10.2 -10.25 4.36 -6.022 -14.43 -18.38 -9.63 0.2697 0.3439 -7.738 -17.37 -11.24 -3.596 -18.43
4.205 -2.517 -9.753 -15.15 -13.3 2.921 -4.449 -14.92 -20.45 -9.544 0.8989 2.321 -6.277 -16.25 -9.258 -3.685 -15.82
4.21 -8.36 -16.9 -21.98 -18.74 0.8989 -3.865 -16.81 -23.42 -11.44 3.236 6.706 -4.557 -13.67 -7.64 -1.528 -12.04
4.215 -13.12 -24.63 -29.12 -25.93 0.04494 -4.135 -20.49 -26.83 -14.83 9.079 14.01 -2.837 -10.15 -6.742 3.506 -6.921
4.22 -15.91 -30.7 -36.22 -33.12 0.8989 -5.843 -25.35 -30.29 -18.53 16.99 21.41 -2.923 -7.308 -6.202 7.371 -1.169
4.225 -16.63 -33.35 -41.66 -37.71 2.202 -9.034 -29.62 -32.45 -20.72 23.19 24.07 -6.277 -5.073 -5.573 7.011 4.854
4.23 -16.18 -32.27 -41.21 -37.75 1.978 -13.57 -31.19 -31.87 -20.33 24.36 19 -12.04 -2.321 -4.225 1.618 10.25
4.235 -15.46 -28.36 -33.35 -33.48 -1.034 -19.24 -29.84 -28.31 -18.06 19.6 6.362 -19.6 0.172 -3.146 -8.27 13.21
4.24 -14.65 -23.46 -22.25 -27.28 -7.326 -26.34 -26.79 -22.97 -15.3 10.07 -10.75 -28.55 0.08598 -3.506 -21.21 12.58
4.245 -14.29 -19.46 -12.18 -20.85 -15.82 -34.02 -22.47 -16.31 -12.98 -1.169 -27.26 -36.89 -2.149 -4.584 -32.36 10.43
4.25 -14.74 -16.9 -3.236 -14.11 -23.55 -39.1 -16.36 -7.82 -10.45 -10.52 -38.26 -40.5 -2.665 -4.584 -35.96 9.708
4.255 -15.1 -14.25 5.573 -6.652 -27.46 -38.61 -8.629 1.303 -7.007 -16.45 -41.87 -37.32 -0.172 -2.427 -31.46 11.42
4.26 -13.66 -9.978 11.78 0.3596 -26.74 -32.54 -1.663 8.18 -2.794 -19.69 -39.72 -29.58 3.009 0.8989 -24.27 13.3
4.265 -10.52 -4.764 13.26 5.169 -23.42 -23.82 2.202 10.29 1.204 -22.2 -35.34 -21.15 3.955 3.416 -19.24 12.4
4.27 -7.191 -0.2697 11.64 6.876 -19.82 -15.64 2.292 7.82 3.826 -24.18 -31.3 -14.53 1.978 3.685 -17.08 7.101
4.275 -4.764 2.697 9.438 6.022 -16.76 -9.933 -0.1348 2.876 4.729 -24.99 -28.37 -10.66 -2.579 1.708 -16.81 -1.618
4.28 -3.056 4.494 6.247 3.91 -14.38 -7.371 -2.697 -1.978 4.213 -24.45 -27 -9.458 -8.77 -1.708 -17.98 -11.24
4.285 -1.438 5.618 1.888 2.157 -12.58 -7.146 -3.236 -4.449 3.267 -23.1 -26.48 -8.684 -13.41 -4.494 -18.07 -18.16
4.29 -0.1798 6.472 -1.708 1.483 -10.92 -7.011 -0.9888 -3.955 2.536 -21.57 -25.11 -4.987 -13.5 -5.663 -13.93 -20.49
4.295 0.2697 7.281 -3.101 1.213 -9.079 -4.944 2.966 -2.022 1.849 -19.6 -21.06 2.321 -9.888 -5.573 -5.843 -19.06
4.3 0.5393 7.865 -4.315 0.2247 -6.921 -0.809 6.921 -0.1348 0.9028 -16.54 -13.93 10.4 -6.105 -5.483 2.876 -16.18
4.305 0.9888 8.045 -5.573 -0.4494 -4.404 4.809 11.69 2.742 0.6448 -11.78 -4.471 17.2 -2.751 -5.034 10.79 -12.04
4.31 1.978 8.494 -3.191 2.067 -0.6742 11.91 18.79 9.258 2.665 -5.034 6.448 23.3 2.751 -2.607 19.06 -5.663
4.315 4.315 10.47 4.674 9.124 4.719 19.87 27.87 19.42 7.437 2.876 17.11 29.32 11.09 1.978 27.24 2.876
4.32 8.539 14.2 13.57 17.93 10.38 25.89 34.83 28.9 12.81 9.348 24.5 33.45 18.57 6.831 31.55 11.15
4.325 12.67 17.44 17.44 23.6 13.12 26.7 34.97 32.22 15.39 11.69 26.4 33.45 21.67 9.438 30.11 16.18
4.33 13.39 17.21 14.88 23.01 11.33 21.44 26.65 26.7 13.07 9.618 22.7 28.63 19.26 8.629 23.82 16.36
4.335 9.348 12.99 8.449 16.72 5.978 12.45 12.27 13.66 6.362 5.124 15.05 19.6 11.95 5.034 14.2 12.31
4.34 2.697 6.742 0.5843 8.18 -0.1798 3.146 -3.056 -2.112 -1.935 0.1798 5.417 7.222 1.72 0.5393 1.978 5.843
4.345 -3.056 1.303 -5.708 1.843 -4.539 -3.775 -13.89 -14.97 -8.297 -4.135 -4.127 -5.159 -7.394 -2.157 -10.34 0
4.35 -5.843 -1.618 -6.517 0.04494 -5.978 -6.652 -17.66 -21.48 -10.96 -7.191 -11.69 -13.93 -11.87 -2.337 -19.06 -3.865
4.355 -5.034 -1.933 -1.753 1.079 -4.629 -6.202 -15.87 -22.83 -11.05 -8.989 -16.34 -18.23 -12.81 -1.978 -23.55 -6.742
4.36 -1.798 -1.303 3.056 1.303 -2.112 -5.124 -12.58 -22.88 -11.09 -9.798 -18.92 -20.72 -14.79 -3.865 -26.79 -11.24
4.365 1.438 -2.112 3.64 -1.213 -0.3596 -5.483 -10.43 -23.6 -12.47 -9.888 -20.55 -23.82 -19.52 -8.539 -30.2 -17.89
4.37 2.247 -5.348 1.708 -4.764 0.4944 -6.697 -9.348 -23.6 -13.97 -8.629 -20.98 -26.57 -24.42 -13.57 -31.64 -24.36
4.375 0.5393 -9.618 0.6292 -6.652 1.528 -7.011 -8.629 -20.63 -13.37 -5.663 -19.43 -27.26 -26.31 -15.82 -29.75 -28.04
4.38 -1.798 -12.94 -0.2247 -6.022 2.831 -6.607 -8.135 -14.11 -9.458 -1.888 -15.91 -25.54 -24.16 -13.75 -25.53 -27.33
4.385 -3.775 -14.97 -2.607 -4.27 3.371 -6.787 -8 -5.034 -2.622 1.079 -10.83 -21.15 -17.63 -7.82 -18.52 -21.84
4.39 -5.573 -16.31 -5.573 -2.921 2.607 -7.685 -7.461 5.079 5.546 3.326 -3.955 -12.98 -6.878 0.1798 -7.371 -12.67
4.395 -7.191 -17.12 -8 -3.011 1.483 -7.685 -6.202 13.93 12.55 5.753 4.557 -1.806 5.675 7.551 6.921 -2.247
4.4 -7.64 -16.58 -11.1 -4.494 1.483 -5.438 -4.18 19.73 16.81 8.809 13.24 9.716 15.65 12.22 19.69 6.382
4.405 -6.382 -14.02 -15.24 -6.292 3.146 -0.3596 -1.348 22.29 18.06 11.96 20.55 18.92 21.32 14.47 28.13 12.22
4.41 -4.315 -9.753 -17.3 -7.281 6.202 7.011 2.247 22.79 16.94 14.65 25.79 25.11 24.42 15.55 32.45 16
4.415 -2.067 -4.36 -15.28 -7.551 9.618 14.61 5.753 21.53 14.06 16.45 28.89 27.86 25.79 15.91 33.26 18.79
4.42 0.4494 0.8989 -11.55 -8.27 11.78 19.42 8.135 17.93 9.845 16.81 30.01 27.17 24.59 15.1 30.83 21.21
4.425 2.247 4.584 -8.674 -9.483 11.37 19.91 9.303 12.58 5.03 15.64 29.32 25.11 21.67 13.03 27.78 24.27
4.43 2.697 5.978 -5.393 -9.438 9.079 17.89 10.52 7.64 1.118 13.75 28.2 25.11 19.52 10.52 27.78 28.58
4.435 2.247 6.022 0.1348 -6.157 6.607 16.27 12.99 5.169 -0.4729 11.6 27.17 28.12 19.43 8.899 30.29 33.35
4.44 1.888 5.663 6.157 0.2247 5.079 16.22 17.08 6.112 0.7738 9.079 25.28 31.12 19.86 8.809 30.38 36.67
4.445 2.337 5.438 10.7 8 4.315 17.08 22.38 10.16 4.729 5.753 22.18 30.52 20.46 10.34 25.08 36.76
4.45 3.236 5.348 14.56 14.65 4.629 18.02 27.78 15.73 9.673 2.697 18.57 25.54 21.15 12.4 15.91 32.99
4.455 5.213 6.247 18.29 17.84 6.921 18.56 29.8 19.15 12.85 1.798 15.56 16.94 19.78 12.49 5.573 24.45
4.46 8.989 8.539 18.83 15.64 10.97 17.12 24.04 15.87 11.35 3.056 12.55 5.073 12.3 7.91 -5.124 10.7
4.465 13.66 10.79 13.71 8.27 14.79 12.18 8.764 4.315 4.385 5.124 7.824 -8.942 -1.978 -1.528 -14.65 -6.292
4.47 16.27 10.43 5.258 -1.798 15.73 3.865 -12.67 -12.54 -6.019 6.472 1.204 -22.87 -18.57 -12.94 -20.94 -22.74
4.475 14.38 5.753 -3.146 -11.33 12.63 -6.022 -33.26 -28.72 -15.99 6.382 -6.191 -34.48 -32.07 -22.47 -23.91 -34.79
4.48 7.91 -2.382 -10.92 -18.11 6.022 -14.97 -45.39 -38.38 -21.75 5.034 -11.95 -41.7 -39.03 -26.79 -25.17 -40.36
4.485 -0.8989 -11.42 -17.75 -20.99 -1.843 -20.13 -44.9 -37.89 -21.28 3.416 -13.15 -42.3 -37.4 -24.9 -24.18 -39.01
4.49 -8.719 -17.75 -20.85 -19.15 -7.506 -19.42 -32.9 -27.15 -15.3 3.326 -8.254 -34.39 -27.51 -18.07 -18.88 -32.36
4.495 -12.58 -18.65 -18.2 -13.21 -8.36 -13.03 -16.04 -10.79 -7.05 5.213 0.9458 -20.64 -14.1 -9.978 -10.43 -24.18
4.5 -11.06 -14.47 -12 -5.169 -5.034 -4.899 -2.337 4.135 -0.2149 7.73 9.63 -7.566 -4.299 -4.315 -3.865 -18.07
4.505 -6.382 -8.629 -5.303 2.966 -0.8539 0.4944 4.315 13.39 3.525 8.989 13.84 -0.6019 -0.6878 -2.247 -1.348 -14.92
4.51 -2.876 -4.584 2.337 10.16 1.438 1.888 5.438 16.94 4.815 8.36 13.15 0.7738 -0.2579 -1.888 -0.6292 -12.31
4.515 -2.427 -2.966 10.88 15.6 1.663 1.034 5.213 16.99 5.374 6.472 9.888 0.2579 0.5159 -1.169 0.809 -8.27
4.52 -3.236 -1.888 17.3 18.52 0.764 0.2697 6.292 15.1 5.89 4.045 6.448 0.8598 2.149 0.8989 2.607 -2.607
4.525 -2.966 0.9438 19.42 18.79 -0.2247 0.5843 9.079 12 5.933 0.809 3.353 3.353 4.127 3.506 4.404 4.045
4.53 -0.4494 6.157 19.6 17.44 -0.6292 2.517 12.31 8.18 4.514 -2.787 0.8598 7.222 6.191 5.213 6.562 10.34
4.535 3.865 12.9 20.9 15.46 -0.08989 5.663 14.52 3.461 1.075 -5.663 -1.548 10.58 7.222 4.764 8.719 15.1
4.54 8.809 19.01 21.93 12.85 0.8989 8.404 14.65 -1.888 -3.525 -7.371 -3.525 11.52 6.191 2.247 9.348 17.8
4.545 11.96 21.8 20.18 9.258 1.483 9.393 13.03 -6.022 -7.136 -7.371 -4.299 10.92 5.073 0 9.438 19.33
4.55 11.87 20.09 15.91 5.438 1.528 8.674 10.97 -6.337 -7.222 -5.573 -2.579 11.95 7.394 0.7191 11.96 21.12
4.555 8.989 14.92 10.56 2.517 1.888 7.371 8.944 -2.067 -2.708 -2.607 1.806 15.91 13.24 5.034 16.27 22.74
4.56 4.944 8.764 4.09 1.124 2.742 5.933 6.697 5.169 5.202 -0.08989 6.448 20.29 19 10.97 18.43 22.38
4.565 1.708 3.551 -2.472 2.157 3.685 4.989 5.213 13.66 14.23 0.3596 9.286 22.7 22.01 16.18 16.9 19.87
4.57 -0.3596 0.5843 -5.213 5.798 4.449 5.708 6.382 22.29 22.14 -0.809 9.63 23.3 23.21 19.33 13.75 16.09
4.575 -0.7191 0.3146 -2.202 10.56 5.303 8.404 10.56 29.66 27.08 -2.427 7.738 22.7 23.04 19.96 10.43 12.13
4.58 0.8989 2.157 2.562 13.17 5.258 10.52 15.24 32.76 27.64 -4.494 3.353 20.03 20.29 17.89 5.933 7.551
4.585 3.326 3.865 3.91 11.1 2.697 8.584 16.81 29.35 23.09 -7.551 -3.525 14.36 14.79 13.57 -0.08989 2.247
4.59 3.506 3.101 1.438 4.36 -3.056 1.573 13.3 19.37 14.14 -11.42 -11.35 6.878 7.738 7.82 -4.944 -3.236
4.595 -0.08989 -0.764 -2.517 -5.079 -10.43 -8.584 5.393 4.989 2.493 -15.1 -18.14 -0.5159 0.172 1.438 -7.551 -8.09
4.6 -6.652 -6.427 -7.685 -14.92 -17.53 -18.56 -4.315 -10.61 -9.673 -17.71 -22.27 -6.534 -8.082 -5.213 -8.719 -11.87
4.605 -13.57 -11.64 -13.71 -23.06 -22.79 -25.39 -11.78 -23.33 -19.73 -19.06 -23.82 -10.23 -15.05 -10.52 -9.438 -13.48
4.61 -18.34 -14.7 -17.98 -28.09 -25.3 -27.15 -14.34 -30.25 -25.71 -18.88 -23.56 -11.01 -18.14 -13.39 -9.169 -13.03
4.615 -19.24 -14.61 -18.47 -29.57 -24.45 -23.96 -12.45 -31.6 -27.13 -17.26 -22.78 -10.32 -17.88 -14.02 -9.438 -12.31
4.62 -16.09 -11.51 -17.12 -28.09 -21.03 -18.38 -9.393 -29.98 -25.19 -14.83 -22.61 -11.35 -17.97 -13.57 -12.58 -13.03
4.625 -10.79 -7.326 -15.78 -23.91 -16.4 -13.03 -7.596 -26.97 -21.02 -11.87 -22.44 -14.62 -19.52 -12.85 -17.17 -14.65
4.63 -6.022 -3.685 -12.63 -16.94 -11.19 -8.494 -6.966 -22.02 -15.3 -8.09 -20.64 -17.02 -20.21 -11.24 -18.7 -14.65
4.635 -2.697 -0.6292 -6.067 -7.82 -5.528 -4.135 -6.787 -15.1 -8.77 -3.685 -16.59 -15.91 -18.31 -8.539 -15.64 -11.69
4.64 0.5393 2.876 0.809 0.764 -0.1798 -0.4494 -6.472 -8.135 -2.794 0 -12.21 -12.12 -15.22 -5.483 -11.06 -6.652
4.645 4.135 6.831 4.404 6.337 3.146 1.483 -6.202 -3.73 1.161 1.079 -9.63 -7.996 -11.95 -2.697 -7.011 -1.528
4.65 7.011 10.25 4.854 8 3.91 1.663 -5.843 -2.787 2.88 0 -8.77 -4.299 -8.34 -0.4494 -2.337 2.966
4.655 7.551 11.78 3.865 6.831 3.326 1.258 -5.843 -4.135 3.009 -0.809 -6.964 -0.8598 -4.557 1.348 4.225 6.202
4.66 6.292 10.83 1.258 4.719 3.101 1.124 -6.607 -5.843 3.009 0.809 -1.634 1.892 -1.892 2.876 11.6 8.629
4.665 4.045 7.236 -2.876 3.775 4.629 1.978 -7.865 -5.528 3.955 5.663 8.254 4.471 0.08598 4.674 18.7 10.97
4.67 2.337 2.247 -5.124 5.303 8.764 5.169 -8.404 -2.292 6.148 12.85 21.49 7.91 3.095 6.831 25.44 13.93
4.675 2.697 -1.798 -2.921 8.899 15.33 11.15 -7.326 2.202 8.082 20.67 34.99 12.12 6.62 8.27 30.29 16.36
4.68 5.843 -2.697 1.348 12.49 22.43 18.43 -4.36 5.348 8.297 26.61 44.71 15.73 8.684 8 31.19 17.08
4.685 10.52 -0.3596 4.404 14.43 27.28 24.22 0.809 6.921 7.007 29.3 48.41 18.49 10.06 6.472 29.3 16.72
4.69 13.84 3.461 6.472 14.7 27.82 26.7 8.449 10.02 6.148 28.94 46.34 21.92 13.84 5.663 27.6 16.99
4.695 14.65 6.921 8.989 14.25 24.4 25.39 16.76 16.67 7.523 26.34 39.46 25.28 20.38 6.382 25.62 17.71
4.7 13.21 9.034 10.92 13.57 17.84 20.09 22.79 25.35 10.96 21.21 28.46 25.19 26.14 7.73 19.24 16.54
4.705 10.43 8.944 11.28 12.85 9.348 11.6 24.13 32.49 14.62 13.3 14.01 18.74 27.69 8.18 6.562 11.6
4.71 6.562 6.921 12.18 12.54 0.2247 2.067 20.85 35.28 16.38 3.416 -1.462 7.394 24.93 7.461 -8.809 3.685
4.715 1.528 4.045 14.79 12.49 -8.045 -6.517 14.47 32.27 15.13 -6.112 -14.87 -5.589 18.92 5.843 -21.66 -5.213
4.72 -3.865 1.573 16.22 11.87 -15.06 -13.71 6.742 24 11.22 -13.48 -24.68 -17.11 10.15 3.775 -29.84 -12.49
4.725 -8.899 -0.3596 13.26 9.798 -20.94 -19.69 -0.5393 12.94 6.191 -18.07 -30.44 -24.59 1.032 1.798 -32.09 -16.36
4.73 -13.21 -2.112 7.64 6.697 -24.81 -22.92 -5.573 2.292 1.677 -19.6 -32.07 -26.4 -5.933 0 -28.58 -16.81
4.735 -15.73 -3.191 3.371 3.73 -24.94 -21.44 -7.146 -5.798 -1.72 -18.7 -30.35 -23.39 -10.4 -2.337 -22.65 -15.82
4.74 -14.47 -2.382 1.573 1.618 -20.54 -14.97 -4.719 -10.38 -3.783 -16.45 -26.65 -18.31 -14.1 -5.483 -18.88 -15.55
4.745 -9.079 0.9888 2.337 1.213 -12.94 -5.213 1.753 -10.43 -4.299 -13.93 -22.1 -13.33 -16.25 -8.27 -17.89 -15.37
4.75 -0.9888 6.652 6.876 2.876 -4.36 5.213 11.28 -5.483 -2.966 -10.88 -16.94 -7.91 -14.44 -8.539 -16.09 -12.94
4.755 7.281 13.71 14.56 5.618 3.101 13.98 20.63 2.202 -0.3439 -6.831 -11.26 -2.064 -8.598 -6.112 -11.06 -7.551
4.76 13.93 19.87 20.22 6.966 8.18 18.88 25.48 7.82 1.591 -2.337 -5.933 2.665 -2.665 -2.697 -4.045 -1.169
4.765 17.44 22.38 19.15 5.124 10.38 19.24 23.55 8.045 1.29 1.528 -1.376 5.589 0.7738 -0.2697 3.685 4.045
4.77 16.27 19.15 12.58 0.5393 10.65 16.4 16.27 3.506 -1.118 4.674 3.009 7.738 2.321 0.7191 12.4 6.742
4.775 11.6 11.37 4.629 -4.674 10.56 12.18 6.966 -2.787 -4.127 7.011 6.792 9.544 2.837 0.5393 19.69 6.562
4.78 6.112 2.517 -3.101 -8.539 10.2 6.787 -1.618 -7.775 -6.148 8.27 8.254 9.114 1.72 -0.5393 21.21 4.135
4.785 2.247 -4.09 -9.438 -9.888 8.404 0.08989 -8.18 -10.2 -6.62 7.64 5.503 5.417 -0.8598 -2.067 15.37 1.079
4.79 0.1798 -6.742 -11.78 -8.27 4.854 -6.652 -12.49 -10.61 -6.448 5.393 -0.5159 -0.4299 -3.697 -4.045 5.303 -1.348
4.795 -0.2697 -5.798 -9.303 -5.213 1.034 -11.15 -14.97 -11.01 -7.093 2.787 -7.05 -6.878 -6.706 -6.472 -5.124 -2.966
4.8 0.3596 -3.551 -6.112 -3.551 -1.393 -12.76 -16.49 -13.35 -9.63 0.809 -11.61 -12.98 -11.09 -9.258 -14.38 -5.034
4.805 0.6292 -3.685 -7.011 -5.573 -2.247 -12.81 -17.93 -17.39 -13.46 0.08989 -13.07 -18.83 -16.08 -11.6 -21.12 -8.27
4.81 -1.798 -8.719 -12.31 -11.51 -2.382 -13.26 -20.04 -21.48 -16.72 0.6292 -12.04 -23.99 -19.09 -12.4 -24 -12.04
4.815 -7.191 -18.16 -19.78 -19.6 -3.146 -15.73 -24.54 -24.94 -18.4 1.888 -10.4 -29.23 -20.46 -12.04 -24.9 -16.72
4.82 -14.38 -28.72 -28.09 -27.46 -5.483 -20.76 -32.45 -28.36 -18.61 2.607 -10.23 -35.94 -22.53 -12.13 -27.24 -21.84
4.825 -20.67 -36.58 -35.6 -32.36 -9.213 -26.74 -41.57 -31.19 -17.88 1.708 -11.09 -42.04 -25.62 -12.85 -30.38 -26.07
4.83 -24.18 -39.06 -37.66 -32.04 -12 -29.53 -46.25 -31.06 -15.95 0.3596 -9.716 -43.08 -26.31 -13.03 -29.66 -26.7
4.835 -23.1 -35.06 -31.82 -26.47 -11.01 -25.44 -41.98 -25.66 -12.55 0.2697 -3.697 -35.94 -22.35 -11.6 -22.92 -22.65
4.84 -17.17 -25.75 -21.53 -18.29 -5.708 -14.7 -28.81 -15.78 -7.996 1.888 5.933 -22.44 -15.39 -8.809 -13.12 -15.91
4.845 -8.719 -14.47 -12.27 -10.34 0.8539 -1.303 -11.6 -4.539 -3.353 3.955 15.05 -7.394 -7.91 -5.573 -4.404 -8.989
4.85 -1.798 -4.944 -5.708 -4.045 5.393 10.43 3.236 4.764 0.4299 4.584 19.95 5.675 -0.9458 -2.697 2.337 -3.865
4.855 0.8989 1.438 -0.7191 0.6292 6.292 17.39 11.15 9.753 2.493 2.876 19.43 15.05 4.299 -0.2697 7.281 -0.3596
4.86 0.08989 5.034 2.112 3.91 4.18 18.29 11.24 10.25 3.138 -0.8989 14.62 20.64 7.566 2.157 11.06 2.966
4.865 -1.708 6.921 2.247 5.663 1.034 14.43 7.056 8.404 3.396 -5.303 9.2 24.68 10.92 5.663 16.54 8.719
4.87 -2.337 8.045 2.067 6.292 -0.5843 9.573 3.596 7.191 4.428 -7.461 6.448 29.92 17.2 10.61 26.34 18.25
4.875 -0.6292 9.258 3.416 5.798 0.4494 6.966 3.281 7.416 6.319 -5.933 7.824 36.54 25.11 15.37 38.2 28.58
4.88 3.596 10.97 4.27 4.315 3.371 7.146 5.169 7.596 7.867 -1.978 11.01 40.93 29.32 17.26 44.94 34.52
4.885 7.91 12.22 2.562 2.562 5.483 7.91 7.506 7.011 8.555 1.438 12.72 40.24 27.34 15.82 42.61 32.99
4.89 9.798 11.96 0.5843 1.933 5.079 7.281 9.528 6.607 8.512 2.517 11.61 34.56 20.98 12.58 33.08 25.26
4.895 8.09 9.888 1.079 2.787 2.517 4.629 10.92 7.146 8.254 1.169 7.738 25.45 13.15 9.438 20.04 14.65
4.9 4.404 6.742 2.831 3.64 -0.8989 0.1798 10.61 7.146 7.308 -1.708 2.064 13.93 4.557 6.382 5.573 3.775
4.905 0.9888 3.326 3.236 3.011 -4.449 -5.124 7.73 4.629 4.815 -5.393 -4.643 1.032 -4.127 2.787 -8.18 -5.663
4.91 -0.9888 0.2697 2.921 0.9888 -7.191 -9.124 2.742 -1.079 0.4729 -8.629 -10.75 -10.75 -11.87 -2.067 -18.52 -13.48
4.915 -1.169 -1.169 3.596 -1.079 -8.09 -10.2 -2.831 -8.674 -5.159 -10.88 -14.96 -19.78 -18.66 -8.18 -25.17 -20.31
4.92 0.2697 -0.7191 4.315 -2.157 -7.101 -8.809 -7.011 -15.51 -10.32 -12.04 -17.11 -25.88 -24.76 -13.93 -30.2 -26.16
4.925 2.427 0.809 3.775 -1.483 -5.258 -6.831 -7.955 -18.34 -12.77 -12.58 -17.54 -28.63 -28.12 -16.81 -33.53 -29.12
4.93 3.506 1.888 3.91 1.258 -3.371 -4.764 -5.124 -15.01 -10.83 -12.04 -16.42 -27.26 -25.54 -15.1 -32.81 -27.42
4.935 3.506 2.607 6.472 5.708 -1.483 -2.247 -0.6292 -7.056 -5.159 -9.978 -14.1 -22.44 -17.71 -9.978 -28.13 -22.2
4.94 3.416 3.73 9.753 10.38 0.4944 0.5843 2.427 1.213 1.462 -7.191 -11.78 -17.63 -9.458 -4.764 -23.28 -17.08
4.945 4.135 5.663 11.28 14.2 2.067 2.876 2.652 6.562 6.405 -5.213 -10.4 -15.13 -4.299 -1.978 -20.22 -14.11
4.95 5.124 7.461 12.13 17.08 3.146 4.225 1.618 8.719 8.469 -4.225 -8.856 -13.93 -1.634 -1.798 -16.9 -12.67
4.955 5.393 8.225 14.02 18.79 4.045 4.854 1.708 9.079 7.91 -2.966 -5.761 -11.61 0.172 -2.607 -11.96 -10.7
4.96 4.674 6.966 14.92 18.43 4.674 4.494 3.596 8.719 5.976 -0.5393 -0.6019 -7.394 1.72 -2.966 -6.292 -7.011
4.965 2.966 3.236 12.04 15.33 4.27 2.876 6.607 8.629 4.342 2.876 5.589 -1.462 4.213 -1.528 -0.4494 -1.079
4.97 0 -2.067 6.562 10.2 2.697 0.5393 9.303 9.528 4.256 6.382 11.18 5.417 9.114 2.067 5.483 6.292
4.975 -3.775 -7.056 1.034 4 0.5843 -1.843 9.888 10.92 5.503 8.629 14.53 11.09 15.05 6.562 10.7 13.66
4.98 -6.921 -10.2 -5.034 -2.652 -1.573 -4.899 6.921 10.97 6.663 8.27 14.01 12.98 18.92 10.34 12.67 19.6
4.985 -8.989 -11.73 -12.36 -9.213 -4.449 -9.258 1.213 8.989 6.663 4.674 9.63 11.52 19.86 12.76 12.31 24.63
4.99 -10.25 -12.76 -18.47 -14.2 -8 -13.71 -4.764 5.708 5.202 -0.4494 3.783 10.32 20.12 14.2 13.3 29.84
4.995 -11.15 -13.35 -20.22 -16.54 -11.06 -15.87 -8.315 2.607 3.009 -4.854 -0.7738 12.38 20.89 15.01 17.35 34.52
5 -10.79 -12.76 -18.52 -15.96 -12.72 -14.52 -8.135 0.764 1.161 -7.281 -2.751 17.11 21.06 14.74 21.57 36.58
5.005 -9.438 -11.01 -15.78 -13.26 -12.45 -10.2 -3.91 0.9888 0.3439 -7.64 -2.321 22.1 20.12 13.39 23.91 35.06
5.01 -7.461 -9.034 -11.96 -9.438 -9.708 -3.73 3.146 3.191 0.6019 -5.483 1.032 25.79 18.92 11.15 25.08 30.92
5.015 -5.393 -7.416 -6.562 -5.798 -4.09 4.449 10.7 5.843 0.9028 -0.4494 7.222 27.51 17.28 7.91 25.8 25.26
5.02 -2.787 -6.292 -2.337 -3.865 3.596 12.76 15.82 6.247 0.04299 7.011 14.87 26.22 13.24 3.596 24.72 18.79
5.025 0.809 -5.213 -0.9438 -3.551 10.97 19.24 17.57 3.775 -1.978 14.56 21.41 21.84 6.878 -0.8989 21.21 11.6
5.03 4.045 -3.506 0.3146 -3.101 15.33 22.16 16.76 0.6742 -3.826 19.51 23.73 15.05 0.8598 -4.315 15.82 4.315
5.035 5.933 -0.1348 4.584 -0.809 15.37 20.31 14.47 -1.079 -4.213 19.6 19.69 6.191 -3.697 -6.022 8.09 -3.236
5.04 6.562 4.584 10.38 2.787 10.83 12.9 10.11 -1.753 -3.353 14.02 8.512 -5.331 -8.254 -6.921 -3.775 -11.51
5.045 6.112 9.034 13.57 6.112 2.831 1.124 3.416 -2.607 -2.321 4.404 -7.136 -18.14 -13.15 -7.82 -17.8 -19.6
5.05 4.854 11.46 13.75 8.045 -5.708 -10.47 -3.955 -4.27 -2.064 -5.393 -21.84 -27.51 -16.77 -8.989 -28.31 -25.44
5.055 3.506 11.87 12.9 8.809 -11.33 -16.72 -9.124 -5.798 -2.321 -11.51 -30.35 -30.44 -18.06 -9.978 -32 -27.78
5.06 2.876 11.24 11.51 9.393 -12.49 -16.09 -9.079 -5.483 -1.806 -13.12 -31.81 -28.37 -17.8 -10.34 -31.01 -26.52
5.065 2.697 10.16 9.978 10.65 -10.83 -11.28 -3.461 -1.798 0.4299 -12.04 -28.46 -24.5 -15.99 -9.169 -27.96 -22.02
5.07 1.888 8.27 10.2 12.81 -8.404 -5.978 4.584 4.764 4.385 -10.25 -23.73 -20.72 -12.21 -6.382 -23.1 -15.55
5.075 0.3596 5.798 12.13 13.98 -6.157 -2.562 8.944 10.38 7.695 -8.18 -18.74 -17.11 -7.91 -3.326 -15.91 -9.079
5.08 -0.1798 3.326 11.06 11.28 -3.64 -0.9888 4.674 10.34 7.781 -5.213 -12.9 -12.47 -5.675 -1.708 -6.831 -4.404
5.085 1.348 1.348 3.236 3.865 0.08989 0.5393 -6.876 4.135 4.342 -0.5393 -4.471 -4.729 -4.471 -1.079 5.663 -0.6292
5.09 4.315 -0.1798 -7.865 -5.483 5.573 4.494 -18.16 -3.326 -0.172 6.202 8.254 8.254 0.172 0.5393 22.47 5.843
5.095 7.011 -1.079 -15.73 -12.4 12.58 11.55 -20.72 -6.337 -2.407 14.2 24.07 24.76 10.4 5.034 40.54 16.99
5.1 8.27 -1.753 -17.53 -14.52 19.42 19.28 -11.87 -3.191 -1.247 21.12 38.86 39.64 23.3 11.42 53.21 30.83
5.105 8 -2.562 -14.74 -12.36 23.6 24.36 3.73 2.742 1.849 24.72 48.49 48.15 33.53 17.08 56.81 42.43
5.11 6.562 -3.416 -9.034 -8.674 24.49 25.93 17.57 6.517 3.912 25.35 51.59 49.87 37.32 19.24 53.39 47.01
5.115 5.124 -3.371 -2.562 -5.933 23.19 25.21 22.65 4.674 2.751 24.27 49.18 45.83 32.5 16.45 46.02 42.07
5.12 4.764 -1.708 0.8989 -5.303 20.72 22.61 17.26 -2.202 -1.204 22.38 42.73 36.89 19.69 9.258 35.51 28.67
5.125 5.124 0.6292 0.4045 -5.528 16.99 17.93 6.202 -9.798 -5.46 19.51 33.19 23.99 3.783 0.9888 22.11 11.69
5.13 4.674 2.382 0 -3.73 12 11.46 -3.146 -13.03 -7.394 15.46 21.49 9.372 -9.028 -5.303 7.73 -3.416
5.135 3.236 3.551 4.135 1.303 6.742 4.629 -6.652 -10.88 -6.491 10.25 9.114 -5.073 -16.51 -8.539 -6.921 -14.92
5.14 2.517 5.079 11.24 7.82 2.292 -1.663 -5.618 -6.382 -4.299 4.315 -3.267 -18.49 -21.15 -10.25 -22.29 -24.18
5.145 2.876 7.371 16.72 12.76 -1.528 -7.191 -4.225 -2.921 -2.751 -2.517 -14.79 -29.83 -25.11 -11.87 -36.22 -32.72
5.15 3.326 9.169 18.61 14.52 -5.303 -11.91 -5.169 -0.9888 -2.106 -9.798 -24.93 -37.23 -27.6 -13.48 -44.67 -39.64
5.155 1.798 9.169 17.53 13.26 -9.708 -16.27 -8.404 0.3146 -1.978 -16.9 -33.36 -39.89 -27.6 -14.47 -47.01 -43.15
5.16 -2.517 6.382 12.99 10.16 -14.83 -20.76 -11.6 1.213 -1.978 -23.46 -40.5 -39.72 -26.14 -14.38 -45.84 -42.16
5.165 -8.09 1.393 5.573 6.652 -20.09 -24.27 -11.42 1.393 -2.364 -28.58 -45.48 -37.57 -23.64 -13.12 -42.79 -36.67
5.17 -12.58 -3.64 -0.3596 4.27 -23.1 -23.55 -5.663 1.079 -3.138 -30.2 -45.48 -32.33 -19.43 -10.43 -35.78 -26.97
5.175 -13.03 -5.258 -0.9888 3.73 -21.26 -15.96 4.225 0.8539 -3.74 -26.52 -38 -23.21 -13.5 -6.562 -23.82 -15.46
5.18 -8.18 -1.933 2.337 4.27 -14.52 -3.101 13.75 1.079 -3.267 -18.34 -24.59 -12.21 -7.738 -2.337 -9.888 -4.584
5.185 0.2697 4.764 5.393 4.584 -5.843 9.528 18.43 2.247 -0.7308 -8.989 -9.888 -2.149 -2.407 2.247 2.876 4.225
5.19 7.82 11.24 6.517 4 0.9438 16.9 16.67 4.854 3.955 -2.247 1.032 5.675 3.869 7.551 13.3 11.33
5.195 11.42 14.79 5.843 2.202 4.18 17.21 10.25 8.135 9.587 0.3596 5.761 10.58 11.18 13.39 20.13 17.35
5.2 10.79 14.56 2.112 -0.8539 4.36 12.27 3.101 11.15 14.53 -0.5393 5.503 12.81 17.88 18.97 22.2 22.74
5.205 7.461 10.83 -4.899 -4.09 3.371 6.157 -0.3596 14.25 18.36 -2.157 4.643 14.53 24.25 24.27 21.66 28.4
5.21 3.056 4.629 -11.24 -5.573 3.955 3.461 2.112 19.06 21.49 -0.7191 8.254 19.09 32.16 29.21 22.74 34.97
5.215 -0.6292 -2.652 -12.99 -4.315 8.09 5.978 8.854 25.35 24.03 5.933 18.14 27.34 40.67 32.27 26.34 40.99
5.22 -2.607 -9.393 -11.46 -1.753 14.88 11.24 15.42 29.75 24.68 15.73 30.69 35.68 45.48 31.46 28.94 43.15
5.225 -2.787 -14.74 -10.2 -0.08989 20.94 14.88 18.07 29.12 22.14 24 39.89 39.64 43.68 25.98 27.78 39.55
5.23 -2.517 -17.89 -9.258 -0.1798 23.01 14.47 16.58 23.37 16.42 27.06 41.79 37.49 36.28 17.35 23.37 30.92
5.235 -3.146 -17.93 -6.876 -0.9888 19.91 10.61 13.08 15.06 9.2 24.09 36.37 29.92 25.97 8.09 16.81 19.42
5.24 -4.494 -14.97 -3.865 -1.483 12.58 5.124 9.348 7.236 2.88 16.72 25.88 18.4 14.53 0.2697 7.551 7.281
5.245 -6.112 -10.47 -1.978 -1.303 3.416 -0.4944 5.888 1.438 -1.118 8 14.1 5.761 4.385 -4.944 -2.876 -3.236
5.25 -8 -6.517 -0.5843 -0.6742 -4.584 -4.764 1.978 -2.202 -2.88 1.258 4.471 -4.471 -2.321 -7.551 -10.61 -10.52
5.255 -9.079 -3.865 1.573 -0.7191 -9.124 -6.921 -2.921 -5.258 -3.912 -1.888 -1.978 -11.09 -6.362 -8.539 -13.48 -14.38
5.26 -8.449 -2.067 3.056 -2.607 -10.29 -7.82 -8.36 -9.258 -5.632 -2.876 -6.534 -15.39 -10.4 -9.348 -13.66 -16.18
5.265 -6.472 -0.5843 2.157 -5.843 -10.52 -8.854 -12.18 -13.48 -8.082 -4.315 -11.26 -19.17 -15.22 -10.16 -13.21 -17.08
5.27 -4.674 0.9888 0.9438 -8.315 -11.64 -10.2 -12.31 -15.64 -10.23 -7.101 -16.51 -21.58 -18.83 -10.61 -12.49 -17.35
5.275 -3.865 3.011 1.843 -8.494 -13.21 -11.01 -9.393 -15.46 -11.61 -10.43 -21.06 -22.01 -20.46 -10.88 -12.31 -17.53
5.28 -3.596 5.303 3.101 -7.191 -13.71 -11.01 -7.101 -15.37 -12.9 -12.67 -23.56 -21.15 -21.84 -11.96 -13.84 -18.43
5.285 -2.787 6.787 1.798 -6.112 -12.4 -10.88 -8.315 -17.8 -14.83 -12.76 -23.3 -19.86 -23.9 -13.57 -15.46 -19.33
5.29 -1.528 6.787 -0.6292 -5.573 -9.708 -10.47 -12.36 -21.75 -16.98 -10.79 -20.12 -17.45 -24.85 -14.74 -13.75 -18.79
5.295 0.1798 5.528 -0.6742 -4.225 -6.562 -9.034 -15.42 -24.36 -18.1 -8 -15.48 -13.93 -23.64 -14.74 -8.809 -16.81
5.3 2.067 4.629 1.933 -0.8989 -4.539 -6.876 -14.2 -22.92 -17.02 -6.292 -11.95 -10.75 -21.58 -13.75 -5.213 -15.01
5.305 4.045 4.809 5.079 4.449 -4.494 -4.944 -8.18 -17.03 -13.63 -7.101 -10.92 -8.512 -19.26 -12.4 -5.753 -14.11
5.31 5.303 6.112 8.135 10.2 -5.124 -3.371 -0.5393 -8.674 -8.899 -9.079 -11.26 -6.62 -15.82 -10.79 -8 -13.21
5.315 6.022 8.27 10.65 13.48 -4.225 -1.798 3.371 -1.798 -4.858 -9.618 -10.49 -4.385 -11.61 -8.629 -8.719 -10.97
5.32 6.562 10.11 9.753 11.78 -0.9888 -0.7191 0.08989 -0.4045 -2.966 -7.371 -7.652 -3.009 -8.684 -6.292 -7.461 -7.191
5.325 6.831 9.978 3.371 5.169 2.787 -1.034 -9.573 -4.629 -3.439 -2.876 -3.353 -3.439 -7.48 -3.685 -4.764 -2.607
5.33 5.663 6.517 -5.888 -3.191 4.854 -2.472 -20.18 -11.28 -4.944 1.888 0.4299 -4.643 -6.277 -1.258 -1.528 1.348
5.335 2.697 0.3146 -13.75 -9.708 4.404 -4.225 -26.47 -16.04 -6.019 5.393 2.665 -5.589 -4.471 0.3596 0.7191 2.876
5.34 -1.079 -6.876 -19.69 -12.85 2.067 -5.843 -26.88 -16.9 -5.632 6.472 2.493 -6.62 -3.525 0.4494 -0.4494 1.169
5.345 -4.315 -13.17 -24.67 -12.99 -0.9438 -7.506 -22.92 -13.57 -3.568 5.034 0.5159 -8.254 -3.697 -0.4494 -4.135 -2.697
5.35 -6.562 -17.08 -26.34 -10.92 -3.416 -8.494 -17.3 -7.056 -0.08598 2.697 -1.892 -9.802 -3.697 -1.079 -6.921 -6.742
5.355 -8 -17.35 -21.66 -7.011 -4.584 -7.91 -12 0.2247 3.654 0.4494 -4.385 -11.35 -3.869 -1.258 -8.539 -10.79
5.36 -8.09 -13.57 -12.4 -1.798 -5.079 -6.202 -7.685 5.348 5.933 -1.888 -8.426 -14.27 -6.277 -2.067 -12.4 -16
5.365 -6.472 -6.876 -2.921 3.955 -6.337 -5.034 -3.955 7.281 5.89 -5.573 -14.53 -18.23 -10.83 -4.225 -19.33 -21.84
5.37 -4.045 0.3146 5.034 9.753 -8.404 -4.764 0.6742 7.685 4.256 -10.16 -20.89 -19.86 -13.93 -6.382 -24.45 -25.08
5.375 -1.258 6.382 11.28 14.25 -9.663 -4.315 6.247 8.494 2.493 -13.75 -23.56 -15.99 -12.55 -6.831 -22.65 -22.29
5.38 1.798 10.07 14.29 15.69 -8.674 -2.742 11.55 9.843 1.72 -14.38 -20.21 -6.62 -7.05 -4.674 -13.75 -12.76
5.385 4.135 10.7 12.85 13.26 -5.663 0.1348 15.6 10.92 1.978 -11.69 -11.44 5.933 0.8598 -0.7191 -1.079 0.809
5.39 4.135 8.449 9.528 8.18 -1.978 4.18 18.16 10.83 2.407 -6.562 -0.4299 18.57 9.544 3.506 11.6 13.93
5.395 1.888 4.899 7.371 2.607 1.303 8.674 19.01 8.809 1.677 -0.9888 9.286 27.77 15.99 5.573 20.04 22.02
5.4 -0.9888 2.022 5.348 -2.292 3.146 11.55 17.44 4.404 -0.8168 3.056 14.62 30.44 17.2 4.584 21.48 23.37
5.405 -2.337 0.9888 1.618 -6.247 3.236 11.1 13.39 -1.348 -4.514 4.854 15.65 26.65 13.58 1.528 18.34 20.31
5.41 -1.618 1.303 -1.933 -8.629 2.562 8.045 8.27 -6.382 -7.824 5.753 15.05 20.21 9.286 -1.258 16.45 16.9
5.415 0.2697 2.157 -2.247 -9.079 2.876 4.989 3.775 -9.169 -9.587 7.371 15.05 14.79 6.534 -2.876 17.26 14.56
5.42 2.427 2.247 -0.3146 -7.955 4.36 3.011 0.5393 -9.753 -9.587 9.169 15.56 10.66 4.213 -4.135 16.81 11.78
5.425 3.236 0.2247 0.8989 -6.067 5.393 1.348 -1.348 -8.09 -8.168 9.169 14.1 6.706 1.462 -5.663 11.51 6.921
5.43 1.618 -4.315 0.8539 -3.865 4.404 -0.8989 -2.292 -3.775 -5.46 5.843 9.63 2.407 -0.6878 -6.831 2.787 0.1798
5.435 -2.067 -9.573 1.169 -2.067 1.708 -3.775 -3.056 2.067 -2.149 0.4494 2.751 -2.579 -2.064 -6.921 -6.022 -6.472
5.44 -5.483 -12.85 1.124 -2.202 -1.438 -6.966 -4.674 6.292 0.5589 -4.494 -4.213 -8.856 -3.697 -5.573 -12.94 -11.6
5.445 -6.652 -12.76 -0.8539 -4.674 -3.596 -9.708 -7.281 6.157 1.462 -6.202 -9.114 -15.3 -5.933 -3.416 -15.91 -13.84
5.45 -6.112 -10.11 -3.551 -8.36 -3.91 -10.47 -9.169 1.933 0.4299 -3.506 -9.888 -19 -6.448 -0.8989 -13.03 -12.4
5.455 -4.404 -6.831 -4.944 -11.24 -2.157 -8.36 -9.034 -3.551 -1.333 2.517 -6.448 -17.97 -4.471 1.169 -6.022 -8.36
5.46 -2.337 -4.404 -6.337 -12.27 0.6292 -4.494 -6.607 -7.146 -2.321 8.27 -1.376 -13.5 -1.376 2.876 0.2697 -3.236
5.465 -0.7191 -3.64 -9.124 -11.06 2.517 -1.124 -2.427 -6.517 -1.376 10.43 2.407 -7.824 1.978 4.764 2.876 1.708
5.47 0 -4 -10.56 -7.685 3.056 1.348 3.101 -1.798 1.505 8.36 3.611 -1.978 5.847 7.461 3.146 6.202
5.475 -0.1798 -3.685 -7.371 -2.652 3.236 3.775 8.629 4.225 5.03 4.315 2.665 3.439 9.114 10.07 2.517 9.348
5.48 0.08989 -1.483 -0.9888 2.876 3.865 6.472 12.58 7.865 7.222 0.4494 0.7738 7.308 9.458 10.88 0.8989 10.16
5.485 1.438 2.067 4.315 7.551 4.584 8.719 14.11 8 7.566 -2.247 -0.7738 9.802 7.05 9.348 -0.4494 9.169
5.49 3.416 5.618 7.236 11.01 4.899 10.34 13.93 6.921 7.093 -3.506 -0.4299 12.72 5.503 7.011 1.798 8.719
5.495 5.034 8.494 9.079 13.17 5.393 12.13 12.94 6.966 7.05 -2.876 2.837 16.77 6.706 5.483 7.82 10.34
