    T[sec] Fp1 Fp2 F3  F4  C3  C4  P3  P4  O1  O2  F7  F8  T3  T4  T5  T6  Fz  Cz  Pz  A2 
30 1000 1000 1000 1000 1000 1000 1000 1000 1000 1000 1000 1000 1000 1000 1000 1000 1000 1000 1000 1000
0.625 -478.7 -214.9 -283.3 -19.54 -351.7 -351.7 -381 -371.3 -566.7 -713.2 -351.7 39.08 -97.7 9.77 -371.3 -488.5 -381 -420.1 -615.5 58.62
0.63 -508.1 -381 -185.6 -127 -332.2 -508.1 -351.7 -469 -420.1 -635.6 -342 166.1 19.54 9.77 -205.2 -381 -312.7 -420.1 -517.8 107.5
0.635 -771.9 -625.3 -429.9 -322.4 -508.1 -781.6 -556.9 -830.5 -683.9 -810.9 -605.8 127 -263.8 -214.9 -537.4 -674.6 -596 -615.5 -889.1 -58.62
0.64 -850 -723 -537.4 -459.2 -625.3 -879.8 -625.3 -947.7 -644.8 -703.5 -625.3 -107.5 -283.3 -459.2 -488.5 -556.9 -655.1 -566.7 -820.7 -117.2
0.645 -957.5 -752.3 -791.4 -596 -781.6 -1006 -771.9 -1182 -752.3 -830.5 -810.9 -224.7 -517.8 -713.2 -644.8 -703.5 -947.7 -840.3 -1094 -195.4
0.65 -830.5 -703.5 -752.3 -547.6 -703.5 -908.6 -498.3 -1064 -478.7 -605.8 -596 -87.93 -381 -674.6 -322.4 -508.1 -820.7 -732.8 -732.8 -29.31
0.655 -820.7 -723 -781.6 -527.6 -693.7 -820.7 -449.4 -1025 -439.7 -655.1 -674.6 -58.62 -469 -644.8 -371.3 -508.1 -850 -762.1 -742.6 -48.85
0.66 -556.9 -547.6 -498.3 -410.4 -381 -644.8 -78.16 -771.9 -78.16 -429.9 -283.3 78.16 -205.2 -332.2 39.08 -205.2 -488.5 -478.7 -254 156.3
0.665 -732.8 -713.2 -547.6 -478.7 -400.6 -713.2 -136.8 -791.4 -195.4 -547.6 -429.9 19.54 -263.8 -302.9 -48.85 -322.4 -576.5 -615.5 -449.4 156.3
0.67 -596 -508.1 -332.2 -332.2 -244.3 -527.6 -97.7 -576.5 -185.6 -361.5 -175.9 78.16 -29.31 -39.08 58.62 -29.31 -312.7 -400.6 -371.3 117.2
0.675 -635.6 -449.4 -439.7 -351.7 -410.4 -605.8 -263.8 -615.5 -332.2 -508.1 -410.4 -29.31 -254 -97.7 -175.9 -107.5 -459.2 -517.8 -664.4 9.77
0.68 -410.4 -214.9 -322.4 -214.9 -390.8 -371.3 -205.2 -361.5 -195.4 -254 -136.8 136.8 -87.93 58.62 -78.16 185.6 -273.6 -322.4 -478.7 -78.16
0.685 -342 -224.7 -371.3 -234.5 -420.1 -371.3 -224.7 -400.6 -107.5 -312.7 -293.1 195.4 -293.1 9.77 -185.6 39.08 -371.3 -508.1 -439.7 107.5
0.69 -214.9 -234.5 -244.3 -254 -420.1 -254 -127 -224.7 97.7 -9.77 -58.62 156.3 -136.8 29.31 -58.62 195.4 -244.3 -381 -146.6 156.3
0.695 -146.6 -293.1 -156.3 -322.4 -351.7 -302.9 -58.62 -205.2 136.8 58.62 -244.3 48.85 -185.6 -78.16 -58.62 48.85 -273.6 -400.6 -87.93 205.2
0.7 -39.08 -78.16 29.31 -166.1 -263.8 -127 48.85 -29.31 146.6 263.8 -97.7 205.2 29.31 -97.7 68.39 244.3 -29.31 -107.5 87.93 175.9
0.705 205.2 146.6 146.6 127 -244.3 68.39 9.77 117.2 -19.54 263.8 -39.08 381 19.54 -68.39 -58.62 244.3 87.93 78.16 -78.16 29.31
0.71 371.3 459.2 273.6 420.1 -39.08 351.7 146.6 371.3 87.93 478.7 136.8 723 156.3 -9.77 156.3 498.3 361.5 537.4 87.93 -127
0.715 615.5 713.2 410.4 566.7 19.54 459.2 146.6 410.4 -29.31 302.9 117.2 762.1 136.8 48.85 78.16 410.4 478.7 605.8 -78.16 -195.4
0.72 674.2 781.6 488.5 703.5 214.9 644.8 361.5 625.3 205.2 576.5 214.9 996.6 244.3 19.54 332.2 615.5 693.7 869.6 283.3 -214.9
0.725 410.4 683.9 420.1 556.9 302.9 566.7 342 654.6 254 596 -107.5 683.9 117.2 39.08 322.4 527.6 517.8 742.6 185.6 -195.4
0.73 429.9 674.2 400.6 439.7 224.7 420.1 302.9 635.1 205.2 547.1 29.31 879.3 195.4 146.6 322.4 605.8 429.9 644.8 263.8 -175.9
0.735 166.1 400.6 302.9 205.2 244.3 283.3 214.9 576.5 117.2 420.1 -127 459.2 127 322.4 195.4 488.5 127 478.7 58.62 -224.7
0.74 224.7 420.1 332.2 156.3 224.7 214.9 234.5 488.5 136.8 400.6 68.39 566.7 224.7 478.7 244.3 586.2 127 361.5 87.93 -166.1
0.745 214.9 263.8 156.3 39.08 48.85 39.08 19.54 244.3 -39.08 205.2 -19.54 254 107.5 342 -9.77 420.1 -87.93 39.08 -224.7 -175.9
0.75 78.16 224.7 117.2 78.16 29.31 293.1 107.5 400.6 107.5 410.4 -58.62 342 156.3 537.4 117.2 644.8 -19.54 185.6 0 -166.1
0.755 -19.54 19.54 -117.2 -107.5 -166.1 263.8 -39.08 234.5 -58.62 400.6 -293.1 127 -97.7 273.6 -127 439.7 -410.4 48.85 -332.2 -400.6
0.76 -302.9 -136.8 -185.6 -283.3 -127 293.1 -39.08 254 -19.54 566.7 -185.6 146.6 -68.39 342 39.08 596 -478.7 185.6 -263.8 -459.2
0.765 -537.4 -400.6 -302.9 -537.4 -205.2 117.2 -136.8 97.7 -146.6 420.1 -351.7 -107.5 -195.4 97.7 -127 351.7 -840.3 -9.77 -537.4 -566.7
0.77 -664.4 -469 -302.9 -625.3 -156.3 78.16 -78.16 117.2 -58.62 566.7 -146.6 -136.8 -117.2 175.9 58.62 537.4 -850 58.62 -439.7 -596
0.775 -644.8 -586.2 -381 -713.2 -214.9 -117.2 -127 -29.31 -107.5 342 -254 -263.8 -146.6 87.93 -29.31 351.7 -908.6 -195.4 -566.7 -556.9
0.78 -527.6 -439.7 -351.7 -605.8 -175.9 -58.62 -19.54 -9.77 87.93 478.7 -87.93 -332.2 68.39 224.7 175.9 459.2 -762.1 -195.4 -312.7 -469
0.785 -498.3 -508.1 -371.3 -596 -195.4 -175.9 -58.62 -136.8 97.7 302.9 -293.1 -263.8 0 205.2 19.54 342 -762.1 -390.8 -332.2 -332.2
0.79 -293.1 -254 -263.8 -508.1 0 -9.77 234.5 -48.85 410.4 508.1 -68.39 -156.3 263.8 420.1 342 498.3 -478.7 -195.4 58.62 -175.9
0.795 -293.1 -478.7 -244.3 -605.8 97.7 -146.6 234.5 -205.2 332.2 293.1 -156.3 -371.3 263.8 87.93 244.3 254 -566.7 -263.8 -58.62 -117.2
0.8 -156.3 -214.9 -97.7 -429.9 234.5 29.31 293.1 68.39 371.3 537.4 48.85 -234.5 342 263.8 312.7 478.7 -390.8 48.85 107.5 -234.5
0.805 -224.7 -390.8 -195.4 -508.1 97.7 -87.93 58.62 -166.1 127 273.6 -19.54 -439.7 195.4 -68.39 127 166.1 -517.8 -107.5 -214.9 -263.8
0.81 -146.6 -19.54 -117.2 -390.8 29.31 -68.39 117.2 -68.39 146.6 283.3 97.7 -302.9 381 -68.39 283.3 254 -322.4 -9.77 -136.8 -263.8
0.815 -48.85 -48.85 -214.9 -410.4 -293.1 -175.9 -195.4 -351.7 -97.7 -29.31 -48.85 -400.6 97.7 -156.3 -68.39 -58.62 -459.2 -224.7 -420.1 -283.3
0.82 -58.62 78.16 -166.1 -342 -322.4 -117.2 -127 -361.5 -39.08 -29.31 -29.31 -185.6 244.3 -48.85 78.16 0 -293.1 -234.5 -273.6 -136.8
0.825 175.9 68.39 -78.16 -361.5 -410.4 -195.4 -205.2 -400.6 -107.5 -244.3 -29.31 -381 68.39 -48.85 -78.16 -117.2 -293.1 -449.4 -332.2 -9.77
0.83 9.77 -29.31 -58.62 -322.4 -371.3 -107.5 -214.9 -322.4 -78.16 -156.3 -29.31 -293.1 19.54 78.16 9.77 39.08 -234.5 -420.1 -185.6 107.5
0.835 48.85 -224.7 -78.16 -400.6 -439.7 -127 -283.3 -351.7 -214.9 -342 0 -615.5 -107.5 9.77 -166.1 -166.1 -332.2 -586.2 -342 87.93
0.84 -78.16 -205.2 -117.2 -351.7 -312.7 19.54 -166.1 -117.2 -9.77 -146.6 -19.54 -508.1 -136.8 342 58.62 107.5 -244.3 -449.4 -58.62 175.9
0.845 -293.1 -508.1 -351.7 -517.8 -517.8 -127 -273.6 -351.7 -97.7 -273.6 -136.8 -693.7 -322.4 -39.08 -127 -185.6 -478.7 -625.3 -234.5 205.2
0.85 -332.2 -429.9 -429.9 -410.4 -449.4 -19.54 -117.2 -234.5 87.93 -29.31 -136.8 -566.7 -254 0 78.16 87.93 -420.1 -459.2 19.54 156.3
0.855 -390.8 -498.3 -527.6 -469 -508.1 -107.5 -175.9 -371.3 78.16 -127 -342 -771.9 -390.8 -58.62 -127 -78.16 -537.4 -547.6 -127 166.1
0.86 -400.6 -478.7 -469 -361.5 -410.4 -48.85 -127 -361.5 127 9.77 -312.7 -439.7 -254 -166.1 29.31 68.39 -410.4 -361.5 29.31 166.1
0.865 -342 -381 -429.9 -361.5 -400.6 -117.2 -254 -400.6 -39.08 -97.7 -410.4 -713.2 -322.4 -146.6 -185.6 -58.62 -488.5 -400.6 -214.9 78.16
0.87 -361.5 -68.39 -439.7 -146.6 -420.1 29.31 -214.9 -205.2 39.08 166.1 -342 -283.3 -234.5 175.9 -107.5 205.2 -371.3 -244.3 -97.7 -19.54
0.875 -175.9 19.54 -312.7 -117.2 -400.6 -58.62 -312.7 -254 -97.7 68.39 -214.9 -605.8 -254 78.16 -312.7 48.85 -342 -302.9 -263.8 -58.62
0.88 -195.4 166.1 -293.1 39.08 -371.3 -19.54 -214.9 -166.1 19.54 254 -107.5 -420.1 -195.4 293.1 -127 205.2 -78.16 -146.6 -48.85 -39.08
0.885 205.2 146.6 -97.7 48.85 -371.3 -78.16 -214.9 -244.3 29.31 107.5 29.31 -703.5 -234.5 146.6 -195.4 39.08 78.16 -263.8 -9.77 107.5
0.89 234.5 195.4 87.93 117.2 -244.3 -9.77 -78.16 -156.3 117.2 185.6 156.3 -556.9 -97.7 342 -39.08 214.9 332.2 -19.54 224.7 166.1
0.895 156.3 -39.08 146.6 -87.93 -283.3 -97.7 -19.54 -244.3 87.93 39.08 29.31 -908.6 -175.9 39.08 -97.7 29.31 127 -107.5 68.39 136.8
0.9 293.1 48.85 322.4 -97.7 -214.9 -39.08 39.08 -244.3 127 48.85 195.4 -820.7 -39.08 156.3 29.31 195.4 224.7 58.62 117.2 39.08
0.905 117.2 97.7 205.2 -244.3 -400.6 -87.93 -58.62 -478.7 -58.62 -166.1 58.62 -1064 -166.1 68.39 -166.1 68.39 -48.85 -117.2 -214.9 -97.7
0.91 185.6 244.3 127 -136.8 -400.6 -39.08 -117.2 -517.8 -9.77 -146.6 117.2 -655.1 -175.9 156.3 -68.39 175.9 9.77 -87.93 -234.5 -146.6
0.915 312.7 224.7 87.93 -175.9 -498.3 -87.93 -175.9 -586.2 -68.39 -332.2 156.3 -987.3 -234.5 166.1 -244.3 87.93 -97.7 -234.5 -302.9 -87.93
0.92 224.7 312.7 48.85 -68.39 -459.2 68.39 -156.3 -312.7 58.62 -205.2 166.1 -547.6 -195.4 381 -87.93 254 0 -127 -78.16 -19.54
0.925 127 39.08 0 -136.8 -459.2 48.85 -214.9 -234.5 -97.7 -234.5 136.8 -556.9 -361.5 312.7 -224.7 146.6 -214.9 -283.3 -166.1 -19.54
0.93 107.5 -97.7 146.6 -87.93 -273.6 146.6 -136.8 -9.77 -9.77 -68.39 312.7 -293.1 -87.93 342 -97.7 273.6 -107.5 -68.39 87.93 39.08
0.935 -127 -302.9 0 -156.3 -302.9 87.93 -244.3 -9.77 -283.3 -97.7 224.7 -302.9 -195.4 234.5 -283.3 117.2 -371.3 -107.5 -127 -127
0.94 -146.6 -322.4 -9.77 -175.9 -97.7 195.4 -117.2 117.2 -195.4 48.85 312.7 -185.6 107.5 254 -68.39 244.3 -263.8 68.39 185.6 -19.54
0.945 -146.6 -351.7 -87.93 -175.9 -97.7 166.1 -146.6 97.7 -312.7 -127 156.3 -381 107.5 117.2 -146.6 68.39 -439.7 -146.6 58.62 58.62
0.95 -254 -322.4 -234.5 -224.7 -175.9 107.5 -117.2 97.7 -156.3 -146.6 117.2 -312.7 166.1 -48.85 -39.08 146.6 -449.4 -127 283.3 87.93
0.955 -205.2 -273.6 -205.2 -224.7 -175.9 39.08 -87.93 58.62 -156.3 -244.3 -68.39 -439.7 78.16 -107.5 -78.16 -107.5 -439.7 -244.3 224.7 166.1
0.96 -342 -342 -254 -283.3 -244.3 -58.62 -48.85 -78.16 -87.93 -214.9 -19.54 -175.9 68.39 -273.6 87.93 -97.7 -410.4 -195.4 283.3 146.6
0.965 -312.7 -566.7 -263.8 -459.2 -205.2 -332.2 -29.31 -371.3 -97.7 -361.5 -68.39 -615.5 -68.39 -478.7 9.77 -410.4 -459.2 -371.3 97.7 127
0.97 -224.7 -371.3 -97.7 -371.3 -107.5 -254 87.93 -293.1 48.85 -146.6 48.85 -234.5 39.08 -469 224.7 -234.5 -214.9 -166.1 195.4 97.7
0.975 -166.1 -185.6 -312.7 -332.2 -166.1 -234.5 -19.54 -625.3 78.16 -78.16 -214.9 29.31 9.77 -625.3 136.8 -39.08 -293.1 -48.85 87.93 19.54
0.98 -107.5 -185.6 -234.5 -351.7 -136.8 -293.1 19.54 -742.6 -19.54 -371.3 -234.5 -185.6 -78.16 -713.2 156.3 -302.9 -254 -117.2 -48.85 97.7
0.985 146.6 136.8 19.54 -107.5 166.1 -9.77 244.3 -517.8 136.8 -175.9 -48.85 107.5 273.6 -469 400.6 -166.1 97.7 214.9 244.3 136.8
0.99 244.3 205.2 146.6 19.54 302.9 -29.31 302.9 -527.6 117.2 -361.5 -146.6 -156.3 195.4 -615.5 400.6 -420.1 156.3 234.5 136.8 97.7
0.995 429.9 429.9 342 214.9 586.2 175.9 537.4 -312.7 322.4 -117.2 68.39 -48.85 508.1 -459.2 674.2 -312.7 498.3 508.1 478.7 136.8
1 234.5 322.4 273.6 185.6 449.4 166.1 508.1 -244.3 205.2 -205.2 -156.3 -195.4 322.4 -556.9 488.5 -488.5 312.7 371.3 342 78.16
1.005 214.9 361.5 342 322.4 498.3 342 576.5 -9.77 371.3 107.5 -78.16 39.08 449.4 -478.7 615.5 -254 478.7 566.7 596 87.93
1.01 107.5 68.39 156.3 68.39 283.3 78.16 400.6 -107.5 175.9 -195.4 -322.4 -312.7 195.4 -644.8 390.8 -449.4 214.9 244.3 214.9 78.16
1.015 87.93 254 97.7 97.7 283.3 195.4 351.7 87.93 254 19.54 -390.8 -107.5 263.8 -371.3 390.8 -97.7 302.9 273.6 293.1 68.39
1.02 -127 29.31 -214.9 -97.7 -48.85 9.77 0 -39.08 -78.16 -263.8 -762.1 -273.6 -19.54 -381 -29.31 -185.6 -107.5 -87.93 -136.8 68.39
1.025 -107.5 39.08 -224.7 -156.3 9.77 58.62 78.16 322.4 97.7 39.08 -703.5 19.54 68.39 -9.77 117.2 127 -9.77 -58.62 127 146.6
1.03 -351.7 -224.7 -283.3 -371.3 -136.8 -107.5 -107.5 478.7 -29.31 -39.08 -859.8 -332.2 -166.1 -29.31 -224.7 68.39 -302.9 -283.3 -9.77 205.2
1.035 -175.9 -263.8 -97.7 -283.3 68.39 58.62 78.16 957.5 195.4 332.2 -674.6 -127 -29.31 29.31 29.31 351.7 -39.08 -29.31 459.2 312.7
1.04 -195.4 -459.2 29.31 -322.4 195.4 87.93 87.93 1192 254 429.9 -713.2 -459.2 -127 -29.31 -117.2 293.1 0 -19.54 537.4 361.5
1.045 19.54 -293.1 244.3 -48.85 371.3 312.7 224.7 1446 517.8 713.2 -517.8 -390.8 -117.2 58.62 -29.31 605.8 420.1 283.3 840.3 420.1
1.05 29.31 -234.5 342 29.31 400.6 351.7 107.5 1339 420.1 586.2 -556.9 -429.9 -205.2 -39.08 -234.5 517.8 517.8 322.4 762.1 361.5
1.055 254 -9.77 459.2 205.2 537.4 527.6 205.2 1299 469 723 -254 -146.6 -107.5 107.5 -68.39 605.8 810.9 596 859.8 302.9
1.06 283.3 146.6 420.1 195.4 420.1 478.7 107.5 938 283.3 508.1 -342 -273.6 -263.8 -9.77 -205.2 312.7 703.5 508.1 605.8 224.7
1.065 381 390.8 488.5 332.2 576.5 615.5 283.3 820.7 342 517.8 -39.08 9.77 39.08 87.93 68.39 283.3 820.7 742.6 781.6 127
1.07 117.2 175.9 263.8 166.1 400.6 429.9 234.5 410.4 146.6 224.7 -224.7 -224.7 -68.39 -107.5 19.54 -68.39 410.4 566.7 517.8 -58.62
1.075 175.9 390.8 293.1 371.3 537.4 508.1 556.9 420.1 410.4 312.7 -58.62 -107.5 293.1 -48.85 410.4 68.39 547.1 840.3 810.9 -87.93
1.08 117.2 332.2 127 429.9 429.9 420.1 576.5 136.8 332.2 87.93 -185.6 -322.4 205.2 -146.6 400.6 -78.16 351.7 801.2 596 -205.2
1.085 263.8 586.2 127 674.2 469 566.7 732.8 97.7 439.7 146.6 -48.85 -58.62 371.3 -127 664.4 107.5 605.8 996.6 732.8 -244.3
1.09 527.6 781.6 185.6 859.8 469 586.2 791.4 -29.31 498.3 19.54 -185.6 -273.6 166.1 -127 693.7 -19.54 674.2 938 605.8 -195.4
1.095 596 908.6 293.1 1036 586.2 752.3 889.1 39.08 644.8 146.6 -78.16 195.4 214.9 136.8 850 127 898.9 1075 771.9 -146.6
1.1 537.4 840.3 312.7 947.7 547.1 664.4 781.6 -156.3 527.6 19.54 -234.5 0 48.85 146.6 644.8 -29.31 820.7 869.6 596 -9.77
1.105 576.5 644.8 410.4 908.6 596 762.1 752.3 -39.08 615.5 224.7 -136.8 263.8 58.62 322.4 654.6 107.5 996.6 938 801.2 117.2
1.11 527.6 420.1 390.8 703.5 508.1 683.9 556.9 -127 410.4 87.93 -175.9 322.4 -39.08 332.2 381 -19.54 938 771.9 683.9 263.8
1.115 791.4 527.6 703.5 762.1 781.6 850 713.2 39.08 644.8 302.9 87.93 586.2 214.9 449.4 556.9 234.5 1407 879.3 1075 537.4
1.12 664.4 420.1 556.9 596 556.9 732.8 390.8 -78.16 381 166.1 -87.93 469 -39.08 361.5 146.6 175.9 1221 625.3 801.2 556.9
1.125 986.8 781.6 693.7 586.2 508.1 791.4 244.3 58.62 293.1 371.3 224.7 625.3 68.39 547.1 68.39 488.5 1339 625.3 859.8 556.9
1.13 703.5 596 390.8 273.6 195.4 556.9 -185.6 -166.1 -107.5 234.5 97.7 293.1 -224.7 273.6 -420.1 302.9 830.5 273.6 410.4 351.7
1.135 713.2 537.4 302.9 156.3 -68.39 439.7 -556.9 -146.6 -400.6 410.4 263.8 293.1 -293.1 302.9 -674.6 488.5 488.5 205.2 214.9 107.5
1.14 596 332.2 214.9 -48.85 -214.9 332.2 -762.1 -205.2 -596 361.5 175.9 117.2 -371.3 302.9 -830.5 322.4 195.4 0 -48.85 9.77
1.145 400.6 205.2 254 -107.5 -156.3 293.1 -713.2 -156.3 -508.1 517.8 205.2 58.62 -205.2 312.7 -703.5 449.4 117.2 127 -19.54 -146.6
1.15 263.8 127 127 -146.6 -312.7 224.7 -820.7 -302.9 -771.9 351.7 0 -97.7 -332.2 302.9 -810.9 283.3 -107.5 29.31 -400.6 -351.7
1.155 166.1 195.4 48.85 -224.7 -244.3 68.39 -713.2 -459.2 -596 371.3 136.8 -195.4 -214.9 127 -547.6 273.6 -136.8 97.7 -371.3 -439.7
1.16 312.7 214.9 -97.7 -234.5 -332.2 -136.8 -693.7 -771.9 -683.9 68.39 78.16 -381 -342 -175.9 -615.5 -29.31 -302.9 -156.3 -625.3 -410.4
1.165 283.3 342 -156.3 -175.9 -273.6 -185.6 -420.1 -771.9 -410.4 224.7 273.6 -400.6 -136.8 -263.8 -224.7 58.62 -175.9 -39.08 -351.7 -322.4
1.17 371.3 410.4 -244.3 -58.62 -312.7 -205.2 -214.9 -781.6 -273.6 156.3 273.6 -361.5 -87.93 -166.1 -107.5 -29.31 -273.6 -97.7 -351.7 -361.5
1.175 381 381 -146.6 -9.77 -127 -185.6 185.6 -732.8 19.54 224.7 498.3 -361.5 244.3 -244.3 342 48.85 -87.93 39.08 -68.39 -263.8
1.18 283.3 342 -107.5 87.93 0 -68.39 322.4 -596 58.62 156.3 517.8 -420.1 342 -39.08 302.9 136.8 -166.1 9.77 -166.1 -332.2
1.185 449.4 332.2 87.93 166.1 166.1 -29.31 586.2 -478.7 254 175.9 771.9 -312.7 459.2 -19.54 693.7 254 -68.39 78.16 29.31 -185.6
1.19 488.5 214.9 97.7 58.62 146.6 -117.2 449.4 -527.6 78.16 -87.93 683.9 -605.8 381 58.62 429.9 87.93 -234.5 -87.93 -254 -312.7
1.195 488.5 390.8 195.4 146.6 205.2 -107.5 498.3 -351.7 166.1 -39.08 898.9 -302.9 429.9 87.93 615.5 244.3 -127 -68.39 -78.16 -224.7
1.2 351.7 78.16 -78.16 -185.6 -146.6 -517.8 195.4 -635.6 -68.39 -527.6 664.4 -332.2 166.1 -107.5 283.3 -175.9 -429.9 -615.5 -439.7 -68.39
1.205 351.7 254 -78.16 -166.1 -214.9 -566.7 136.8 -361.5 -87.93 -547.6 693.7 -214.9 263.8 -312.7 302.9 -156.3 -332.2 -655.1 -254 68.39
1.21 224.7 175.9 -195.4 -195.4 -342 -566.7 -48.85 -58.62 -195.4 -732.8 498.3 -48.85 87.93 -166.1 58.62 -342 -547.6 -830.5 -439.7 78.16
1.215 351.7 205.2 -136.8 -185.6 -410.4 -566.7 -166.1 234.5 -273.6 -752.3 625.3 9.77 205.2 -273.6 78.16 -156.3 -410.4 -781.6 -381 127
1.22 273.6 244.3 -234.5 -58.62 -429.9 -439.7 -342 537.4 -420.1 -723 332.2 -29.31 29.31 -107.5 -195.4 -195.4 -556.9 -742.6 -498.3 39.08
1.225 283.3 351.7 -185.6 -39.08 -244.3 -312.7 -283.3 732.8 -400.6 -517.8 527.6 48.85 254 107.5 -87.93 78.16 -478.7 -508.1 -371.3 -48.85
1.23 107.5 254 -332.2 -97.7 -302.9 -371.3 -381 674.2 -556.9 -576.5 332.2 -146.6 107.5 39.08 -273.6 0 -615.5 -566.7 -596 -175.9
1.235 351.7 508.1 -87.93 -87.93 -9.77 -234.5 -146.6 850 -332.2 -254 605.8 -39.08 410.4 214.9 -48.85 263.8 -283.3 -322.4 -214.9 -19.54
1.24 97.7 293.1 -205.2 -136.8 9.77 -244.3 -224.7 898.9 -420.1 -244.3 459.2 -127 390.8 166.1 -156.3 146.6 -517.8 -361.5 -371.3 -127
1.245 273.6 254 -39.08 -39.08 156.3 -136.8 -146.6 1036 -293.1 9.77 703.5 -78.16 439.7 322.4 -117.2 371.3 -293.1 -244.3 -136.8 -39.08
1.25 400.6 283.3 0 -19.54 195.4 -175.9 -166.1 977 -322.4 -29.31 605.8 -87.93 273.6 254 -214.9 214.9 -342 -322.4 -205.2 0
1.255 293.1 273.6 107.5 146.6 390.8 9.77 9.77 1104 -48.85 244.3 683.9 -107.5 361.5 488.5 -48.85 390.8 -166.1 -146.6 166.1 29.31
1.26 293.1 175.9 97.7 156.3 302.9 -19.54 -58.62 1085 -48.85 263.8 566.7 -224.7 127 527.6 -244.3 234.5 -234.5 -156.3 68.39 19.54
1.265 283.3 175.9 175.9 166.1 371.3 117.2 166.1 1163 224.7 478.7 683.9 -175.9 312.7 674.2 87.93 342 -68.39 -68.39 439.7 136.8
1.27 -58.62 -58.62 -29.31 0 78.16 29.31 19.54 1114 107.5 449.4 283.3 -224.7 48.85 605.8 -166.1 166.1 -429.9 -166.1 185.6 -175.9
1.275 -166.1 -205.2 -127 -127 -78.16 87.93 29.31 1104 87.93 527.6 283.3 -156.3 39.08 703.5 -68.39 293.1 -586.2 -107.5 156.3 -312.7
1.28 -390.8 -185.6 -371.3 -156.3 -439.7 39.08 -244.3 947.7 -185.6 371.3 -214.9 -156.3 -293.1 723 -302.9 293.1 -928.2 -185.6 -332.2 -635.6
1.285 -596 -185.6 -498.3 -39.08 -596 136.8 -254 869.6 -166.1 469 -283.3 -19.54 -351.7 879.3 -195.4 478.7 -938 -9.77 -371.3 -791.4
1.29 -683.9 -156.3 -674.6 -48.85 -703.5 68.39 -410.4 586.2 -361.5 205.2 -498.3 -68.39 -498.3 781.6 -283.3 283.3 -1104 -107.5 -664.4 -830.5
1.295 -693.7 -224.7 -635.6 -48.85 -605.8 -9.77 -361.5 429.9 -166.1 185.6 -371.3 9.77 -400.6 791.4 -205.2 312.7 -830.5 -97.7 -439.7 -596
1.3 -312.7 -537.4 -332.2 -351.7 -351.7 -342 -214.9 0 19.54 -283.3 -136.8 -332.2 -254 332.2 -87.93 -78.16 -517.8 -459.2 -283.3 78.16
1.305 -166.1 -674.6 -156.3 -556.9 -87.93 -605.8 -107.5 -371.3 136.8 -576.5 273.6 -263.8 107.5 107.5 -117.2 -175.9 -156.3 -625.3 -9.77 615.5
1.31 58.62 -947.7 -9.77 -810.9 -68.39 -918.4 -156.3 -781.6 136.8 -1064 322.4 -547.6 78.16 -166.1 -293.1 -508.1 0 -1016 -127 1006
1.315 254 -859.8 156.3 -801.2 48.85 -947.7 -29.31 -830.5 302.9 -1104 605.8 -400.6 332.2 -234.5 -78.16 -429.9 254 -977.5 58.62 1192
1.32 39.08 -850 -9.77 -879.8 -146.6 -1085 -302.9 -938 0 -1221 332.2 -586.2 19.54 -244.3 -400.6 -605.8 -19.54 -1182 -293.1 1016
1.325 127 -674.6 97.7 -791.4 -175.9 -908.6 -322.4 -703.5 -58.62 -1006 586.2 -498.3 -9.77 -87.93 -273.6 -361.5 127 -918.4 -195.4 879.3
1.33 19.54 -693.7 97.7 -771.9 -205.2 -801.2 -439.7 -517.8 -214.9 -840.3 429.9 -674.6 -166.1 -224.7 -439.7 -429.9 -78.16 -820.7 -371.3 605.8
1.335 -87.93 -508.1 156.3 -488.5 -224.7 -429.9 -449.4 -175.9 -263.8 -371.3 508.1 -420.1 -68.39 9.77 -381 -87.93 -19.54 -488.5 -214.9 420.1
1.34 -234.5 -586.2 107.5 -400.6 -469 -312.7 -644.8 -78.16 -537.4 -224.7 224.7 -586.2 -234.5 -107.5 -625.3 -136.8 -312.7 -488.5 -449.4 185.6
1.345 -254 -361.5 127 -48.85 -429.9 19.54 -635.6 234.5 -547.6 244.3 185.6 -205.2 -29.31 146.6 -566.7 205.2 -166.1 -117.2 -322.4 -29.31
1.35 -390.8 -342 19.54 -97.7 -674.6 -136.8 -791.4 -39.08 -732.8 107.5 -29.31 -263.8 -234.5 146.6 -810.9 39.08 -351.7 -293.1 -537.4 -136.8
1.355 -224.7 -78.16 166.1 -29.31 -498.3 -97.7 -605.8 0 -517.8 322.4 185.6 9.77 -107.5 214.9 -537.4 185.6 -107.5 -19.54 -263.8 -175.9
1.36 -127 -58.62 136.8 -146.6 -547.6 -234.5 -566.7 -293.1 -488.5 205.2 117.2 -175.9 -244.3 -9.77 -547.6 -117.2 -244.3 -87.93 -322.4 -224.7
1.365 -166.1 -107.5 117.2 -156.3 -351.7 -185.6 -214.9 -205.2 -136.8 361.5 234.5 19.54 19.54 39.08 -107.5 29.31 -146.6 127 48.85 -224.7
1.37 -293.1 -263.8 -117.2 -312.7 -400.6 -361.5 -166.1 -429.9 -127 146.6 0 -390.8 19.54 -146.6 -263.8 -205.2 -390.8 -58.62 -136.8 -322.4
1.375 -371.3 -371.3 -107.5 -166.1 -175.9 -175.9 195.4 -342 224.7 342 -19.54 -68.39 410.4 -29.31 224.7 0 -273.6 127 117.2 -312.7
1.38 -478.7 -371.3 -322.4 -224.7 -312.7 -332.2 68.39 -547.6 48.85 0 -224.7 -214.9 234.5 48.85 -9.77 -87.93 -381 -87.93 -146.6 -263.8
1.385 -498.3 -312.7 -322.4 -39.08 -146.6 -263.8 224.7 -469 136.8 78.16 -175.9 146.6 429.9 273.6 244.3 29.31 -273.6 78.16 -68.39 -263.8
1.39 -439.7 -97.7 -342 19.54 -205.2 -195.4 29.31 -420.1 -107.5 0 -263.8 175.9 136.8 293.1 -29.31 -58.62 -390.8 87.93 -342 -390.8
1.395 -293.1 0 -117.2 185.6 -39.08 9.77 97.7 -273.6 -29.31 117.2 19.54 420.1 214.9 449.4 58.62 9.77 -146.6 410.4 -156.3 -351.7
1.4 -420.1 -166.1 -195.4 136.8 -185.6 87.93 -117.2 -244.3 -351.7 0 -127 205.2 -9.77 361.5 -234.5 -166.1 -342 371.3 -420.1 -469
1.405 -361.5 -97.7 -19.54 254 -39.08 234.5 -97.7 -107.5 -273.6 87.93 58.62 293.1 78.16 342 -117.2 0 -29.31 615.5 -205.2 -439.7
1.41 -527.6 -205.2 -39.08 224.7 -166.1 244.3 -244.3 -195.4 -469 -117.2 -97.7 156.3 -58.62 312.7 -332.2 -97.7 -107.5 566.7 -439.7 -508.1
1.415 -371.3 -97.7 117.2 351.7 -58.62 312.7 -205.2 -156.3 -488.5 -127 78.16 293.1 78.16 371.3 -205.2 29.31 166.1 625.3 -322.4 -420.1
1.42 -449.4 -136.8 97.7 371.3 -214.9 175.9 -400.6 -351.7 -693.7 -342 -185.6 195.4 -107.5 214.9 -400.6 -97.7 9.77 371.3 -576.5 -410.4
1.425 -322.4 -58.62 136.8 488.5 -87.93 175.9 -273.6 -283.3 -586.2 -332.2 -78.16 410.4 0 195.4 -214.9 -19.54 205.2 390.8 -410.4 -234.5
1.43 -459.2 -293.1 -68.39 342 -263.8 -39.08 -429.9 -508.1 -820.7 -635.6 -234.5 156.3 -273.6 -48.85 -390.8 -224.7 -29.31 97.7 -655.1 -185.6
1.435 -605.8 -302.9 -146.6 527.6 -214.9 97.7 -361.5 -273.6 -664.4 -429.9 -322.4 400.6 -263.8 146.6 -254 -9.77 -9.77 224.7 -488.5 -195.4
1.44 -683.9 -381 -263.8 429.9 -302.9 19.54 -390.8 -332.2 -742.6 -429.9 -439.7 146.6 -293.1 9.77 -429.9 -127 -166.1 48.85 -605.8 -185.6
1.445 -498.3 -136.8 -146.6 586.2 -127 283.3 -185.6 29.31 -322.4 39.08 -390.8 429.9 -214.9 156.3 -156.3 127 48.85 273.6 -166.1 -146.6
1.45 -429.9 -58.62 -136.8 576.5 -166.1 283.3 -175.9 117.2 -332.2 156.3 -449.4 312.7 -244.3 166.1 -283.3 58.62 -29.31 263.8 -263.8 -283.3
1.455 -273.6 185.6 -97.7 556.9 -87.93 332.2 -29.31 254 0 508.1 -351.7 351.7 -146.6 244.3 -9.77 175.9 107.5 390.8 0 -254
1.46 -469 29.31 -214.9 420.1 -263.8 166.1 -107.5 214.9 -29.31 361.5 -586.2 273.6 -312.7 87.93 -87.93 9.77 -87.93 48.85 -214.9 -185.6
1.465 -420.1 -127 -166.1 224.7 -205.2 29.31 -9.77 224.7 175.9 429.9 -439.7 224.7 -205.2 322.4 48.85 97.7 -39.08 -9.77 -58.62 -48.85
1.47 -752.3 -351.7 -351.7 -9.77 -283.3 -97.7 -107.5 185.6 117.2 263.8 -713.2 97.7 -302.9 224.7 -107.5 -9.77 -342 -214.9 -244.3 -146.6
1.475 -517.8 -244.3 -322.4 -39.08 -214.9 -58.62 9.77 254 273.6 312.7 -576.5 254 -293.1 195.4 9.77 146.6 -224.7 -175.9 -87.93 -58.62
1.48 -889.1 -478.7 -635.6 -205.2 -449.4 -156.3 -224.7 48.85 -9.77 87.93 -850 175.9 -547.6 185.6 -244.3 -87.93 -693.7 -302.9 -459.2 -293.1
1.485 -830.5 -302.9 -596 -166.1 -322.4 -19.54 -48.85 166.1 97.7 195.4 -683.9 156.3 -371.3 166.1 -29.31 117.2 -576.5 -87.93 -371.3 -351.7
1.49 -1055 -390.8 -713.2 -146.6 -488.5 -39.08 -342 0 -166.1 -39.08 -898.9 107.5 -556.9 166.1 -263.8 -107.5 -771.9 -107.5 -713.2 -566.7
1.495 -1094 -547.6 -586.2 -117.2 -244.3 97.7 -117.2 195.4 39.08 166.1 -742.6 117.2 -254 283.3 48.85 58.62 -556.9 175.9 -410.4 -517.8
1.5 -1045 -488.5 -527.6 -175.9 -136.8 58.62 -146.6 136.8 -39.08 -39.08 -850 -117.2 -234.5 185.6 -9.77 -68.39 -537.4 48.85 -517.8 -449.4
1.505 -674.6 -312.7 -195.4 -48.85 97.7 224.7 185.6 322.4 254 156.3 -498.3 185.6 68.39 283.3 322.4 39.08 -156.3 283.3 -87.93 -302.9
1.51 -449.4 -244.3 -39.08 -78.16 214.9 156.3 146.6 117.2 136.8 -127 -478.7 127 19.54 117.2 234.5 -185.6 -107.5 175.9 -234.5 -263.8
1.515 -156.3 0 214.9 68.39 390.8 224.7 293.1 156.3 185.6 -136.8 -48.85 263.8 263.8 263.8 322.4 -127 127 342 -29.31 -195.4
1.52 -244.3 107.5 107.5 48.85 97.7 205.2 -19.54 -97.7 -205.2 -410.4 -195.4 58.62 -68.39 205.2 -9.77 -234.5 -87.93 214.9 -429.9 -361.5
1.525 -263.8 166.1 87.93 156.3 97.7 273.6 -48.85 -146.6 -273.6 -390.8 -58.62 195.4 0 234.5 0 -127 0 322.4 -273.6 -351.7
1.53 -420.1 195.4 -117.2 87.93 -205.2 175.9 -332.2 -293.1 -635.6 -625.3 -263.8 97.7 -429.9 136.8 -322.4 -224.7 -254 146.6 -605.8 -537.4
1.535 -322.4 224.7 -107.5 234.5 -127 312.7 -273.6 -175.9 -635.6 -390.8 -136.8 293.1 -381 254 -185.6 9.77 -87.93 322.4 -381 -508.1
1.54 -293.1 205.2 -97.7 234.5 -146.6 361.5 -263.8 -68.39 -771.9 -410.4 -254 351.7 -547.6 205.2 -322.4 68.39 -117.2 273.6 -449.4 -478.7
1.545 -166.1 302.9 97.7 371.3 87.93 508.1 -39.08 244.3 -547.6 -19.54 29.31 420.1 -293.1 361.5 -58.62 400.6 166.1 469 -68.39 -390.8
1.55 -97.7 166.1 58.62 214.9 107.5 478.7 107.5 390.8 -332.2 39.08 -97.7 234.5 -332.2 254 0 332.2 127 342 78.16 -254
1.555 -39.08 185.6 195.4 195.4 224.7 576.5 449.4 635.1 107.5 429.9 29.31 136.8 -39.08 332.2 449.4 508.1 302.9 478.7 498.3 -146.6
1.56 -146.6 -48.85 78.16 -39.08 175.9 390.8 566.7 556.9 254 439.7 9.77 -78.16 -78.16 58.62 429.9 312.7 97.7 234.5 469 -9.77
1.565 -58.62 -9.77 156.3 -9.77 312.7 439.7 762.1 742.6 566.7 723 234.5 107.5 48.85 195.4 742.6 371.3 214.9 312.7 771.9 48.85
1.57 -136.8 -175.9 78.16 -146.6 234.5 312.7 625.3 556.9 469 605.8 224.7 48.85 -39.08 29.31 488.5 136.8 9.77 107.5 517.8 -9.77
1.575 -78.16 -68.39 224.7 -185.6 361.5 283.3 654.6 439.7 596 625.3 469 224.7 117.2 48.85 605.8 146.6 185.6 156.3 683.9 146.6
1.58 -9.77 -146.6 263.8 -312.7 214.9 166.1 449.4 224.7 527.6 371.3 332.2 127 -68.39 29.31 381 -68.39 175.9 -78.16 556.9 322.4
1.585 68.39 -195.4 312.7 -390.8 185.6 117.2 420.1 107.5 664.4 293.1 469 156.3 0 -175.9 439.7 -29.31 293.1 -97.7 713.2 459.2
1.59 19.54 -205.2 146.6 -488.5 29.31 58.62 312.7 19.54 586.2 107.5 205.2 -9.77 -205.2 -273.6 293.1 -244.3 136.8 -175.9 556.9 390.8
1.595 107.5 -68.39 244.3 -342 48.85 136.8 381 58.62 762.1 205.2 283.3 117.2 -127 -244.3 459.2 -78.16 283.3 0 723 361.5
1.6 -9.77 -214.9 195.4 -351.7 -9.77 19.54 322.4 -48.85 586.2 39.08 214.9 39.08 -263.8 -205.2 254 -234.5 87.93 -146.6 439.7 263.8
1.605 58.62 -78.16 175.9 -283.3 -58.62 9.77 332.2 -117.2 635.1 175.9 283.3 -146.6 -214.9 -273.6 429.9 -156.3 97.7 -48.85 469 166.1
1.61 -9.77 -254 9.77 -312.7 -156.3 -156.3 166.1 -322.4 361.5 -9.77 175.9 -283.3 -390.8 -439.7 146.6 -351.7 -39.08 -263.8 117.2 166.1
1.615 19.54 -146.6 -39.08 -371.3 -273.6 -342 127 -508.1 381 -48.85 224.7 -449.4 -381 -517.8 273.6 -381 -9.77 -400.6 78.16 146.6
1.62 -127 -283.3 -302.9 -459.2 -459.2 -517.8 -97.7 -723 97.7 -342 19.54 -527.6 -566.7 -713.2 -39.08 -547.6 -263.8 -644.8 -214.9 175.9
1.625 -273.6 -234.5 -381 -371.3 -547.6 -469 -175.9 -644.8 -9.77 -410.4 -39.08 -273.6 -556.9 -537.4 -39.08 -478.7 -205.2 -596 -156.3 175.9
1.63 -263.8 -78.16 -469 -293.1 -605.8 -488.5 -283.3 -762.1 -283.3 -752.3 -136.8 -214.9 -615.5 -459.2 -175.9 -586.2 -214.9 -605.8 -400.6 156.3
1.635 -254 78.16 -263.8 0 -449.4 -195.4 -283.3 -556.9 -410.4 -664.4 39.08 97.7 -390.8 -390.8 -117.2 -381 19.54 -273.6 -214.9 127
1.64 -87.93 97.7 -195.4 107.5 -371.3 -68.39 -400.6 -566.7 -742.6 -859.8 58.62 78.16 -322.4 -361.5 -342 -537.4 107.5 -224.7 -420.1 146.6
1.645 29.31 263.8 -58.62 205.2 -263.8 48.85 -400.6 -420.1 -801.2 -693.7 254 312.7 -146.6 -332.2 -302.9 -429.9 156.3 -97.7 -273.6 97.7
1.65 -29.31 214.9 -205.2 117.2 -361.5 29.31 -478.7 -390.8 -830.5 -810.9 68.39 146.6 -263.8 -342 -478.7 -459.2 19.54 -185.6 -351.7 39.08
1.655 29.31 244.3 -205.2 87.93 -293.1 107.5 -342 -224.7 -655.1 -498.3 175.9 214.9 -136.8 -361.5 -371.3 -234.5 -39.08 -78.16 -166.1 -19.54
1.66 -58.62 97.7 -312.7 -117.2 -332.2 -9.77 -283.3 -175.9 -449.4 -478.7 0 19.54 -332.2 -478.7 -342 -195.4 -166.1 -234.5 -136.8 78.16
1.665 127 224.7 -117.2 -29.31 -39.08 185.6 68.39 117.2 29.31 -48.85 127 39.08 -107.5 -283.3 68.39 127 185.6 68.39 293.1 175.9
1.67 127 29.31 -68.39 -185.6 29.31 117.2 205.2 146.6 234.5 87.93 -78.16 -19.54 -146.6 -596 146.6 -48.85 97.7 -19.54 312.7 205.2
1.675 293.1 117.2 107.5 -68.39 244.3 254 429.9 410.4 683.9 537.4 107.5 68.39 127 -478.7 420.1 234.5 342 244.3 713.2 214.9
1.68 234.5 -39.08 29.31 -146.6 166.1 78.16 351.7 302.9 850 517.8 -29.31 -136.8 0 -683.9 332.2 39.08 166.1 -9.77 664.4 302.9
1.685 214.9 -68.39 -87.93 -214.9 29.31 39.08 322.4 342 986.8 664.4 87.93 -78.16 48.85 -625.3 342 195.4 97.7 -48.85 781.6 273.6
1.69 -195.4 -351.7 -400.6 -498.3 -175.9 -322.4 29.31 0 752.3 263.8 -175.9 -390.8 -214.9 -918.4 29.31 -78.16 -322.4 -508.1 429.9 273.6
1.695 -185.6 -293.1 -400.6 -469 -166.1 -400.6 -29.31 -117.2 762.1 273.6 0 -205.2 -156.3 -810.9 117.2 48.85 -273.6 -488.5 449.4 254
1.7 -381 -537.4 -469 -723 -293.1 -635.6 -254 -361.5 410.4 0 -166.1 -459.2 -322.4 -889.1 -156.3 -127 -488.5 -713.2 19.54 244.3
1.705 -205.2 -439.7 -254 -635.6 -68.39 -547.6 -107.5 -322.4 469 195.4 -9.77 -224.7 -68.39 -840.3 107.5 48.85 -234.5 -508.1 214.9 254
1.71 -146.6 -556.9 -195.4 -703.5 -48.85 -566.7 -107.5 -302.9 390.8 185.6 -136.8 -322.4 -185.6 -703.5 19.54 -39.08 -273.6 -478.7 87.93 205.2
1.715 78.16 -332.2 58.62 -410.4 273.6 -263.8 234.5 -58.62 703.5 498.3 -29.31 -9.77 136.8 -566.7 469 146.6 97.7 -87.93 439.7 205.2
1.72 156.3 -234.5 87.93 -390.8 293.1 -224.7 273.6 -146.6 644.8 283.3 -185.6 19.54 68.39 -459.2 371.3 -68.39 87.93 -127 302.9 195.4
1.725 312.7 19.54 254 -127 566.7 107.5 508.1 -9.77 781.6 342 0 332.2 322.4 -283.3 654.6 117.2 449.4 175.9 527.6 322.4
1.73 410.4 39.08 302.9 -146.6 429.9 97.7 351.7 -146.6 420.1 -127 -68.39 146.6 156.3 -332.2 400.6 -136.8 429.9 78.16 166.1 283.3
1.735 537.4 361.5 439.7 0 586.2 273.6 312.7 -78.16 185.6 -156.3 136.8 390.8 371.3 -263.8 400.6 -127 596 312.7 117.2 214.9
1.74 361.5 166.1 400.6 -136.8 527.6 136.8 29.31 -146.6 -214.9 -508.1 68.39 97.7 146.6 -342 19.54 -244.3 390.8 156.3 -205.2 146.6
1.745 390.8 429.9 449.4 136.8 635.1 420.1 39.08 146.6 -342 -322.4 136.8 390.8 342 -97.7 68.39 29.31 439.7 449.4 -117.2 -48.85
1.75 273.6 156.3 371.3 48.85 596 322.4 -136.8 29.31 -596 -508.1 87.93 195.4 107.5 -244.3 -185.6 -97.7 214.9 371.3 -273.6 -117.2
1.755 371.3 439.7 449.4 322.4 820.7 547.1 19.54 302.9 -361.5 -185.6 283.3 332.2 263.8 68.39 39.08 244.3 400.6 596 39.08 -117.2
1.76 371.3 322.4 400.6 254 732.8 342 -29.31 166.1 -459.2 -283.3 156.3 156.3 19.54 -332.2 -39.08 107.5 244.3 342 -58.62 -48.85
1.765 644.8 488.5 674.2 302.9 1006 342 322.4 312.7 9.77 -19.54 527.6 175.9 332.2 19.54 332.2 283.3 537.4 429.9 449.4 166.1
1.77 459.2 234.5 498.3 0 801.2 87.93 214.9 224.7 -78.16 19.54 351.7 -117.2 185.6 -175.9 214.9 205.2 127 136.8 205.2 48.85
1.775 508.1 214.9 508.1 -136.8 850 0 410.4 263.8 195.4 351.7 576.5 -68.39 498.3 -19.54 429.9 361.5 205.2 185.6 478.7 58.62
1.78 166.1 -117.2 127 -410.4 517.8 -185.6 175.9 175.9 156.3 361.5 224.7 -342 244.3 0 117.2 293.1 -214.9 -127 234.5 -19.54
1.785 19.54 -244.3 -136.8 -547.6 342 -273.6 166.1 156.3 312.7 566.7 78.16 -322.4 302.9 87.93 214.9 342 -342 -185.6 332.2 -39.08
1.79 -214.9 -381 -410.4 -723 107.5 -429.9 29.31 -175.9 322.4 361.5 -322.4 -420.1 -29.31 -136.8 58.62 107.5 -556.9 -429.9 136.8 39.08
1.795 -214.9 -351.7 -469 -664.4 68.39 -439.7 78.16 -156.3 478.7 469 -283.3 -302.9 0 68.39 175.9 185.6 -459.2 -361.5 234.5 156.3
1.8 -224.7 -381 -556.9 -713.2 -48.85 -527.6 -39.08 -351.7 332.2 175.9 -488.5 -390.8 -214.9 -78.16 0 -29.31 -556.9 -556.9 -58.62 195.4
1.805 -214.9 -351.7 -498.3 -576.5 -19.54 -478.7 -29.31 -283.3 332.2 175.9 -390.8 -332.2 -39.08 68.39 68.39 68.39 -410.4 -371.3 -58.62 244.3
1.81 9.77 -302.9 -527.6 -498.3 -136.8 -449.4 -205.2 -302.9 136.8 9.77 -566.7 -566.7 -175.9 -58.62 -127 -29.31 -361.5 -420.1 -312.7 195.4
1.815 19.54 -224.7 -400.6 -166.1 -68.39 -254 -175.9 -107.5 254 97.7 -527.6 -302.9 29.31 136.8 -87.93 87.93 -78.16 -205.2 -146.6 254
1.82 254 -78.16 -361.5 -78.16 -224.7 -254 -263.8 -195.4 185.6 -156.3 -586.2 -429.9 -117.2 107.5 -283.3 -107.5 58.62 -332.2 -185.6 459.2
1.825 283.3 117.2 -146.6 254 29.31 9.77 29.31 19.54 508.1 29.31 -381 -107.5 107.5 214.9 58.62 146.6 420.1 -87.93 185.6 547.1
1.83 488.5 136.8 39.08 224.7 58.62 -29.31 117.2 -39.08 527.6 -68.39 -263.8 -371.3 -39.08 78.16 87.93 -117.2 517.8 -29.31 175.9 556.9
1.835 674.2 400.6 263.8 351.7 244.3 97.7 302.9 107.5 605.8 136.8 39.08 -361.5 175.9 166.1 322.4 9.77 752.3 234.5 400.6 469
1.84 644.8 371.3 244.3 469 224.7 127 224.7 87.93 420.1 107.5 -48.85 -381 166.1 234.5 175.9 -87.93 703.5 273.6 214.9 283.3
1.845 791.4 732.8 381 723 381 351.7 254 273.6 322.4 263.8 195.4 -205.2 351.7 361.5 175.9 39.08 908.6 566.7 302.9 117.2
1.85 869.6 654.6 400.6 879.3 371.3 381 136.8 127 166.1 -68.39 185.6 -244.3 254 400.6 -9.77 -107.5 938 576.5 146.6 87.93
1.855 908.6 859.8 654.6 1006 625.3 478.7 283.3 195.4 224.7 -87.93 478.7 -78.16 459.2 459.2 195.4 9.77 1202 859.8 420.1 127
1.86 1026 810.9 840.3 967.3 762.1 517.8 263.8 29.31 87.93 -400.6 517.8 -371.3 361.5 342 136.8 -205.2 1251 889.1 302.9 195.4
1.865 928.2 879.3 1045 1124 908.6 732.8 400.6 263.8 156.3 -312.7 723 -146.6 556.9 517.8 361.5 0 1417 1163 547.1 156.3
1.87 898.9 1016 1104 1309 898.9 977 390.8 527.6 9.77 -224.7 605.8 -9.77 556.9 664.4 224.7 -19.54 1260 1290 439.7 -107.5
1.875 859.8 1065 1114 1495 918.4 1260 508.1 918.4 195.4 195.4 752.3 332.2 713.2 859.8 371.3 322.4 1299 1544 762.1 -205.2
1.88 781.6 928.2 996.6 1514 723 1309 469 1065 136.8 263.8 478.7 254 683.9 820.7 185.6 244.3 996.6 1348 674.2 -273.6
1.885 605.8 752.3 830.5 1299 664.4 1251 556.9 1260 508.1 625.3 527.6 429.9 586.2 869.6 283.3 449.4 850 1270 938 -214.9
1.89 449.4 488.5 478.7 928.2 420.1 908.6 390.8 1006 410.4 508.1 156.3 185.6 263.8 635.1 58.62 293.1 322.4 879.3 586.2 -332.2
1.895 263.8 371.3 381 654.6 381 713.2 439.7 938 635.1 664.4 156.3 342 371.3 674.2 234.5 410.4 234.5 791.4 644.8 -224.7
1.9 -58.62 87.93 29.31 234.5 78.16 224.7 156.3 566.7 371.3 478.7 -87.93 -127 87.93 293.1 29.31 263.8 -273.6 293.1 136.8 -293.1
1.905 -19.54 48.85 9.77 195.4 -9.77 97.7 107.5 488.5 381 527.6 48.85 166.1 214.9 58.62 146.6 390.8 -175.9 175.9 107.5 -156.3
1.91 -136.8 -214.9 -127 -127 -390.8 -322.4 -254 -19.54 -9.77 175.9 -48.85 -136.8 78.16 -29.31 -302.9 68.39 -420.1 -283.3 -390.8 -175.9
1.915 -156.3 -185.6 -205.2 -214.9 -674.6 -478.7 -439.7 -244.3 -97.7 78.16 48.85 117.2 146.6 -97.7 -322.4 97.7 -459.2 -517.8 -478.7 -58.62
1.92 -244.3 -332.2 -371.3 -332.2 -938 -752.3 -732.8 -791.4 -449.4 -342 -175.9 -19.54 -136.8 -166.1 -655.1 -244.3 -693.7 -928.2 -908.6 0
1.925 -214.9 -332.2 -293.1 -312.7 -928.2 -781.6 -713.2 -898.9 -361.5 -390.8 -58.62 263.8 -48.85 48.85 -537.4 -87.93 -576.5 -928.2 -840.3 97.7
1.93 -254 -429.9 -381 -478.7 -977.5 -1006 -771.9 -1124 -508.1 -635.6 -332.2 0 -185.6 -117.2 -655.1 -263.8 -703.5 -1143 -1055 97.7
1.935 -185.6 -371.3 -244.3 -478.7 -810.9 -928.2 -635.6 -996.6 -371.3 -517.8 -195.4 0 -78.16 -175.9 -449.4 -175.9 -469 -967.8 -879.8 156.3
1.94 -263.8 -469 -342 -596 -781.6 -889.1 -644.8 -977.5 -449.4 -655.1 -478.7 -214.9 -234.5 -214.9 -556.9 -263.8 -478.7 -1006 -987.3 136.8
1.945 -146.6 -332.2 -293.1 -439.7 -644.8 -742.6 -429.9 -801.2 -312.7 -527.6 -263.8 -29.31 -127 -214.9 -283.3 -166.1 -244.3 -752.3 -683.9 166.1
1.95 -351.7 -224.7 -449.4 -390.8 -556.9 -674.6 -459.2 -810.9 -390.8 -635.6 -459.2 -185.6 -244.3 -283.3 -420.1 -302.9 -361.5 -674.6 -762.1 58.62
1.955 -214.9 -78.16 -185.6 -107.5 -224.7 -381 -87.93 -517.8 -156.3 -390.8 -107.5 224.7 68.39 -146.6 -39.08 -136.8 -156.3 -273.6 -332.2 0
1.96 -254 -97.7 -185.6 -205.2 -107.5 -342 -29.31 -498.3 -273.6 -488.5 -175.9 -78.16 87.93 -263.8 -78.16 -342 -283.3 -293.1 -371.3 -48.85
1.965 -293.1 0 -39.08 39.08 9.77 0 -156.3 9.77 -29.31 48.85 -273.6 19.54 -205.2 234.5 -263.8 -29.31 -342 -117.2 -263.8 -293.1
1.97 -175.9 175.9 58.62 78.16 224.7 156.3 29.31 254 87.93 312.7 -156.3 -166.1 78.16 420.1 0 263.8 -156.3 146.6 19.54 -283.3
1.975 -224.7 -29.31 -68.39 -19.54 214.9 87.93 -87.93 156.3 -58.62 107.5 -312.7 -254 39.08 244.3 -127 39.08 -263.8 39.08 -195.4 -263.8
1.98 -166.1 68.39 -39.08 87.93 254 195.4 -29.31 361.5 -39.08 283.3 -146.6 -185.6 166.1 342 -87.93 234.5 -156.3 302.9 -107.5 -410.4
1.985 -322.4 -29.31 -224.7 48.85 48.85 87.93 -214.9 185.6 -263.8 29.31 -469 -371.3 -9.77 175.9 -273.6 -48.85 -293.1 175.9 -420.1 -449.4
1.99 -420.1 107.5 -293.1 214.9 39.08 146.6 -254 273.6 -342 48.85 -381 -78.16 68.39 283.3 -254 127 -244.3 322.4 -449.4 -556.9
1.995 -527.6 117.2 -449.4 185.6 -48.85 29.31 -410.4 68.39 -508.1 -244.3 -586.2 -9.77 -127 175.9 -508.1 -234.5 -361.5 146.6 -703.5 -576.5
2 -459.2 107.5 -263.8 273.6 87.93 107.5 -263.8 175.9 -351.7 -78.16 -371.3 195.4 29.31 273.6 -234.5 -19.54 -234.5 302.9 -469 -556.9
2.005 -400.6 87.93 -254 39.08 39.08 -127 -322.4 -29.31 -420.1 -351.7 -410.4 -68.39 -117.2 195.4 -342 -342 -342 19.54 -586.2 -400.6
2.01 -381 0 -58.62 78.16 166.1 -9.77 -29.31 175.9 -58.62 -39.08 -214.9 58.62 78.16 273.6 -29.31 -127 -205.2 205.2 -205.2 -322.4
2.015 -439.7 -224.7 -175.9 -195.4 9.77 -244.3 -224.7 -9.77 -234.5 -205.2 -332.2 -166.1 9.77 107.5 -254 -312.7 -478.7 -39.08 -429.9 -410.4
2.02 -429.9 -205.2 0 -156.3 234.5 -127 39.08 127 58.62 39.08 -146.6 68.39 214.9 351.7 48.85 -29.31 -312.7 175.9 -117.2 -332.2
2.025 -498.3 -283.3 -195.4 -283.3 87.93 -195.4 -166.1 -9.77 -224.7 -117.2 -293.1 97.7 39.08 312.7 -195.4 -224.7 -586.2 9.77 -478.7 -488.5
2.03 -400.6 -39.08 -48.85 39.08 224.7 87.93 19.54 224.7 58.62 97.7 -48.85 820.7 156.3 683.9 48.85 78.16 -244.3 166.1 -214.9 -390.8
2.035 -478.7 -97.7 -234.5 0 -39.08 0 -244.3 39.08 -293.1 -58.62 -273.6 429.9 -97.7 586.2 -224.7 -146.6 -498.3 58.62 -605.8 -586.2
2.04 -390.8 48.85 -136.8 214.9 -48.85 146.6 -185.6 205.2 -185.6 97.7 -39.08 498.3 0 644.8 -127 -9.77 -381 117.2 -449.4 -586.2
2.045 -508.1 -234.5 -156.3 78.16 -254 0 -381 39.08 -429.9 -39.08 -214.9 -39.08 -263.8 351.7 -293.1 -254 -556.9 -156.3 -762.1 -556.9
2.05 -273.6 -58.62 166.1 342 -87.93 205.2 -214.9 214.9 -302.9 146.6 78.16 58.62 -78.16 361.5 -127 -48.85 -302.9 68.39 -566.7 -556.9
2.055 -224.7 -175.9 127 332.2 -244.3 146.6 -351.7 175.9 -449.4 -29.31 -87.93 -254 -302.9 312.7 -302.9 -87.93 -371.3 -87.93 -859.8 -625.3
2.06 -58.62 78.16 302.9 498.3 -87.93 254 -224.7 254 -322.4 78.16 214.9 -48.85 -117.2 381 -107.5 127 -78.16 68.39 -655.1 -576.5
2.065 -78.16 19.54 58.62 342 -205.2 9.77 -371.3 9.77 -498.3 -205.2 68.39 -283.3 -234.5 263.8 -302.9 -19.54 -234.5 -234.5 -938 -478.7
2.07 9.77 39.08 78.16 214.9 -214.9 -58.62 -263.8 68.39 -351.7 -48.85 293.1 -254 -97.7 224.7 -136.8 97.7 -156.3 -195.4 -762.1 -400.6
2.075 -312.7 -195.4 -263.8 -19.54 -400.6 -283.3 -488.5 -107.5 -547.6 -185.6 -9.77 -410.4 -342 58.62 -400.6 -175.9 -508.1 -439.7 -967.8 -390.8
2.08 -107.5 -29.31 -48.85 166.1 -214.9 -97.7 -322.4 87.93 -312.7 78.16 254 -224.7 -136.8 175.9 -146.6 68.39 -244.3 -136.8 -644.8 -361.5
2.085 -381 -195.4 -273.6 156.3 -302.9 -87.93 -469 -19.54 -469 -68.39 9.77 -224.7 -244.3 195.4 -371.3 -97.7 -449.4 -293.1 -762.1 -273.6
2.09 -97.7 -19.54 97.7 361.5 9.77 58.62 -156.3 185.6 -117.2 97.7 371.3 -136.8 39.08 400.6 0 263.8 -9.77 -48.85 -312.7 -19.54
2.095 -156.3 -263.8 -29.31 195.4 -146.6 -68.39 -234.5 -29.31 -263.8 -166.1 195.4 -195.4 -78.16 342 -195.4 48.85 -136.8 -244.3 -517.8 29.31
2.1 -97.7 -136.8 9.77 58.62 78.16 -87.93 78.16 19.54 19.54 58.62 361.5 -459.2 175.9 469 205.2 205.2 -48.85 -146.6 -205.2 58.62
2.105 -185.6 -449.4 -175.9 -224.7 -107.5 -361.5 -29.31 -273.6 -146.6 -146.6 87.93 -840.3 -58.62 234.5 39.08 -117.2 -390.8 -410.4 -469 39.08
2.11 -205.2 -254 -175.9 -97.7 97.7 -195.4 234.5 -58.62 107.5 254 166.1 -791.4 273.6 410.4 390.8 -19.54 -293.1 -175.9 -175.9 -97.7
2.115 -342 -547.6 -195.4 -263.8 58.62 -302.9 166.1 -185.6 29.31 107.5 68.39 -1025 146.6 342 224.7 -195.4 -556.9 -312.7 -302.9 -127
2.12 -342 -400.6 -87.93 -205.2 39.08 -166.1 166.1 -39.08 146.6 244.3 107.5 -791.4 214.9 469 342 -39.08 -459.2 -166.1 -195.4 -156.3
2.125 9.77 -469 127 -390.8 117.2 -244.3 293.1 -107.5 293.1 -9.77 234.5 -928.2 273.6 508.1 332.2 -78.16 -302.9 -478.7 -175.9 156.3
2.13 -117.2 -322.4 -48.85 -429.9 -136.8 -107.5 175.9 97.7 351.7 205.2 136.8 -683.9 136.8 605.8 361.5 117.2 -293.1 -322.4 19.54 185.6
2.135 -78.16 -381 -166.1 -586.2 -361.5 -175.9 -9.77 68.39 195.4 78.16 0 -742.6 -166.1 508.1 87.93 78.16 -478.7 -390.8 -136.8 87.93
2.14 -9.77 -293.1 -58.62 -469 -195.4 48.85 185.6 400.6 429.9 429.9 244.3 -508.1 107.5 586.2 400.6 283.3 -136.8 -78.16 381 234.5
2.145 -254 -556.9 -390.8 -576.5 -478.7 39.08 -166.1 381 97.7 439.7 -175.9 -713.2 -302.9 390.8 -87.93 156.3 -576.5 -136.8 78.16 -48.85
2.15 -136.8 -400.6 -146.6 -302.9 -68.39 342 185.6 683.9 381 713.2 234.5 -166.1 29.31 488.5 342 390.8 -166.1 244.3 527.6 48.85
2.155 -156.3 -596 -166.1 -361.5 29.31 273.6 175.9 469 312.7 508.1 19.54 -635.6 -9.77 293.1 195.4 78.16 -205.2 97.7 400.6 156.3
2.16 58.62 -185.6 -68.39 -78.16 156.3 488.5 342 605.8 449.4 556.9 0 -87.93 9.77 508.1 390.8 166.1 19.54 322.4 566.7 146.6
2.165 117.2 -146.6 39.08 -19.54 195.4 420.1 400.6 439.7 420.1 283.3 127 -195.4 48.85 361.5 332.2 -58.62 136.8 234.5 469 302.9
2.17 703.5 185.6 459.2 166.1 478.7 498.3 762.1 449.4 752.3 283.3 254 127 342 723 693.7 39.08 644.8 371.3 898.9 596
2.175 293.1 136.8 166.1 78.16 78.16 332.2 400.6 322.4 293.1 29.31 -87.93 136.8 -68.39 547.1 312.7 -205.2 224.7 293.1 400.6 302.9
2.18 654.6 107.5 644.8 48.85 508.1 361.5 752.3 390.8 664.4 127 488.5 342 361.5 644.8 703.5 19.54 713.2 488.5 918.4 625.3
2.185 508.1 -87.93 381 -19.54 351.7 156.3 459.2 175.9 342 -117.2 97.7 78.16 0 390.8 234.5 -263.8 429.9 351.7 488.5 400.6
2.19 420.1 -107.5 654.6 97.7 566.7 263.8 537.4 342 429.9 107.5 664.4 127 244.3 566.7 420.1 48.85 752.3 586.2 820.7 527.6
2.195 429.9 -166.1 469 -48.85 351.7 -9.77 195.4 117.2 117.2 -166.1 293.1 -117.2 -195.4 156.3 -39.08 -224.7 488.5 351.7 361.5 332.2
2.2 390.8 19.54 498.3 127 332.2 29.31 156.3 224.7 117.2 68.39 400.6 19.54 -29.31 312.7 39.08 97.7 596 469 537.4 293.1
2.205 371.3 -127 332.2 -48.85 78.16 -273.6 -117.2 -48.85 -117.2 -185.6 87.93 -175.9 -469 127 -332.2 -205.2 254 48.85 195.4 293.1
2.21 -39.08 -234.5 58.62 -293.1 -39.08 -449.4 -224.7 -127 -136.8 -136.8 87.93 -117.2 -361.5 136.8 -322.4 -58.62 68.39 -156.3 136.8 263.8
2.215 -68.39 -332.2 -127 -410.4 -273.6 -547.6 -439.7 -312.7 -273.6 -342 -127 -469 -635.6 68.39 -517.8 -302.9 -195.4 -420.1 -205.2 166.1
2.22 127 -273.6 0 -439.7 -78.16 -547.6 -146.6 -410.4 87.93 -273.6 322.4 -244.3 -185.6 214.9 -29.31 -214.9 48.85 -469 39.08 420.1
2.225 -175.9 -361.5 -429.9 -605.8 -498.3 -625.3 -459.2 -625.3 -263.8 -508.1 -117.2 -478.7 -527.6 39.08 -342 -381 -420.1 -791.4 -429.9 146.6
2.23 146.6 -78.16 -205.2 -478.7 -381 -439.7 -185.6 -566.7 29.31 -302.9 332.2 -302.9 -185.6 156.3 48.85 -146.6 -214.9 -615.5 -195.4 166.1
2.235 -224.7 -332.2 -547.6 -625.3 -693.7 -508.1 -420.1 -693.7 -263.8 -517.8 -156.3 -351.7 -517.8 -58.62 -205.2 -312.7 -615.5 -869.6 -566.7 -9.77
2.24 -322.4 -39.08 -478.7 -381 -693.7 -244.3 -361.5 -410.4 -185.6 -166.1 39.08 48.85 -478.7 166.1 -48.85 29.31 -625.3 -537.4 -469 -371.3
2.245 -263.8 -117.2 -283.3 -273.6 -498.3 -342 -146.6 -488.5 -97.7 -302.9 87.93 -127 -312.7 0 175.9 -156.3 -469 -644.8 -410.4 -107.5
2.25 -508.1 48.85 -517.8 -58.62 -713.2 -185.6 -293.1 -244.3 -146.6 -29.31 -48.85 136.8 -527.6 97.7 -19.54 107.5 -537.4 -429.9 -371.3 -342
2.255 -263.8 -39.08 -361.5 29.31 -655.1 -175.9 -254 -205.2 -107.5 -58.62 29.31 39.08 -527.6 0 -58.62 -97.7 -508.1 -508.1 -351.7 -263.8
2.26 -234.5 166.1 -390.8 254 -596 97.7 -214.9 156.3 29.31 273.6 136.8 488.5 -469 175.9 -58.62 205.2 -283.3 -107.5 0 -283.3
2.265 -224.7 48.85 -449.4 127 -635.6 136.8 -312.7 214.9 -19.54 263.8 19.54 19.54 -625.3 -39.08 -205.2 29.31 -420.1 -136.8 0 -244.3
2.27 39.08 254 -175.9 263.8 -214.9 342 -9.77 508.1 273.6 517.8 273.6 254 -244.3 19.54 107.5 273.6 39.08 224.7 547.1 -48.85
2.275 -68.39 117.2 -234.5 224.7 -107.5 342 -29.31 547.1 175.9 410.4 156.3 -58.62 -371.3 -146.6 -48.85 166.1 19.54 351.7 547.1 -48.85
2.28 351.7 214.9 107.5 263.8 302.9 332.2 312.7 625.3 547.1 527.6 400.6 -78.16 19.54 -175.9 312.7 361.5 508.1 517.8 1036 293.1
2.285 254 58.62 -97.7 263.8 87.93 283.3 78.16 576.5 117.2 322.4 68.39 -117.2 -371.3 -205.2 -136.8 342 224.7 449.4 635.1 39.08
2.29 429.9 332.2 244.3 312.7 459.2 351.7 469 635.1 478.7 469 410.4 136.8 39.08 -58.62 273.6 615.5 537.4 576.5 1026 273.6
2.295 185.6 195.4 0 136.8 195.4 185.6 273.6 420.1 166.1 185.6 185.6 127 -166.1 -156.3 -29.31 469 244.3 371.3 644.8 127
2.3 175.9 214.9 166.1 97.7 312.7 214.9 420.1 371.3 342 244.3 322.4 420.1 48.85 -68.39 185.6 537.4 302.9 390.8 762.1 205.2
2.305 224.7 214.9 166.1 -48.85 175.9 58.62 390.8 156.3 273.6 -9.77 293.1 234.5 48.85 -263.8 166.1 254 214.9 136.8 527.6 263.8
2.31 283.3 214.9 87.93 -136.8 136.8 127 459.2 175.9 439.7 146.6 263.8 224.7 136.8 -283.3 312.7 332.2 224.7 185.6 547.1 166.1
2.315 58.62 -58.62 -29.31 -273.6 19.54 78.16 400.6 -19.54 293.1 -68.39 214.9 19.54 97.7 -488.5 244.3 68.39 -9.77 0 166.1 29.31
2.32 -195.4 -78.16 -263.8 -273.6 -48.85 166.1 400.6 0 381 29.31 175.9 87.93 214.9 -410.4 322.4 127 -136.8 127 127 -107.5
2.325 -390.8 -224.7 -537.4 -459.2 -175.9 48.85 273.6 -175.9 224.7 -214.9 -48.85 -78.16 9.77 -703.5 195.4 -175.9 -449.4 -156.3 -244.3 -214.9
2.33 -469 -234.5 -459.2 -302.9 0 234.5 400.6 19.54 429.9 -39.08 117.2 87.93 175.9 -498.3 449.4 19.54 -312.7 -39.08 -19.54 -175.9
2.335 -508.1 -127 -752.3 -381 -244.3 166.1 254 -19.54 390.8 -87.93 -312.7 -97.7 -156.3 -537.4 342 -117.2 -625.3 -146.6 -185.6 -254
2.34 -527.6 -29.31 -752.3 -224.7 -263.8 400.6 361.5 390.8 556.9 351.7 -224.7 107.5 -68.39 -420.1 566.7 205.2 -547.6 127 136.8 -410.4
2.345 -655.1 -234.5 -938 -361.5 -478.7 224.7 156.3 263.8 420.1 283.3 -537.4 -136.8 -254 -556.9 302.9 58.62 -781.6 -146.6 9.77 -342
2.35 -488.5 0 -742.6 -322.4 -410.4 351.7 254 449.4 556.9 498.3 -244.3 97.7 -29.31 -410.4 410.4 351.7 -547.6 87.93 312.7 -273.6
2.355 -586.2 -156.3 -693.7 -351.7 -556.9 214.9 -29.31 312.7 254 283.3 -351.7 146.6 -97.7 -517.8 29.31 205.2 -615.5 -78.16 136.8 -224.7
2.36 -342 87.93 -439.7 -224.7 -449.4 312.7 -29.31 439.7 244.3 449.4 -117.2 244.3 87.93 -283.3 19.54 459.2 -400.6 156.3 312.7 -214.9
2.365 -508.1 -117.2 -596 -293.1 -566.7 175.9 -224.7 312.7 9.77 263.8 -390.8 136.8 -205.2 -420.1 -273.6 234.5 -517.8 0 136.8 -185.6
2.37 -312.7 87.93 -517.8 -175.9 -459.2 175.9 -166.1 361.5 19.54 400.6 -293.1 312.7 -48.85 -420.1 -127 273.6 -361.5 136.8 332.2 -107.5
2.375 -508.1 -175.9 -742.6 -224.7 -655.1 -19.54 -371.3 136.8 -254 224.7 -655.1 234.5 -488.5 -469 -381 127 -517.8 0 29.31 -224.7
2.38 -195.4 87.93 -478.7 39.08 -527.6 19.54 -283.3 117.2 -156.3 185.6 -312.7 429.9 -332.2 -390.8 -224.7 175.9 -156.3 205.2 146.6 -127
2.385 -146.6 39.08 -420.1 -39.08 -625.3 -175.9 -390.8 -205.2 -342 -127 -283.3 361.5 -371.3 -508.1 -420.1 -39.08 -146.6 29.31 -175.9 -68.39
2.39 39.08 273.6 -195.4 117.2 -439.7 -68.39 -283.3 -136.8 -195.4 -87.93 0 420.1 -195.4 -371.3 -283.3 185.6 185.6 185.6 -39.08 -68.39
2.395 263.8 254 -117.2 0 -342 -136.8 -381 -400.6 -322.4 -400.6 58.62 332.2 -214.9 -508.1 -420.1 -97.7 185.6 -48.85 -312.7 0
2.4 302.9 322.4 175.9 127 -48.85 117.2 -127 -156.3 -127 -185.6 371.3 469 127 -293.1 -136.8 195.4 381 254 -68.39 -117.2
2.405 361.5 263.8 234.5 39.08 -127 97.7 -224.7 -244.3 -312.7 -410.4 283.3 302.9 -48.85 -302.9 -302.9 -68.39 254 -19.54 -361.5 -29.31
2.41 439.7 312.7 429.9 107.5 -19.54 273.6 -87.93 -48.85 -185.6 -214.9 439.7 420.1 224.7 -195.4 -87.93 78.16 361.5 156.3 -146.6 -78.16
2.415 146.6 -58.62 283.3 117.2 -244.3 195.4 -214.9 -107.5 -302.9 -302.9 214.9 273.6 68.39 -302.9 -273.6 -68.39 146.6 0 -381 -107.5
2.42 244.3 97.7 322.4 127 -175.9 254 -127 58.62 -195.4 -117.2 390.8 390.8 205.2 -293.1 -156.3 19.54 166.1 107.5 -214.9 -146.6
2.425 87.93 -68.39 117.2 117.2 -263.8 195.4 -205.2 87.93 -312.7 -136.8 312.7 263.8 87.93 -175.9 -234.5 -29.31 29.31 39.08 -351.7 -195.4
2.43 146.6 -9.77 156.3 166.1 -175.9 234.5 -185.6 214.9 -166.1 127 547.1 400.6 156.3 -283.3 -146.6 107.5 78.16 107.5 -224.7 -185.6
2.435 78.16 19.54 29.31 97.7 -244.3 97.7 -205.2 97.7 -244.3 -39.08 312.7 254 19.54 -283.3 -156.3 -68.39 -39.08 -19.54 -322.4 -166.1
2.44 58.62 -19.54 156.3 117.2 -136.8 97.7 -117.2 117.2 -78.16 195.4 478.7 117.2 175.9 -302.9 -39.08 107.5 68.39 48.85 -205.2 -205.2
2.445 78.16 -87.93 205.2 185.6 -97.7 -39.08 -48.85 9.77 9.77 9.77 273.6 78.16 29.31 -342 -39.08 -58.62 195.4 -117.2 -146.6 -9.77
2.45 283.3 127 429.9 469 97.7 244.3 146.6 224.7 214.9 322.4 527.6 302.9 175.9 -97.7 175.9 244.3 508.1 244.3 195.4 -78.16
2.455 195.4 136.8 342 576.5 -19.54 185.6 -9.77 156.3 136.8 205.2 263.8 273.6 -58.62 -117.2 -48.85 68.39 469 117.2 48.85 -107.5
2.46 664.4 478.7 596 801.2 283.3 322.4 312.7 351.7 517.8 498.3 488.5 537.4 166.1 58.62 312.7 263.8 879.3 459.2 556.9 29.31
2.465 586.2 400.6 400.6 683.9 87.93 175.9 78.16 224.7 244.3 361.5 302.9 322.4 -48.85 -39.08 0 39.08 635.1 254 302.9 -48.85
2.47 908.6 742.6 615.5 644.8 361.5 127 312.7 175.9 459.2 469 586.2 283.3 273.6 -68.39 361.5 78.16 918.4 332.2 664.4 205.2
2.475 967.3 498.3 586.2 410.4 293.1 -68.39 175.9 -127 263.8 244.3 488.5 68.39 127 -273.6 87.93 -136.8 820.7 156.3 390.8 195.4
2.48 869.6 537.4 713.2 322.4 342 -97.7 254 -166.1 371.3 195.4 625.3 195.4 302.9 -273.6 273.6 -58.62 1036 175.9 508.1 332.2
2.485 879.3 556.9 596 361.5 146.6 -146.6 58.62 -371.3 136.8 -97.7 410.4 185.6 87.93 -342 -48.85 -254 898.9 0 136.8 312.7
2.49 859.8 693.7 693.7 488.5 127 -68.39 48.85 -302.9 39.08 -156.3 459.2 420.1 263.8 -78.16 -19.54 -107.5 1045 156.3 127 342
2.495 752.3 703.5 576.5 429.9 -78.16 -175.9 -224.7 -517.8 -371.3 -527.6 302.9 469 9.77 -244.3 -420.1 -312.7 752.3 39.08 -342 146.6
2.5 742.6 752.3 615.5 556.9 97.7 9.77 -127 -371.3 -293.1 -439.7 381 771.9 48.85 107.5 -234.5 -166.1 889.1 166.1 -127 205.2
2.505 488.5 547.1 361.5 283.3 -19.54 -156.3 -312.7 -566.7 -556.9 -742.6 214.9 635.1 -195.4 -234.5 -537.4 -449.4 517.8 -29.31 -342 127
2.51 400.6 508.1 332.2 254 244.3 107.5 -117.2 -195.4 -254 -459.2 234.5 908.6 -117.2 -58.62 -224.7 -146.6 596 127 68.39 224.7
2.515 273.6 244.3 78.16 -58.62 117.2 -68.39 -263.8 -351.7 -439.7 -625.3 -87.93 351.7 -361.5 -361.5 -459.2 -361.5 234.5 -166.1 -185.6 175.9
2.52 195.4 283.3 68.39 68.39 254 185.6 -87.93 -68.39 -214.9 -351.7 -97.7 488.5 -87.93 -166.1 -146.6 -39.08 283.3 48.85 127 156.3
2.525 48.85 381 -214.9 -29.31 19.54 136.8 -390.8 -87.93 -576.5 -381 -429.9 361.5 -322.4 -68.39 -488.5 -166.1 -195.4 -87.93 -381 -185.6
2.53 -156.3 302.9 -214.9 39.08 39.08 166.1 -273.6 48.85 -371.3 -107.5 -371.3 498.3 -58.62 58.62 -185.6 39.08 -214.9 9.77 -234.5 -224.7
2.535 -342 381 -449.4 87.93 -234.5 136.8 -517.8 39.08 -586.2 -58.62 -537.4 420.1 -293.1 175.9 -410.4 -127 -635.6 39.08 -655.1 -664.4
2.54 -146.6 605.8 -97.7 293.1 48.85 205.2 -156.3 214.9 -195.4 254 -195.4 586.2 58.62 293.1 39.08 156.3 -254 361.5 -283.3 -644.8
2.545 -117.2 429.9 0 156.3 19.54 39.08 -117.2 -29.31 -107.5 48.85 -214.9 224.7 -58.62 58.62 19.54 -107.5 -97.7 48.85 -312.7 -371.3
2.55 449.4 556.9 469 214.9 439.7 29.31 400.6 -9.77 420.1 48.85 185.6 205.2 439.7 166.1 527.6 107.5 537.4 97.7 322.4 195.4
2.555 556.9 166.1 605.8 -127 566.7 -263.8 537.4 -381 488.5 -332.2 254 -97.7 390.8 -58.62 537.4 -156.3 693.7 -254 351.7 625.3
2.56 644.8 -29.31 683.9 -302.9 810.9 -429.9 791.4 -478.7 801.2 -371.3 469 -29.31 664.4 -78.16 781.6 -127 918.4 -322.4 771.9 1036
2.565 508.1 -556.9 517.8 -742.6 654.6 -732.8 635.1 -742.6 576.5 -683.9 185.6 -469 517.8 -175.9 556.9 -410.4 586.2 -693.7 488.5 1163
2.57 517.8 -420.1 508.1 -781.6 683.9 -752.3 566.7 -625.3 566.7 -596 263.8 -156.3 644.8 -205.2 586.2 -254 605.8 -625.3 508.1 1163
2.575 410.4 -459.2 302.9 -801.2 381 -918.4 195.4 -840.3 127 -771.9 -127 -361.5 410.4 -273.6 97.7 -459.2 322.4 -723 68.39 898.9
2.58 615.5 0 478.7 -400.6 449.4 -625.3 117.2 -586.2 68.39 -537.4 97.7 156.3 488.5 -117.2 127 -214.9 615.5 -332.2 58.62 683.9
2.585 527.6 244.3 283.3 -175.9 175.9 -508.1 -156.3 -674.6 -302.9 -625.3 -117.2 136.8 156.3 -234.5 -283.3 -322.4 459.2 -312.7 -351.7 449.4
2.59 537.4 400.6 322.4 146.6 234.5 -195.4 -78.16 -371.3 -117.2 -254 9.77 547.1 214.9 -48.85 -87.93 19.54 596 9.77 -127 293.1
2.595 48.85 117.2 0 117.2 -29.31 -136.8 -342 -400.6 -429.9 -322.4 -254 390.8 -156.3 -234.5 -429.9 -29.31 146.6 -117.2 -508.1 58.62
2.6 78.16 166.1 29.31 166.1 29.31 9.77 -107.5 -166.1 -195.4 -87.93 -175.9 596 146.6 107.5 -166.1 273.6 195.4 68.39 -185.6 78.16
2.605 -146.6 -302.9 -244.3 -48.85 -156.3 -68.39 -273.6 -273.6 -410.4 -234.5 -469 381 -87.93 -107.5 -381 107.5 -107.5 -156.3 -361.5 48.85
2.61 -97.7 -127 -205.2 78.16 9.77 117.2 -19.54 9.77 -205.2 -58.62 -459.2 664.4 175.9 195.4 -19.54 351.7 -19.54 58.62 -9.77 107.5
2.615 -332.2 -508.1 -449.4 -302.9 -156.3 -146.6 -117.2 -214.9 -342 -361.5 -693.7 -9.77 78.16 -78.16 -214.9 29.31 -342 -283.3 -244.3 146.6
2.62 -117.2 -214.9 -293.1 -136.8 156.3 29.31 127 -9.77 0 -107.5 -371.3 322.4 400.6 0 185.6 224.7 -48.85 -39.08 156.3 214.9
2.625 -351.7 -429.9 -429.9 -322.4 78.16 -214.9 -19.54 -244.3 -254 -371.3 -469 -29.31 351.7 -136.8 -9.77 -117.2 -293.1 -254 -146.6 146.6
2.63 -29.31 -19.54 -97.7 -136.8 234.5 -97.7 68.39 -136.8 -127 -214.9 -87.93 156.3 586.2 -244.3 205.2 0 9.77 19.54 58.62 156.3
2.635 29.31 0 -156.3 -136.8 87.93 -273.6 -127 -293.1 -517.8 -459.2 -156.3 78.16 390.8 -342 -166.1 -322.4 -87.93 -39.08 -351.7 -68.39
2.64 87.93 312.7 9.77 9.77 195.4 -185.6 -97.7 -185.6 -459.2 -244.3 -39.08 361.5 537.4 -322.4 9.77 -175.9 146.6 205.2 -283.3 -156.3
2.645 -39.08 107.5 -97.7 -136.8 29.31 -400.6 -332.2 -429.9 -655.1 -420.1 -175.9 185.6 322.4 -410.4 -322.4 -293.1 -48.85 -195.4 -605.8 -166.1
2.65 -68.39 78.16 -68.39 -205.2 107.5 -410.4 -117.2 -332.2 -361.5 -166.1 -117.2 488.5 498.3 -146.6 9.77 -107.5 136.8 -166.1 -263.8 0
2.655 -78.16 -136.8 -156.3 -263.8 -29.31 -459.2 -214.9 -351.7 -429.9 -244.3 -273.6 400.6 224.7 -146.6 -224.7 -136.8 -78.16 -361.5 -381 -19.54
2.66 214.9 146.6 87.93 -234.5 97.7 -429.9 -39.08 -244.3 -107.5 -48.85 -58.62 644.8 361.5 -166.1 19.54 39.08 224.7 -185.6 19.54 205.2
2.665 185.6 -19.54 -29.31 -420.1 -68.39 -547.6 -195.4 -439.7 -244.3 -332.2 -302.9 254 107.5 -410.4 -156.3 -195.4 68.39 -400.6 -175.9 283.3
2.67 136.8 205.2 -39.08 -234.5 -97.7 -381 -283.3 -322.4 -254 -254 -263.8 605.8 117.2 -322.4 -234.5 -19.54 156.3 -205.2 -156.3 205.2
2.675 -156.3 -166.1 -254 -420.1 -322.4 -527.6 -605.8 -547.6 -566.7 -713.2 -605.8 263.8 -117.2 -322.4 -576.5 -293.1 -97.7 -547.6 -469 224.7
2.68 -166.1 -205.2 -263.8 -351.7 -312.7 -371.3 -605.8 -371.3 -537.4 -674.6 -576.5 361.5 -107.5 -68.39 -556.9 -87.93 -39.08 -449.4 -351.7 205.2
2.685 -244.3 -517.8 -342 -488.5 -322.4 -498.3 -683.9 -537.4 -723 -938 -664.4 273.6 -97.7 -107.5 -713.2 -410.4 -312.7 -742.6 -517.8 254
2.69 -29.31 -263.8 -87.93 -439.7 -48.85 -371.3 -449.4 -342 -527.6 -703.5 -351.7 459.2 205.2 -19.54 -410.4 -254 -185.6 -469 -254 234.5
2.695 -127 -390.8 -97.7 -547.6 -19.54 -459.2 -420.1 -469 -615.5 -781.6 -469 283.3 263.8 -244.3 -508.1 -429.9 -371.3 -488.5 -469 68.39
2.7 -244.3 -195.4 87.93 -469 244.3 -342 -127 -332.2 -459.2 -469 -127 234.5 635.1 -254 -195.4 -166.1 -283.3 -166.1 -273.6 -58.62
2.705 -469 -410.4 -87.93 -459.2 127 -312.7 -224.7 -332.2 -605.8 -449.4 -312.7 -117.2 400.6 -312.7 -322.4 -205.2 -586.2 -166.1 -547.6 -312.7
2.71 -381 -224.7 68.39 -293.1 244.3 -175.9 -39.08 -136.8 -381 -87.93 -19.54 48.85 596 -312.7 -58.62 58.62 -420.1 9.77 -312.7 -312.7
2.715 -400.6 -78.16 -58.62 -293.1 19.54 -205.2 -87.93 -87.93 -420.1 -29.31 -175.9 -556.9 312.7 -263.8 -117.2 -68.39 -527.6 -48.85 -508.1 -410.4
2.72 -302.9 -127 127 -175.9 48.85 -127 -39.08 19.54 -293.1 156.3 78.16 -312.7 429.9 -166.1 58.62 87.93 -390.8 117.2 -293.1 -459.2
2.725 -293.1 -117.2 127 -146.6 -136.8 -283.3 -146.6 -97.7 -361.5 9.77 -166.1 -498.3 185.6 -234.5 -87.93 -205.2 -400.6 -58.62 -488.5 -390.8
2.73 -342 -254 244.3 19.54 -19.54 -293.1 -29.31 -29.31 -156.3 156.3 -9.77 -293.1 342 -146.6 156.3 48.85 -244.3 127 -351.7 -351.7
2.735 -508.1 -332.2 127 9.77 -127 -488.5 -136.8 -127 -214.9 -97.7 -361.5 -410.4 9.77 -195.4 -19.54 -146.6 -400.6 -68.39 -576.5 -302.9
2.74 -293.1 -39.08 185.6 185.6 19.54 -381 58.62 48.85 29.31 185.6 -293.1 -146.6 214.9 -19.54 263.8 175.9 -195.4 87.93 -302.9 -312.7
2.745 -410.4 -117.2 0 39.08 -87.93 -469 -87.93 -29.31 -78.16 29.31 -478.7 -420.1 9.77 -87.93 -29.31 48.85 -429.9 -127 -439.7 -234.5
2.75 -351.7 -39.08 58.62 39.08 9.77 -322.4 107.5 195.4 214.9 381 -371.3 -381 87.93 87.93 224.7 283.3 -283.3 9.77 -58.62 -175.9
2.755 -596 -283.3 -175.9 -156.3 -127 -283.3 -58.62 166.1 39.08 273.6 -596 -429.9 -156.3 39.08 -68.39 146.6 -527.6 0 -205.2 -263.8
2.76 -527.6 -214.9 19.54 29.31 29.31 29.31 146.6 469 293.1 605.8 -381 -185.6 -58.62 273.6 224.7 381 -283.3 224.7 175.9 -234.5
2.765 -547.6 -234.5 -107.5 -78.16 -127 58.62 -48.85 381 48.85 381 -556.9 -439.7 -420.1 224.7 0 185.6 -381 68.39 -68.39 -234.5
2.77 -439.7 -97.7 78.16 244.3 29.31 449.4 136.8 742.6 185.6 693.7 -381 117.2 -224.7 498.3 254 439.7 -136.8 381 195.4 -214.9
2.775 -390.8 39.08 0 224.7 -48.85 361.5 -117.2 596 -117.2 429.9 -566.7 -97.7 -459.2 342 -107.5 127 -302.9 214.9 -117.2 -224.7
2.78 -48.85 195.4 332.2 381 214.9 566.7 166.1 791.4 214.9 605.8 -185.6 244.3 -175.9 498.3 254 400.6 87.93 429.9 273.6 -19.54
2.785 -273.6 29.31 156.3 224.7 146.6 439.7 29.31 664.4 68.39 478.7 -459.2 58.62 -312.7 234.5 0 97.7 -166.1 244.3 78.16 -58.62
2.79 -97.7 146.6 332.2 263.8 302.9 537.4 214.9 683.9 205.2 605.8 -136.8 234.5 -117.2 263.8 185.6 244.3 -29.31 459.2 293.1 -58.62
2.795 -361.5 -263.8 175.9 78.16 185.6 342 58.62 429.9 -29.31 332.2 -361.5 -97.7 -214.9 39.08 -19.54 -19.54 -302.9 283.3 9.77 -87.93
2.8 -156.3 78.16 302.9 312.7 283.3 508.1 127 478.7 -48.85 400.6 -78.16 156.3 -39.08 185.6 127 107.5 -146.6 556.9 0 -302.9
2.805 -293.1 -185.6 29.31 244.3 68.39 293.1 -107.5 185.6 -400.6 0 -361.5 -136.8 -234.5 -68.39 -214.9 -127 -400.6 351.7 -322.4 -302.9
2.81 -244.3 -48.85 136.8 361.5 312.7 254 127 127 -146.6 0 -166.1 214.9 87.93 -9.77 107.5 -68.39 -185.6 410.4 -48.85 -195.4
2.815 -175.9 -19.54 78.16 254 302.9 9.77 48.85 -175.9 -263.8 -312.7 -293.1 185.6 -78.16 -107.5 -9.77 -332.2 -224.7 234.5 -205.2 -117.2
2.82 -195.4 -48.85 78.16 136.8 390.8 -127 214.9 -244.3 -58.62 -361.5 -214.9 166.1 146.6 -117.2 214.9 -302.9 -175.9 263.8 -19.54 -68.39
2.825 -185.6 -58.62 48.85 9.77 371.3 -322.4 263.8 -429.9 -39.08 -605.8 -302.9 87.93 87.93 -332.2 156.3 -576.5 -332.2 107.5 -175.9 -58.62
2.83 -117.2 214.9 -48.85 19.54 263.8 -136.8 322.4 -166.1 97.7 -400.6 -205.2 136.8 156.3 -166.1 332.2 -420.1 -283.3 224.7 -39.08 -156.3
2.835 -166.1 -68.39 -293.1 -263.8 -68.39 -224.7 195.4 -205.2 -39.08 -566.7 -361.5 -234.5 -39.08 -332.2 156.3 -625.3 -674.6 -19.54 -273.6 -195.4
2.84 -439.7 -312.7 -469 -175.9 -175.9 48.85 322.4 117.2 263.8 -205.2 -400.6 39.08 48.85 -39.08 361.5 -224.7 -703.5 -29.31 68.39 -87.93
2.845 -488.5 -478.7 -605.8 -381 -381 -19.54 195.4 78.16 136.8 -234.5 -517.8 -214.9 -127 -146.6 166.1 -332.2 -830.5 -371.3 -9.77 97.7
2.85 -478.7 -478.7 -527.6 -205.2 -312.7 214.9 312.7 312.7 361.5 166.1 -322.4 -58.62 9.77 48.85 322.4 39.08 -586.2 -224.7 361.5 244.3
2.855 -537.4 -361.5 -449.4 -224.7 -234.5 195.4 351.7 342 381 234.5 -478.7 -273.6 -78.16 -48.85 254 -48.85 -400.6 -234.5 459.2 351.7
2.86 -332.2 -156.3 -205.2 0 -68.39 488.5 371.3 625.3 488.5 625.3 -234.5 -117.2 78.16 185.6 400.6 400.6 -87.93 87.93 693.7 273.6
2.865 -283.3 -175.9 -175.9 87.93 -68.39 547.1 224.7 615.5 312.7 596 -234.5 -205.2 -78.16 156.3 175.9 254 -87.93 19.54 596 263.8
2.87 -195.4 -205.2 -29.31 195.4 19.54 732.8 234.5 801.2 351.7 889.1 39.08 -332.2 107.5 283.3 263.8 498.3 19.54 166.1 810.9 166.1
2.875 -78.16 -136.8 -9.77 263.8 -97.7 771.9 9.77 752.3 107.5 810.9 58.62 -195.4 -58.62 342 -68.39 371.3 -146.6 156.3 488.5 0
2.88 439.7 390.8 400.6 488.5 195.4 918.4 234.5 850 420.1 967.3 547.1 -48.85 283.3 439.7 205.2 517.8 361.5 508.1 820.7 0
2.885 439.7 342 478.7 498.3 117.2 869.6 146.6 703.5 224.7 801.2 508.1 -371.3 156.3 381 19.54 351.7 361.5 478.7 586.2 -78.16
2.89 693.7 615.5 810.9 742.6 390.8 1006 381 771.9 478.7 898.9 791.4 -214.9 429.9 498.3 371.3 478.7 801.2 830.5 830.5 -29.31
2.895 498.3 449.4 683.9 596 283.3 762.1 244.3 508.1 195.4 625.3 703.5 -556.9 234.5 273.6 107.5 273.6 635.1 752.3 469 -107.5
2.9 459.2 400.6 791.4 576.5 439.7 674.2 332.2 400.6 263.8 527.6 830.5 -781.6 312.7 195.4 273.6 332.2 752.3 898.9 547.1 -87.93
2.905 322.4 410.4 596 537.4 302.9 488.5 166.1 107.5 -48.85 224.7 644.8 -713.2 107.5 58.62 -78.16 117.2 586.2 742.6 205.2 -127
2.91 478.7 498.3 713.2 625.3 566.7 498.3 400.6 175.9 302.9 342 879.3 -566.7 214.9 244.3 214.9 244.3 693.7 889.1 537.4 -9.77
2.915 390.8 371.3 556.9 439.7 517.8 312.7 312.7 -68.39 224.7 136.8 752.3 -664.4 19.54 185.6 78.16 127 410.4 693.7 351.7 -127
2.92 224.7 175.9 547.1 478.7 596 390.8 400.6 97.7 449.4 302.9 938 -136.8 146.6 351.7 254 293.1 351.7 791.4 625.3 -107.5
2.925 -29.31 -97.7 195.4 48.85 244.3 78.16 185.6 -234.5 244.3 -39.08 703.5 -771.9 -156.3 146.6 29.31 -19.54 -214.9 263.8 293.1 -78.16
2.93 -58.62 0 78.16 117.2 185.6 185.6 146.6 -136.8 263.8 29.31 762.1 -410.4 -19.54 342 29.31 185.6 -205.2 283.3 351.7 -87.93
2.935 -156.3 -195.4 -205.2 -107.5 -214.9 -48.85 -195.4 -449.4 -68.39 -449.4 547.1 -683.9 -263.8 146.6 -293.1 -156.3 -576.5 -97.7 -175.9 -68.39
2.94 107.5 68.39 -185.6 -19.54 -244.3 -39.08 -205.2 -478.7 -48.85 -488.5 596 -478.7 -156.3 322.4 -234.5 -58.62 -322.4 -97.7 -127 19.54
2.945 107.5 -97.7 -234.5 -19.54 -332.2 -146.6 -381 -605.8 -273.6 -752.3 439.7 -488.5 -312.7 234.5 -400.6 -254 -342 -664.4 -429.9 127
2.95 263.8 39.08 -107.5 9.77 -342 -68.39 -342 -459.2 -185.6 -596 537.4 -166.1 -214.9 293.1 -283.3 -19.54 -107.5 -752.3 -244.3 175.9
2.955 -9.77 -117.2 -244.3 -58.62 -586.2 -97.7 -566.7 -381 -439.7 -566.7 254 -459.2 -517.8 136.8 -537.4 -224.7 -293.1 -1114 -527.6 58.62
2.96 410.4 58.62 -39.08 68.39 -381 39.08 -390.8 -117.2 -224.7 -224.7 459.2 -254 -302.9 273.6 -293.1 29.31 39.08 -1036 -293.1 205.2
2.965 -97.7 -146.6 -322.4 0 -674.6 0 -644.8 -136.8 -469 -214.9 146.6 -508.1 -586.2 107.5 -566.7 -68.39 -332.2 -1143 -655.1 48.85
2.97 68.39 -97.7 -185.6 117.2 -537.4 29.31 -439.7 19.54 -166.1 107.5 302.9 -293.1 -381 195.4 -263.8 195.4 -97.7 -957.5 -410.4 166.1
2.975 -97.7 -439.7 -332.2 -48.85 -576.5 -205.2 -410.4 -136.8 -234.5 -39.08 97.7 -576.5 -400.6 -39.08 -273.6 0 -332.2 -1075 -586.2 166.1
2.98 -175.9 -371.3 -302.9 -87.93 -390.8 -244.3 -185.6 -48.85 39.08 224.7 166.1 -469 -156.3 -29.31 39.08 195.4 -136.8 -810.9 -224.7 224.7
2.985 -390.8 -625.3 -517.8 -244.3 -488.5 -293.1 -166.1 -39.08 9.77 205.2 -107.5 -918.4 -312.7 -254 0 -9.77 -342 -781.6 -361.5 117.2
2.99 -214.9 -293.1 -361.5 -97.7 -127 -175.9 136.8 136.8 283.3 469 87.93 -781.6 -39.08 -136.8 224.7 214.9 48.85 -400.6 -39.08 117.2
2.995 -322.4 -605.8 -469 -58.62 -263.8 -224.7 78.16 68.39 205.2 322.4 -48.85 -1104 -302.9 -224.7 117.2 29.31 -19.54 -351.7 -156.3 9.77
3 -107.5 -107.5 -273.6 185.6 -9.77 87.93 381 351.7 547.1 654.6 146.6 -732.8 -117.2 39.08 410.4 400.6 342 58.62 322.4 9.77
3.005 78.16 -185.6 -244.3 87.93 -136.8 -9.77 302.9 205.2 459.2 439.7 -19.54 -859.8 -293.1 -78.16 234.5 244.3 293.1 -87.93 273.6 107.5
3.01 -58.62 -185.6 -127 146.6 78.16 214.9 547.1 420.1 752.3 723 68.39 -488.5 -87.93 19.54 527.6 517.8 371.3 156.3 771.9 195.4
3.015 -254 -488.5 -254 -127 0 29.31 420.1 234.5 566.7 517.8 -166.1 -625.3 -234.5 -136.8 342 263.8 -19.54 -29.31 596 136.8
3.02 -332.2 -517.8 -9.77 0 205.2 244.3 596 332.2 713.2 683.9 107.5 -351.7 78.16 -48.85 556.9 420.1 -29.31 263.8 771.9 -9.77
3.025 -488.5 -655.1 -68.39 -58.62 195.4 107.5 390.8 58.62 351.7 263.8 -48.85 -596 58.62 -293.1 312.7 107.5 -263.8 107.5 283.3 -127
3.03 -107.5 -322.4 293.1 185.6 390.8 302.9 556.9 117.2 459.2 224.7 351.7 -234.5 283.3 -117.2 517.8 302.9 107.5 361.5 459.2 -78.16
3.035 -9.77 -273.6 244.3 234.5 244.3 205.2 293.1 -136.8 185.6 -224.7 175.9 -273.6 58.62 -185.6 214.9 39.08 48.85 254 9.77 -195.4
3.04 78.16 185.6 302.9 469 244.3 254 283.3 -195.4 166.1 -312.7 312.7 107.5 127 0 254 58.62 273.6 429.9 48.85 -234.5
3.045 19.54 78.16 156.3 342 156.3 58.62 29.31 -400.6 -136.8 -615.5 156.3 -39.08 -175.9 -185.6 -19.54 -234.5 107.5 205.2 -263.8 -244.3
3.05 -97.7 205.2 195.4 429.9 244.3 127 87.93 -283.3 -39.08 -439.7 263.8 312.7 0 -58.62 146.6 -29.31 234.5 293.1 0 -146.6
3.055 -87.93 224.7 87.93 312.7 195.4 58.62 -48.85 -293.1 -234.5 -449.4 117.2 156.3 -136.8 -136.8 -58.62 -146.6 48.85 195.4 -322.4 -312.7
3.06 9.77 107.5 224.7 293.1 322.4 68.39 78.16 -146.6 -87.93 -205.2 322.4 302.9 29.31 -107.5 97.7 19.54 214.9 273.6 -117.2 -185.6
3.065 127 156.3 136.8 254 195.4 78.16 -146.6 -117.2 -302.9 -136.8 185.6 293.1 -97.7 97.7 -117.2 -48.85 29.31 127 -420.1 -273.6
3.07 195.4 371.3 97.7 332.2 146.6 107.5 -205.2 -19.54 -263.8 117.2 224.7 429.9 0 58.62 -156.3 -48.85 19.54 224.7 -381 -390.8
3.075 9.77 195.4 -117.2 48.85 -127 -136.8 -429.9 -185.6 -478.7 -9.77 -87.93 107.5 -302.9 -166.1 -459.2 -302.9 -332.2 -97.7 -664.4 -332.2
3.08 107.5 283.3 -87.93 -78.16 -39.08 -205.2 -254 -58.62 -136.8 293.1 48.85 361.5 -205.2 -87.93 -185.6 -146.6 -136.8 0 -214.9 -166.1
3.085 -107.5 -78.16 -361.5 -527.6 -273.6 -615.5 -351.7 -322.4 -185.6 97.7 -302.9 -293.1 -566.7 -342 -332.2 -439.7 -488.5 -449.4 -410.4 -39.08
3.09 0 9.77 -234.5 -459.2 -97.7 -527.6 -127 -195.4 156.3 371.3 -87.93 29.31 -390.8 -185.6 0 -146.6 -214.9 -351.7 -29.31 175.9
3.095 -48.85 -127 -293.1 -517.8 -166.1 -703.5 -175.9 -312.7 48.85 68.39 -185.6 -205.2 -498.3 -214.9 -146.6 -342 -263.8 -459.2 -254 48.85
3.1 117.2 78.16 -205.2 -205.2 68.39 -410.4 -39.08 -244.3 127 136.8 78.16 -9.77 -185.6 48.85 48.85 -107.5 0 -195.4 -97.7 39.08
3.105 78.16 9.77 -283.3 -283.3 -68.39 -439.7 -175.9 -400.6 -58.62 -175.9 -48.85 -263.8 -312.7 -156.3 -195.4 -283.3 -48.85 -293.1 -322.4 58.62
3.11 127 68.39 -146.6 -87.93 146.6 -146.6 9.77 -146.6 117.2 -19.54 224.7 -117.2 -107.5 205.2 9.77 -19.54 195.4 -9.77 9.77 68.39
3.115 87.93 -127 -234.5 -254 19.54 -263.8 -127 -244.3 19.54 -205.2 39.08 -390.8 -302.9 117.2 -146.6 -254 48.85 -107.5 -175.9 39.08
3.12 87.93 29.31 -195.4 -68.39 48.85 -39.08 19.54 39.08 244.3 107.5 205.2 -302.9 -58.62 254 107.5 107.5 166.1 156.3 48.85 -87.93
3.125 -29.31 -58.62 -322.4 -224.7 -107.5 -97.7 -156.3 -127 48.85 -68.39 48.85 -420.1 -205.2 273.6 -19.54 -156.3 -87.93 -156.3 -234.5 -78.16
3.13 -9.77 58.62 -254 9.77 -39.08 156.3 9.77 58.62 195.4 156.3 175.9 -117.2 58.62 420.1 214.9 58.62 29.31 39.08 -29.31 -127
3.135 -273.6 -39.08 -449.4 -107.5 -185.6 87.93 -146.6 -175.9 -19.54 -97.7 68.39 -185.6 -97.7 400.6 -78.16 -205.2 -224.7 -58.62 -263.8 -224.7
3.14 -195.4 87.93 -312.7 156.3 -29.31 322.4 39.08 -68.39 166.1 -29.31 244.3 -58.62 58.62 478.7 117.2 -87.93 39.08 214.9 136.8 -87.93
3.145 -429.9 -312.7 -478.7 78.16 -175.9 175.9 -136.8 -254 -58.62 -263.8 78.16 -107.5 -214.9 224.7 -205.2 -361.5 -234.5 136.8 -29.31 -127
3.15 -29.31 48.85 -175.9 302.9 58.62 361.5 136.8 -39.08 234.5 -58.62 342 -58.62 39.08 361.5 87.93 -136.8 234.5 449.4 400.6 29.31
3.155 -283.3 -273.6 -293.1 214.9 -146.6 205.2 -68.39 -175.9 -68.39 -332.2 166.1 -214.9 -283.3 146.6 -185.6 -342 9.77 273.6 127 -9.77
3.16 107.5 107.5 19.54 351.7 107.5 361.5 224.7 136.8 185.6 -58.62 517.8 156.3 0 351.7 175.9 -9.77 420.1 508.1 517.8 127
3.165 48.85 9.77 -97.7 263.8 9.77 244.3 39.08 136.8 0 -146.6 390.8 78.16 -214.9 302.9 -58.62 -185.6 254 342 273.6 97.7
3.17 78.16 87.93 -19.54 234.5 87.93 371.3 117.2 420.1 156.3 205.2 556.9 283.3 -48.85 566.7 87.93 156.3 371.3 381 537.4 205.2
3.175 -146.6 -68.39 -175.9 -58.62 -9.77 175.9 -9.77 488.5 39.08 214.9 195.4 -19.54 -146.6 527.6 -127 58.62 136.8 244.3 420.1 224.7
3.18 -68.39 -78.16 -117.2 -58.62 107.5 254 146.6 654.6 293.1 508.1 322.4 0 48.85 791.4 48.85 312.7 234.5 322.4 683.9 312.7
3.185 -48.85 -351.7 -175.9 -234.5 19.54 68.39 58.62 488.5 244.3 371.3 19.54 -205.2 -166.1 478.7 -156.3 127 107.5 78.16 517.8 381
3.19 127 -273.6 -58.62 -195.4 146.6 166.1 175.9 605.8 371.3 576.5 136.8 68.39 39.08 732.8 87.93 322.4 205.2 146.6 605.8 361.5
3.195 58.62 -381 -244.3 -342 -136.8 -136.8 -97.7 224.7 156.3 263.8 -29.31 -48.85 -175.9 498.3 -156.3 -48.85 -19.54 -205.2 175.9 283.3
3.2 97.7 -156.3 -224.7 -244.3 -214.9 -9.77 -58.62 302.9 273.6 469 117.2 459.2 -39.08 810.9 19.54 107.5 58.62 -97.7 234.5 185.6
3.205 -293.1 -361.5 -625.3 -674.6 -683.9 -429.9 -371.3 -156.3 -29.31 97.7 -156.3 0 -254 439.7 -283.3 -302.9 -410.4 -615.5 -224.7 146.6
3.21 -517.8 -459.2 -742.6 -655.1 -762.1 -410.4 -332.2 -205.2 136.8 214.9 -136.8 97.7 -166.1 508.1 -146.6 -263.8 -488.5 -566.7 -156.3 78.16
3.215 -566.7 -566.7 -957.5 -889.1 -947.7 -664.4 -547.6 -556.9 -127 -117.2 -429.9 -263.8 -361.5 185.6 -390.8 -547.6 -859.8 -889.1 -586.2 -39.08
3.22 -586.2 -664.4 -908.6 -752.3 -801.2 -596 -420.1 -566.7 29.31 -48.85 -146.6 -58.62 -127 312.7 -87.93 -332.2 -820.7 -693.7 -498.3 -117.2
3.225 -351.7 -263.8 -977.5 -674.6 -810.9 -596 -478.7 -655.1 -136.8 -175.9 -351.7 -107.5 -214.9 283.3 -224.7 -439.7 -840.3 -713.2 -732.8 -234.5
3.23 -469 -107.5 -928.2 -478.7 -655.1 -478.7 -322.4 -459.2 -117.2 68.39 -117.2 97.7 87.93 224.7 -9.77 -136.8 -781.6 -459.2 -517.8 -371.3
3.235 -400.6 -58.62 -977.5 -459.2 -723 -488.5 -410.4 -449.4 -185.6 29.31 -351.7 19.54 -205.2 136.8 -214.9 -224.7 -869.6 -420.1 -498.3 -410.4
3.24 -322.4 166.1 -830.5 -214.9 -566.7 -283.3 -263.8 -97.7 -127 361.5 -205.2 312.7 -19.54 234.5 -97.7 146.6 -732.8 -68.39 -205.2 -566.7
3.245 -625.3 -273.6 -967.8 -469 -713.2 -498.3 -420.1 -283.3 -283.3 97.7 -625.3 -19.54 -400.6 -293.1 -234.5 -19.54 -908.6 -283.3 -302.9 -390.8
3.25 -39.08 -97.7 -410.4 -429.9 -283.3 -469 -68.39 -224.7 19.54 68.39 -263.8 117.2 0 -29.31 117.2 136.8 -293.1 -205.2 146.6 68.39
3.255 117.2 -390.8 -342 -762.1 -97.7 -762.1 -87.93 -488.5 -146.6 -371.3 -342 -293.1 -29.31 -322.4 -9.77 -146.6 -224.7 -478.7 -29.31 361.5
3.26 469 -459.2 78.16 -742.6 371.3 -664.4 214.9 -498.3 58.62 -478.7 156.3 -332.2 381 -381 263.8 -29.31 332.2 -410.4 429.9 879.3
3.265 654.6 -527.6 97.7 -908.6 517.8 -810.9 156.3 -723 -136.8 -898.9 214.9 -625.3 283.3 -283.3 19.54 -390.8 459.2 -664.4 293.1 1172
3.27 732.8 -390.8 254 -655.1 596 -498.3 273.6 -410.4 58.62 -644.8 449.4 -439.7 429.9 -185.6 127 -175.9 644.8 -381 625.3 1133
3.275 644.8 -429.9 107.5 -683.9 537.4 -537.4 146.6 -469 -9.77 -742.6 156.3 -596 107.5 -371.3 -97.7 -410.4 517.8 -556.9 527.6 1182
3.28 947.7 -78.16 410.4 -361.5 693.7 -254 361.5 -29.31 322.4 -263.8 371.3 -390.8 283.3 -166.1 224.7 -78.16 791.4 -136.8 850 1055
3.285 556.9 -302.9 351.7 -302.9 498.3 -117.2 195.4 78.16 244.3 -175.9 -39.08 -410.4 -68.39 -146.6 -78.16 -107.5 586.2 -234.5 605.8 918.4
3.29 752.3 -19.54 478.7 68.39 517.8 205.2 293.1 371.3 381 263.8 136.8 39.08 127 117.2 166.1 332.2 703.5 -9.77 644.8 664.4
3.295 517.8 58.62 283.3 127 273.6 185.6 19.54 332.2 78.16 185.6 -224.7 166.1 -117.2 254 -205.2 302.9 410.4 -195.4 156.3 410.4
3.3 576.5 302.9 185.6 273.6 136.8 273.6 -19.54 371.3 156.3 322.4 -107.5 556.9 -78.16 488.5 -97.7 459.2 390.8 -156.3 87.93 254
3.305 420.1 214.9 -136.8 107.5 -97.7 -19.54 -302.9 48.85 -19.54 146.6 -420.1 635.1 -371.3 342 -381 117.2 0 -498.3 -263.8 136.8
3.31 195.4 234.5 -127 87.93 39.08 -107.5 -195.4 39.08 234.5 322.4 -322.4 459.2 -342 273.6 -166.1 136.8 -9.77 -351.7 -9.77 136.8
3.315 39.08 -68.39 -166.1 -39.08 68.39 -263.8 -175.9 -185.6 107.5 156.3 -469 302.9 -537.4 -78.16 -263.8 -244.3 -234.5 -390.8 -185.6 58.62
3.32 -39.08 -48.85 -68.39 87.93 293.1 -146.6 -48.85 -68.39 185.6 381 -400.6 156.3 -351.7 -175.9 -39.08 -127 -166.1 -9.77 -58.62 -78.16
3.325 -136.8 -68.39 -39.08 136.8 273.6 -117.2 -97.7 -175.9 -19.54 175.9 -420.1 0 -351.7 -302.9 -68.39 -342 -214.9 39.08 -293.1 -185.6
3.33 342 342 283.3 420.1 429.9 107.5 -39.08 29.31 -48.85 332.2 -195.4 205.2 -156.3 -312.7 -29.31 -195.4 185.6 400.6 -185.6 -361.5
3.335 263.8 410.4 273.6 449.4 351.7 29.31 -195.4 -136.8 -214.9 107.5 -263.8 78.16 -283.3 -371.3 -195.4 -429.9 205.2 439.7 -322.4 -459.2
3.34 596 664.4 586.2 556.9 596 136.8 48.85 -39.08 -9.77 224.7 9.77 312.7 19.54 -263.8 0 -351.7 576.5 752.3 146.6 -420.1
3.345 410.4 449.4 527.6 371.3 498.3 39.08 -97.7 -127 -175.9 -19.54 -263.8 9.77 -136.8 -371.3 -234.5 -537.4 410.4 625.3 0 -410.4
3.35 527.6 498.3 654.6 400.6 586.2 175.9 78.16 -39.08 -29.31 39.08 -107.5 117.2 136.8 -302.9 -19.54 -205.2 605.8 713.2 224.7 -234.5
3.355 214.9 87.93 488.5 254 322.4 9.77 -156.3 -244.3 -459.2 -439.7 -420.1 -87.93 78.16 -586.2 -293.1 -390.8 381 410.4 -185.6 -185.6
3.36 400.6 136.8 508.1 429.9 254 146.6 -195.4 -224.7 -556.9 -556.9 -312.7 293.1 224.7 -400.6 -185.6 -78.16 566.7 429.9 -205.2 -146.6
3.365 371.3 127 469 390.8 166.1 -58.62 -342 -498.3 -869.6 -1045 -312.7 -29.31 107.5 -625.3 -429.9 -254 508.1 68.39 -459.2 9.77
3.37 488.5 332.2 547.1 605.8 244.3 214.9 -205.2 -195.4 -674.6 -820.7 -97.7 410.4 302.9 -312.7 -214.9 87.93 644.8 273.6 -185.6 9.77
3.375 342 400.6 381 459.2 68.39 58.62 -244.3 -263.8 -556.9 -898.9 -351.7 -68.39 146.6 -361.5 -283.3 -68.39 449.4 97.7 -283.3 -29.31
3.38 205.2 302.9 361.5 459.2 175.9 283.3 68.39 127 -117.2 -410.4 -342 166.1 302.9 -254 48.85 214.9 420.1 302.9 48.85 -19.54
3.385 -39.08 312.7 175.9 254 -58.62 195.4 29.31 214.9 -9.77 -312.7 -742.6 -48.85 0 -371.3 -29.31 97.7 146.6 48.85 -117.2 -107.5
3.39 -136.8 302.9 185.6 342 -97.7 342 214.9 527.6 166.1 78.16 -625.3 136.8 136.8 -185.6 273.6 381 195.4 166.1 48.85 -205.2
3.395 -175.9 410.4 58.62 302.9 -312.7 322.4 78.16 478.7 -19.54 78.16 -664.4 97.7 -48.85 -175.9 0 185.6 39.08 48.85 -244.3 -410.4
3.4 342 371.3 -29.31 322.4 -78.16 547.1 156.3 332.2 -68.39 224.7 -449.4 -78.16 68.39 390.8 166.1 -136.8 -19.54 312.7 78.16 -136.8
3.405 449.4 703.5 117.2 566.7 78.16 732.8 351.7 527.6 175.9 498.3 -273.6 58.62 254 683.9 293.1 48.85 293.1 576.5 342 -205.2
3.41 302.9 390.8 19.54 351.7 29.31 429.9 214.9 214.9 -19.54 185.6 -410.4 -400.6 48.85 664.4 97.7 -322.4 146.6 322.4 58.62 -127
3.415 449.4 644.8 127 361.5 175.9 312.7 351.7 244.3 156.3 332.2 -214.9 -361.5 283.3 605.8 244.3 -87.93 312.7 420.1 195.4 -175.9
3.42 302.9 459.2 -97.7 205.2 127 -107.5 195.4 -107.5 -58.62 -9.77 -361.5 -596 48.85 478.7 9.77 -332.2 127 29.31 -166.1 -146.6
3.425 302.9 351.7 -234.5 58.62 48.85 -420.1 58.62 -332.2 0 -97.7 -302.9 -566.7 68.39 449.4 48.85 -254 19.54 -136.8 -166.1 -117.2
3.43 166.1 429.9 -469 78.16 -136.8 -596 -97.7 -459.2 -97.7 -283.3 -615.5 -644.8 -214.9 234.5 -185.6 -351.7 -146.6 -420.1 -332.2 -78.16
3.435 146.6 381 -527.6 107.5 -146.6 -556.9 -205.2 -439.7 39.08 -175.9 -439.7 -400.6 -293.1 420.1 -127 -166.1 -107.5 -459.2 -117.2 39.08
3.44 175.9 234.5 -556.9 -29.31 -205.2 -655.1 -234.5 -586.2 58.62 -381 -566.7 -498.3 -459.2 175.9 -244.3 -351.7 -136.8 -576.5 -166.1 166.1
3.445 224.7 175.9 -498.3 19.54 -185.6 -449.4 -224.7 -410.4 136.8 -156.3 -429.9 -244.3 -556.9 244.3 -273.6 -97.7 -9.77 -381 48.85 136.8
3.45 273.6 146.6 -439.7 -9.77 -146.6 -420.1 -293.1 -449.4 19.54 -263.8 -556.9 -351.7 -683.9 127 -400.6 -175.9 -136.8 -439.7 -87.93 127
3.455 293.1 9.77 -312.7 -9.77 -39.08 -214.9 -254 -263.8 78.16 -58.62 -400.6 -283.3 -586.2 234.5 -302.9 68.39 -9.77 -234.5 19.54 87.93
3.46 205.2 156.3 -400.6 146.6 -127 -68.39 -459.2 -195.4 -214.9 -127 -576.5 -107.5 -869.6 283.3 -596 58.62 -195.4 -224.7 -293.1 -136.8
3.465 244.3 224.7 -205.2 254 19.54 185.6 -371.3 39.08 -87.93 136.8 -293.1 29.31 -644.8 615.5 -390.8 342 58.62 29.31 -58.62 -185.6
3.47 175.9 -87.93 -205.2 205.2 -19.54 68.39 -517.8 -107.5 -312.7 -29.31 -332.2 -48.85 -830.5 517.8 -596 166.1 -107.5 -136.8 -302.9 -127
3.475 273.6 283.3 0 371.3 68.39 205.2 -429.9 87.93 -263.8 205.2 -195.4 371.3 -683.9 693.7 -410.4 381 136.8 107.5 -58.62 -127
3.48 263.8 175.9 -58.62 293.1 -97.7 78.16 -498.3 -9.77 -439.7 78.16 -342 332.2 -742.6 625.3 -469 195.4 -19.54 39.08 -214.9 -185.6
3.485 214.9 293.1 97.7 312.7 -19.54 195.4 -263.8 195.4 -224.7 381 -205.2 322.4 -449.4 478.7 -214.9 390.8 19.54 351.7 29.31 -312.7
3.49 117.2 175.9 -39.08 185.6 -146.6 146.6 -312.7 78.16 -459.2 166.1 -332.2 214.9 -410.4 302.9 -273.6 48.85 -244.3 254 -185.6 -390.8
3.495 166.1 332.2 87.93 293.1 9.77 312.7 48.85 332.2 -166.1 439.7 -19.54 312.7 -146.6 390.8 107.5 322.4 -68.39 498.3 107.5 -400.6
3.5 -9.77 78.16 -107.5 87.93 -107.5 78.16 19.54 48.85 -283.3 87.93 -97.7 156.3 -156.3 127 39.08 -39.08 -312.7 244.3 -97.7 -361.5
3.505 48.85 39.08 -48.85 78.16 -127 0 117.2 78.16 -146.6 48.85 117.2 478.7 -9.77 234.5 234.5 127 -283.3 185.6 0 -283.3
3.51 -146.6 -136.8 -263.8 -166.1 -420.1 -400.6 -87.93 -371.3 -322.4 -244.3 -146.6 312.7 -263.8 -78.16 29.31 -146.6 -537.4 -205.2 -332.2 -312.7
3.515 58.62 -19.54 -146.6 -97.7 -351.7 -361.5 68.39 -244.3 -107.5 -127 68.39 312.7 -97.7 68.39 195.4 136.8 -400.6 -185.6 -175.9 -234.5
3.52 -175.9 -195.4 -361.5 -351.7 -615.5 -655.1 -224.7 -576.5 -351.7 -439.7 -234.5 9.77 -459.2 -185.6 -185.6 -136.8 -762.1 -439.7 -605.8 -410.4
3.525 -185.6 -127 -342 -342 -459.2 -635.6 -117.2 -547.6 -117.2 -332.2 -58.62 -39.08 -263.8 -234.5 58.62 29.31 -683.9 -381 -449.4 -312.7
3.53 -312.7 -332.2 -566.7 -537.4 -635.6 -781.6 -351.7 -762.1 -214.9 -576.5 -224.7 -332.2 -517.8 -439.7 -205.2 -263.8 -918.4 -713.2 -713.2 -244.3
3.535 -664.4 -459.2 -723 -664.4 -703.5 -771.9 -361.5 -635.6 -78.16 -351.7 -117.2 -175.9 -488.5 -400.6 -117.2 -87.93 -1094 -742.6 -547.6 -244.3
3.54 -732.8 -625.3 -850 -928.2 -859.8 -967.8 -556.9 -723 -312.7 -498.3 -234.5 -371.3 -655.1 -508.1 -410.4 -332.2 -1280 -996.6 -713.2 -175.9
3.545 -488.5 -625.3 -596 -928.2 -742.6 -850 -410.4 -576.5 -19.54 -254 -39.08 -214.9 -508.1 -332.2 -254 -39.08 -977.5 -918.4 -322.4 39.08
3.55 -420.1 -508.1 -527.6 -938 -762.1 -859.8 -566.7 -615.5 -263.8 -332.2 -273.6 -371.3 -635.6 -322.4 -547.6 -156.3 -947.7 -1045 -449.4 97.7
3.555 -9.77 -302.9 -136.8 -703.5 -381 -566.7 -293.1 -312.7 19.54 -48.85 -58.62 -156.3 -390.8 -156.3 -205.2 175.9 -410.4 -703.5 39.08 322.4
3.56 29.31 -390.8 -136.8 -625.3 -420.1 -508.1 -508.1 -332.2 -244.3 -175.9 -263.8 -351.7 -615.5 -166.1 -566.7 -19.54 -410.4 -742.6 -127 263.8
3.565 273.6 -68.39 136.8 -351.7 -97.7 -136.8 -283.3 48.85 68.39 136.8 -29.31 -146.6 -361.5 -127 -302.9 244.3 87.93 -302.9 342 390.8
3.57 214.9 -263.8 185.6 -361.5 -127 -58.62 -283.3 58.62 -29.31 78.16 -87.93 -156.3 -459.2 -283.3 -449.4 -29.31 107.5 -312.7 322.4 400.6
3.575 283.3 -234.5 351.7 -283.3 39.08 87.93 -107.5 273.6 166.1 302.9 127 -263.8 -195.4 -351.7 -185.6 146.6 361.5 9.77 664.4 410.4
3.58 127 -19.54 361.5 -166.1 29.31 166.1 -29.31 273.6 19.54 224.7 58.62 -293.1 -87.93 -478.7 -195.4 -48.85 312.7 136.8 478.7 185.6
3.585 244.3 48.85 537.4 -29.31 127 224.7 117.2 400.6 87.93 361.5 302.9 -293.1 166.1 -469 78.16 87.93 469 439.7 547.1 48.85
3.59 166.1 175.9 420.1 58.62 9.77 166.1 107.5 273.6 -87.93 107.5 48.85 -498.3 146.6 -547.6 39.08 -166.1 371.3 371.3 234.5 -29.31
3.595 273.6 429.9 488.5 263.8 68.39 244.3 263.8 332.2 58.62 244.3 254 -332.2 312.7 -420.1 293.1 -9.77 605.8 537.4 390.8 -19.54
3.6 273.6 478.7 302.9 166.1 -156.3 97.7 146.6 166.1 -58.62 78.16 58.62 -332.2 185.6 -342 117.2 -195.4 429.9 361.5 185.6 -68.39
3.605 312.7 478.7 390.8 214.9 -97.7 146.6 332.2 332.2 175.9 322.4 214.9 -175.9 312.7 -107.5 390.8 68.39 429.9 527.6 459.2 -58.62
3.61 -136.8 146.6 166.1 -127 -273.6 -87.93 244.3 127 48.85 87.93 -9.77 -371.3 58.62 -156.3 195.4 -214.9 -9.77 156.3 195.4 -78.16
3.615 78.16 19.54 371.3 -185.6 -39.08 -29.31 537.4 283.3 390.8 224.7 234.5 -224.7 381 68.39 615.5 87.93 87.93 234.5 556.9 58.62
3.62 -332.2 -273.6 166.1 -498.3 -214.9 -166.1 381 107.5 263.8 -48.85 19.54 -527.6 117.2 -87.93 371.3 -68.39 -293.1 -68.39 214.9 29.31
3.625 -166.1 -312.7 195.4 -439.7 -19.54 -48.85 527.6 214.9 508.1 107.5 234.5 -351.7 420.1 97.7 605.8 312.7 -146.6 58.62 371.3 9.77
3.63 -263.8 -410.4 19.54 -566.7 -273.6 -136.8 156.3 48.85 254 -48.85 9.77 -576.5 136.8 29.31 136.8 146.6 -390.8 -224.7 -19.54 39.08
3.635 -244.3 -224.7 48.85 -400.6 -205.2 48.85 107.5 283.3 332.2 205.2 195.4 -302.9 293.1 205.2 156.3 312.7 -244.3 58.62 136.8 9.77
3.64 -566.7 -517.8 -185.6 -576.5 -381 -175.9 -234.5 0 58.62 -87.93 -127 -723 -19.54 0 -283.3 -9.77 -527.6 -214.9 -166.1 58.62
3.645 -312.7 -244.3 -48.85 -420.1 -175.9 58.62 -68.39 273.6 185.6 166.1 117.2 -449.4 175.9 166.1 -87.93 195.4 -273.6 185.6 146.6 29.31
3.65 -566.7 -429.9 -205.2 -556.9 -302.9 -78.16 -244.3 78.16 -9.77 -39.08 -58.62 -683.9 -19.54 -58.62 -302.9 -87.93 -508.1 -9.77 -87.93 0
3.655 -342 -224.7 -48.85 -371.3 -78.16 185.6 0 234.5 156.3 263.8 156.3 -342 371.3 0 9.77 205.2 -195.4 332.2 214.9 -48.85
3.66 -185.6 -156.3 -127 -371.3 -156.3 185.6 -166.1 156.3 -68.39 48.85 9.77 -400.6 234.5 -185.6 -195.4 -78.16 -234.5 273.6 -19.54 -146.6
3.665 -39.08 -19.54 0 -214.9 -29.31 293.1 -29.31 224.7 68.39 224.7 224.7 -136.8 400.6 -195.4 -9.77 68.39 29.31 537.4 234.5 -127
3.67 -185.6 -78.16 -214.9 -293.1 -195.4 117.2 -185.6 -19.54 -166.1 -68.39 -166.1 -254 224.7 -400.6 -185.6 -107.5 -87.93 244.3 -19.54 29.31
3.675 -273.6 -390.8 166.1 156.3 48.85 -87.93 -156.3 -498.3 -400.6 -762.1 -166.1 -185.6 -254 -371.3 -214.9 -322.4 361.5 -48.85 -185.6 234.5
3.68 -381 -244.3 87.93 342 -97.7 0 -254 -556.9 -508.1 -889.1 -9.77 -146.6 -117.2 -332.2 -214.9 -322.4 517.8 -19.54 -283.3 254
3.685 -478.7 -449.4 -214.9 146.6 -488.5 -371.3 -566.7 -918.4 -938 -1416 -293.1 -439.7 -351.7 -508.1 -566.7 -625.3 244.3 -439.7 -781.6 273.6
3.69 -283.3 -342 -127 107.5 -478.7 -381 -478.7 -918.4 -820.7 -1358 -29.31 -322.4 -39.08 -449.4 -410.4 -517.8 381 -400.6 -576.5 371.3
3.695 -556.9 -371.3 -459.2 -97.7 -869.6 -547.6 -762.1 -947.7 -977.5 -1426 -420.1 -420.1 -566.7 -527.6 -752.3 -664.4 9.77 -713.2 -830.5 254
3.7 -429.9 -254 -371.3 -97.7 -703.5 -390.8 -615.5 -644.8 -742.6 -1055 -224.7 -449.4 -390.8 -244.3 -478.7 -322.4 39.08 -508.1 -488.5 234.5
3.705 -664.4 -351.7 -527.6 -107.5 -801.2 -214.9 -732.8 -381 -840.3 -840.3 -449.4 -566.7 -762.1 -263.8 -752.3 -254 -175.9 -469 -683.9 -29.31
3.71 -439.7 19.54 -332.2 185.6 -615.5 97.7 -537.4 58.62 -556.9 -381 -244.3 -283.3 -556.9 68.39 -390.8 195.4 97.7 -107.5 -420.1 -156.3
3.715 -498.3 -146.6 -400.6 87.93 -635.6 -9.77 -625.3 58.62 -655.1 -302.9 -342 -615.5 -556.9 -214.9 -566.7 48.85 -107.5 -263.8 -703.5 -214.9
3.72 -439.7 -29.31 -312.7 185.6 -410.4 175.9 -371.3 312.7 -322.4 214.9 -166.1 -371.3 -302.9 -48.85 -195.4 322.4 0 -78.16 -449.4 -234.5
3.725 -752.3 -244.3 -655.1 -87.93 -625.3 -97.7 -478.7 185.6 -381 205.2 -527.6 -566.7 -566.7 -302.9 -351.7 87.93 -410.4 -342 -723 -293.1
3.73 -655.1 -293.1 -469 -127 -439.7 -48.85 -214.9 283.3 -9.77 674.2 -244.3 -537.4 -283.3 -263.8 58.62 156.3 -283.3 -127 -273.6 -283.3
3.735 -1036 -527.6 -732.8 -322.4 -655.1 -195.4 -322.4 97.7 -146.6 527.6 -674.6 -801.2 -537.4 -429.9 -146.6 -107.5 -615.5 -351.7 -400.6 -332.2
3.74 -664.4 -283.3 -459.2 -156.3 -488.5 -19.54 -127 293.1 -29.31 810.9 -322.4 -683.9 -224.7 -214.9 48.85 156.3 -342 -9.77 -87.93 -381
3.745 -547.6 -293.1 -400.6 -107.5 -508.1 -87.93 -156.3 146.6 -107.5 566.7 -400.6 -830.5 -244.3 -283.3 -87.93 -68.39 -312.7 -97.7 -117.2 -332.2
3.75 -371.3 -107.5 -254 136.8 -312.7 117.2 68.39 254 156.3 732.8 -136.8 -293.1 -87.93 48.85 127 244.3 0 146.6 214.9 -234.5
3.755 -283.3 -156.3 -351.7 136.8 -449.4 -39.08 -78.16 -78.16 -9.77 371.3 -263.8 -371.3 -302.9 -29.31 -87.93 48.85 -58.62 -68.39 29.31 -166.1
3.76 -439.7 -156.3 -293.1 136.8 -312.7 -29.31 78.16 -127 205.2 371.3 -97.7 87.93 -234.5 205.2 205.2 166.1 87.93 -29.31 273.6 -19.54
3.765 -322.4 -537.4 -361.5 -78.16 -517.8 -263.8 -205.2 -508.1 -156.3 -107.5 -205.2 -87.93 -605.8 -78.16 -117.2 -205.2 -127 -205.2 -146.6 -87.93
3.77 -205.2 -214.9 -146.6 -68.39 -342 -146.6 9.77 -420.1 0 -68.39 87.93 68.39 -302.9 -29.31 127 -58.62 58.62 48.85 19.54 -136.8
3.775 -48.85 -410.4 -146.6 -185.6 -439.7 -273.6 -205.2 -605.8 -351.7 -566.7 -9.77 -166.1 -488.5 -166.1 -156.3 -390.8 -68.39 -166.1 -420.1 -136.8
3.78 205.2 87.93 58.62 244.3 -166.1 97.7 -48.85 -332.2 -195.4 -390.8 312.7 263.8 -254 19.54 78.16 -78.16 322.4 175.9 -156.3 -78.16
3.785 9.77 175.9 -156.3 175.9 -302.9 -19.54 -254 -449.4 -547.6 -820.7 58.62 185.6 -410.4 -127 -214.9 -439.7 117.2 -68.39 -459.2 -127
3.79 19.54 400.6 -68.39 322.4 -175.9 214.9 -136.8 -175.9 -390.8 -537.4 322.4 449.4 -254 9.77 -39.08 -185.6 205.2 224.7 -205.2 -175.9
3.795 -117.2 97.7 -107.5 127 -156.3 127 -136.8 -146.6 -498.3 -644.8 195.4 254 -322.4 -117.2 -97.7 -381 -9.77 68.39 -312.7 -127
3.8 68.39 254 166.1 117.2 156.3 361.5 97.7 244.3 -156.3 -214.9 508.1 390.8 -19.54 -58.62 146.6 -97.7 175.9 390.8 58.62 -117.2
3.805 175.9 195.4 166.1 -58.62 205.2 273.6 39.08 283.3 -283.3 -342 400.6 48.85 -39.08 -127 9.77 -254 48.85 273.6 -195.4 -166.1
3.81 390.8 312.7 332.2 87.93 439.7 449.4 263.8 488.5 29.31 0 654.6 322.4 283.3 -39.08 263.8 87.93 224.7 449.4 78.16 -146.6
3.815 254 175.9 107.5 -58.62 97.7 244.3 48.85 332.2 -107.5 -78.16 420.1 107.5 -19.54 -175.9 29.31 -175.9 -29.31 127 -214.9 -156.3
3.82 195.4 87.93 78.16 -117.2 78.16 156.3 166.1 351.7 107.5 166.1 449.4 263.8 185.6 -166.1 166.1 68.39 -58.62 68.39 127 -19.54
3.825 -244.3 -146.6 -273.6 -371.3 -390.8 -127 -146.6 97.7 -107.5 68.39 68.39 -58.62 -254 -498.3 -185.6 -205.2 -478.7 -302.9 -136.8 -58.62
3.83 -283.3 -195.4 -254 -508.1 -410.4 -214.9 -48.85 48.85 78.16 342 166.1 -97.7 -48.85 -537.4 39.08 -19.54 -449.4 -244.3 117.2 -39.08
3.835 -517.8 -420.1 -508.1 -683.9 -762.1 -449.4 -390.8 -224.7 -273.6 68.39 -127 -342 -332.2 -683.9 -351.7 -254 -723 -547.6 -312.7 -156.3
3.84 -469 -302.9 -478.7 -655.1 -732.8 -381 -371.3 -224.7 -136.8 244.3 -9.77 -185.6 -185.6 -498.3 -214.9 -39.08 -664.4 -371.3 -156.3 -166.1
3.845 -605.8 -527.6 -655.1 -820.7 -840.3 -586.2 -508.1 -527.6 -322.4 -127 -283.3 -449.4 -293.1 -576.5 -400.6 -429.9 -830.5 -615.5 -390.8 -68.39
3.85 -586.2 -342 -703.5 -615.5 -771.9 -400.6 -439.7 -342 -117.2 175.9 -205.2 -9.77 -214.9 -263.8 -322.4 -58.62 -791.4 -400.6 -87.93 -117.2
3.855 -566.7 -488.5 -830.5 -850 -859.8 -625.3 -498.3 -644.8 -185.6 -156.3 -420.1 -254 -351.7 -420.1 -439.7 -469 -957.5 -742.6 -185.6 78.16
3.86 -459.2 -263.8 -732.8 -664.4 -732.8 -420.1 -371.3 -459.2 9.77 156.3 -263.8 -107.5 -214.9 -254 -283.3 -87.93 -781.6 -459.2 78.16 19.54
3.865 -381 -342 -693.7 -713.2 -791.4 -547.6 -537.4 -664.4 -322.4 -156.3 -390.8 -283.3 -254 -410.4 -459.2 -332.2 -840.3 -576.5 -302.9 -48.85
3.87 -146.6 -117.2 -302.9 -498.3 -566.7 -342 -361.5 -556.9 -302.9 -78.16 -87.93 -146.6 0 -234.5 -195.4 -117.2 -439.7 -234.5 -224.7 -68.39
3.875 0 -205.2 -146.6 -449.4 -429.9 -400.6 -420.1 -762.1 -596 -459.2 -87.93 -400.6 -29.31 -136.8 -332.2 -420.1 -342 -342 -488.5 68.39
3.88 224.7 -48.85 214.9 -175.9 -97.7 -156.3 -273.6 -586.2 -517.8 -439.7 254 9.77 234.5 156.3 -68.39 -254 39.08 -48.85 -322.4 156.3
3.885 195.4 -175.9 97.7 -293.1 -107.5 -205.2 -381 -635.6 -655.1 -723 87.93 -263.8 -9.77 136.8 -283.3 -508.1 -48.85 -205.2 -508.1 214.9
3.89 185.6 -175.9 136.8 -146.6 107.5 19.54 -87.93 -263.8 -322.4 -459.2 342 0 312.7 342 87.93 -322.4 244.3 78.16 -58.62 283.3
3.895 214.9 -263.8 0 -136.8 58.62 9.77 -136.8 -224.7 -351.7 -478.7 146.6 -97.7 127 322.4 -97.7 -381 78.16 0 -166.1 234.5
3.9 254 48.85 107.5 195.4 361.5 429.9 263.8 400.6 175.9 117.2 400.6 244.3 420.1 576.5 332.2 58.62 361.5 410.4 371.3 214.9
3.905 263.8 -9.77 -39.08 273.6 332.2 449.4 293.1 390.8 234.5 195.4 293.1 146.6 302.9 488.5 273.6 -127 195.4 410.4 332.2 58.62
3.91 625.3 332.2 185.6 527.6 635.1 683.9 625.3 830.5 742.6 674.2 517.8 351.7 537.4 664.4 586.2 136.8 547.1 742.6 889.1 48.85
3.915 439.7 185.6 9.77 508.1 469 615.5 527.6 791.4 771.9 674.2 156.3 185.6 273.6 566.7 410.4 -107.5 410.4 537.4 889.1 48.85
3.92 889.1 596 254 556.9 488.5 654.6 596 967.3 1026 1026 273.6 302.9 381 566.7 527.6 87.93 664.4 566.7 1299 146.6
3.925 342 293.1 -58.62 332.2 107.5 400.6 273.6 742.6 820.7 850 -293.1 185.6 -39.08 361.5 166.1 -146.6 381 185.6 1085 205.2
3.93 517.8 283.3 97.7 312.7 117.2 332.2 312.7 742.6 898.9 1036 -117.2 342 117.2 371.3 263.8 19.54 459.2 263.8 1202 214.9
3.935 224.7 -9.77 -107.5 87.93 -39.08 0 117.2 342 576.5 703.5 -420.1 58.62 29.31 136.8 58.62 -205.2 87.93 -117.2 742.6 175.9
3.94 175.9 29.31 -39.08 166.1 117.2 19.54 195.4 254 527.6 703.5 -214.9 312.7 293.1 312.7 214.9 9.77 156.3 48.85 723 117.2
3.945 136.8 0 -175.9 97.7 48.85 -234.5 87.93 -136.8 175.9 263.8 -381 -48.85 381 117.2 87.93 -302.9 -107.5 -175.9 195.4 -19.54
3.95 420.1 302.9 58.62 322.4 283.3 -97.7 175.9 -166.1 234.5 283.3 -48.85 322.4 654.6 342 185.6 -205.2 166.1 78.16 244.3 -58.62
3.955 342 273.6 -87.93 146.6 19.54 -381 -107.5 -566.7 -175.9 -175.9 -293.1 -39.08 400.6 39.08 -107.5 -527.6 -9.77 -244.3 -214.9 -107.5
3.96 615.5 576.5 214.9 302.9 293.1 -224.7 29.31 -488.5 -39.08 48.85 136.8 156.3 615.5 166.1 97.7 -342 263.8 -19.54 19.54 -78.16
3.965 273.6 136.8 9.77 58.62 68.39 -420.1 -234.5 -723 -449.4 -342 -214.9 -205.2 273.6 19.54 -234.5 -586.2 19.54 -175.9 -400.6 -195.4
3.97 420.1 420.1 136.8 195.4 224.7 -214.9 -156.3 -605.8 -410.4 -166.1 -19.54 87.93 361.5 254 9.77 -234.5 156.3 97.7 -390.8 -332.2
3.975 68.39 234.5 -97.7 117.2 -9.77 -283.3 -361.5 -703.5 -791.4 -459.2 -312.7 -146.6 136.8 214.9 -205.2 -332.2 -136.8 -68.39 -830.5 -478.7
3.98 78.16 478.7 -39.08 332.2 166.1 58.62 -273.6 -420.1 -586.2 -224.7 -214.9 234.5 146.6 654.6 -97.7 117.2 -68.39 224.7 -693.7 -537.4
3.985 -166.1 420.1 -244.3 361.5 39.08 78.16 -361.5 -342 -674.6 -283.3 -381 146.6 -58.62 644.8 -205.2 107.5 -361.5 195.4 -840.3 -655.1
3.99 -97.7 361.5 -48.85 508.1 361.5 322.4 117.2 -48.85 -107.5 -68.39 -127 351.7 214.9 781.6 214.9 400.6 9.77 469 -195.4 -429.9
3.995 185.6 48.85 107.5 263.8 547.1 68.39 361.5 -185.6 107.5 -283.3 -107.5 -107.5 244.3 400.6 254 136.8 156.3 146.6 29.31 156.3
4 439.7 -29.31 488.5 283.3 938 166.1 869.6 127 703.5 -58.62 244.3 -87.93 693.7 381 820.7 263.8 742.6 234.5 810.9 742.6
4.005 537.4 -459.2 644.8 29.31 1036 -87.93 967.3 39.08 879.3 -342 195.4 -488.5 674.2 48.85 762.1 29.31 898.9 -175.9 938 1231
4.01 830.5 -254 830.5 -68.39 1202 -87.93 1133 234.5 1202 -9.77 478.7 -488.5 889.1 68.39 977 156.3 1153 -166.1 1446 1485
4.015 625.3 -527.6 517.8 -273.6 869.6 -273.6 889.1 107.5 1065 -68.39 195.4 -605.8 586.2 -58.62 674.2 -19.54 742.6 -537.4 1202 1387
4.02 390.8 -400.6 312.7 -214.9 801.2 -195.4 898.9 224.7 1241 361.5 117.2 -371.3 732.8 -9.77 752.3 244.3 547.1 -498.3 1426 1212
4.025 107.5 -527.6 -117.2 -478.7 429.9 -439.7 498.3 -9.77 869.6 293.1 -293.1 -537.4 381 -166.1 410.4 39.08 -136.8 -742.6 918.4 810.9
4.03 -146.6 -644.8 -185.6 -400.6 527.6 -361.5 586.2 58.62 996.6 635.1 -234.5 -312.7 732.8 -214.9 615.5 322.4 -244.3 -556.9 1016 635.1
4.035 -322.4 -586.2 -361.5 -420.1 342 -488.5 293.1 -146.6 566.7 381 -488.5 -263.8 429.9 -390.8 263.8 78.16 -566.7 -703.5 429.9 420.1
4.04 -146.6 -410.4 -156.3 -156.3 527.6 -302.9 390.8 -29.31 605.8 556.9 -117.2 87.93 683.9 -273.6 517.8 273.6 -312.7 -371.3 508.1 342
4.045 -166.1 -429.9 -293.1 -195.4 224.7 -459.2 97.7 -322.4 166.1 87.93 -263.8 -117.2 410.4 -527.6 166.1 0 -508.1 -547.6 -58.62 185.6
4.05 97.7 -68.39 -78.16 68.39 302.9 -263.8 205.2 -283.3 254 185.6 -48.85 273.6 517.8 -400.6 312.7 107.5 -214.9 -244.3 58.62 58.62
4.055 -166.1 -263.8 -332.2 -19.54 0 -420.1 -107.5 -498.3 -58.62 -254 -361.5 -87.93 205.2 -664.4 -78.16 -156.3 -449.4 -420.1 -371.3 -29.31
4.06 -117.2 -127 -254 9.77 97.7 -439.7 19.54 -527.6 68.39 -136.8 -205.2 -29.31 390.8 -566.7 127 -166.1 -400.6 -302.9 -273.6 -87.93
4.065 -478.7 -361.5 -449.4 -185.6 -107.5 -596 -214.9 -723 -254 -488.5 -537.4 -302.9 97.7 -683.9 -166.1 -283.3 -693.7 -439.7 -644.8 -224.7
4.07 -254 -48.85 -195.4 -87.93 97.7 -410.4 -19.54 -556.9 -136.8 -351.7 -371.3 -185.6 351.7 -537.4 127 -48.85 -429.9 -97.7 -459.2 -263.8
4.075 -273.6 -68.39 -244.3 -117.2 -58.62 -459.2 -224.7 -655.1 -547.6 -635.6 -459.2 -332.2 117.2 -556.9 -166.1 -244.3 -527.6 -234.5 -840.3 -312.7
4.08 234.5 381 117.2 156.3 302.9 -107.5 39.08 -312.7 -332.2 -429.9 -117.2 214.9 517.8 -283.3 107.5 136.8 29.31 136.8 -390.8 -146.6
4.085 410.4 185.6 97.7 -39.08 107.5 -234.5 -205.2 -390.8 -488.5 -723 -136.8 -244.3 107.5 -537.4 -263.8 -146.6 39.08 -87.93 -498.3 -29.31
4.09 537.4 449.4 283.3 185.6 234.5 58.62 0 58.62 -166.1 -361.5 205.2 195.4 351.7 -224.7 -19.54 166.1 361.5 254 68.39 58.62
4.095 644.8 195.4 244.3 19.54 29.31 -39.08 -224.7 39.08 -244.3 -469 156.3 -136.8 -58.62 -302.9 -312.7 -48.85 283.3 97.7 -19.54 97.7
4.1 488.5 224.7 381 224.7 195.4 244.3 -29.31 459.2 146.6 19.54 312.7 107.5 127 0 -9.77 351.7 517.8 429.9 449.4 97.7
4.105 488.5 254 351.7 263.8 29.31 302.9 -175.9 547.1 0 0 175.9 19.54 -127 68.39 -273.6 244.3 488.5 371.3 224.7 -58.62
4.11 547.1 605.8 478.7 547.1 273.6 674.2 0 918.4 224.7 488.5 234.5 478.7 48.85 449.4 -19.54 644.8 683.9 742.6 527.6 -175.9
4.115 312.7 478.7 244.3 410.4 58.62 547.1 -214.9 801.2 68.39 381 -58.62 390.8 -214.9 263.8 -342 439.7 410.4 410.4 224.7 -195.4
4.12 478.7 693.7 420.1 596 185.6 644.8 -39.08 908.6 244.3 713.2 185.6 762.1 -9.77 371.3 -117.2 674.2 547.1 576.5 429.9 -166.1
4.125 332.2 498.3 273.6 498.3 78.16 420.1 -175.9 625.3 97.7 517.8 29.31 713.2 -234.5 127 -312.7 361.5 244.3 283.3 87.93 -156.3
4.13 429.9 605.8 459.2 596 302.9 400.6 87.93 605.8 361.5 752.3 302.9 977 48.85 175.9 -9.77 537.4 498.3 459.2 342 -97.7
4.135 273.6 332.2 273.6 410.4 117.2 117.2 -107.5 205.2 107.5 381 39.08 713.2 -234.5 -68.39 -234.5 166.1 283.3 117.2 -68.39 -97.7
4.14 273.6 429.9 429.9 478.7 361.5 175.9 97.7 185.6 381 498.3 127 1114 29.31 48.85 39.08 429.9 478.7 293.1 127 -48.85
4.145 87.93 273.6 195.4 146.6 -29.31 -175.9 -146.6 -136.8 9.77 58.62 -234.5 498.3 -342 -517.8 -244.3 107.5 107.5 -68.39 -371.3 -127
4.15 185.6 400.6 351.7 273.6 97.7 19.54 29.31 39.08 175.9 234.5 -39.08 869.6 -214.9 -87.93 48.85 322.4 234.5 244.3 -166.1 -234.5
4.155 156.3 361.5 185.6 78.16 -166.1 -214.9 -322.4 -254 -244.3 -117.2 -283.3 390.8 -586.2 -381 -361.5 29.31 -48.85 39.08 -655.1 -351.7
4.16 342 615.5 400.6 244.3 97.7 -9.77 -127 -156.3 -107.5 9.77 29.31 674.2 -342 9.77 -97.7 254 263.8 332.2 -420.1 -322.4
4.165 322.4 498.3 283.3 185.6 -29.31 -185.6 -371.3 -459.2 -478.7 -488.5 -107.5 420.1 -625.3 -19.54 -361.5 -136.8 185.6 166.1 -840.3 -332.2
4.17 576.5 644.8 498.3 478.7 146.6 -9.77 -185.6 -439.7 -342 -478.7 205.2 801.2 -351.7 205.2 -87.93 9.77 586.2 410.4 -576.5 -254
4.175 410.4 683.9 420.1 449.4 -9.77 -68.39 -332.2 -596 -605.8 -850 19.54 674.2 -566.7 87.93 -322.4 -244.3 547.1 185.6 -889.1 -205.2
4.18 625.3 781.6 644.8 576.5 127 185.6 -127 -263.8 -439.7 -605.8 302.9 869.6 -351.7 312.7 -29.31 -29.31 781.6 332.2 -527.6 -58.62
4.185 537.4 850 654.6 508.1 58.62 254 -195.4 -29.31 -596 -566.7 127 674.2 -488.5 332.2 -224.7 -29.31 576.5 342 -625.3 -214.9
4.19 683.9 918.4 879.3 605.8 283.3 576.5 127 566.7 -244.3 -29.31 508.1 791.4 -87.93 605.8 127 332.2 693.7 703.5 -87.93 -244.3
4.195 644.8 635.1 752.3 351.7 146.6 556.9 146.6 703.5 -195.4 48.85 234.5 527.6 -322.4 508.1 19.54 224.7 381 508.1 29.31 -195.4
4.2 664.4 693.7 820.7 439.7 263.8 908.6 459.2 1182 234.5 674.2 420.1 644.8 0 732.8 390.8 596 517.8 810.9 508.1 -224.7
4.205 390.8 293.1 361.5 107.5 -87.93 644.8 195.4 1036 136.8 596 87.93 263.8 -351.7 625.3 58.62 351.7 39.08 439.7 302.9 -244.3
4.21 429.9 420.1 312.7 146.6 -9.77 752.3 342 1280 459.2 1006 214.9 371.3 -127 713.2 273.6 596 136.8 605.8 713.2 -214.9
4.215 97.7 156.3 -107.5 58.62 -332.2 625.3 87.93 1163 263.8 996.6 -68.39 283.3 -478.7 830.5 19.54 459.2 -283.3 351.7 439.7 -332.2
4.22 -48.85 29.31 -87.93 -39.08 -136.8 683.9 302.9 1299 576.5 1378 175.9 117.2 -283.3 840.3 263.8 654.6 -342 508.1 771.9 -302.9
4.225 -273.6 -234.5 -244.3 -175.9 -302.9 547.1 175.9 1085 420.1 1221 -68.39 -97.7 -420.1 703.5 136.8 429.9 -635.6 302.9 566.7 -332.2
4.23 -342 -156.3 -146.6 -185.6 -39.08 586.2 439.7 1075 703.5 1466 214.9 -185.6 -117.2 674.2 449.4 556.9 -547.6 498.3 791.4 -312.7
4.235 -625.3 -469 -302.9 -459.2 -166.1 254 214.9 596 381 1085 -117.2 -625.3 -234.5 273.6 146.6 117.2 -938 156.3 244.3 -400.6
4.24 -508.1 -361.5 -117.2 -439.7 39.08 166.1 410.4 381 547.1 1016 87.93 -361.5 39.08 254 459.2 175.9 -742.6 195.4 371.3 -234.5
4.245 -771.9 -596 -263.8 -644.8 -234.5 -263.8 87.93 -185.6 68.39 390.8 -244.3 -596 -302.9 -39.08 58.62 -302.9 -1025 -146.6 -293.1 -390.8
4.25 -498.3 -342 -48.85 -615.5 0 -342 205.2 -332.2 48.85 214.9 39.08 -410.4 0 48.85 244.3 -214.9 -810.9 48.85 -283.3 -449.4
4.255 -527.6 -459.2 -87.93 -781.6 -166.1 -625.3 0 -810.9 -283.3 -351.7 -146.6 -576.5 -293.1 -195.4 -39.08 -576.5 -938 -195.4 -732.8 -400.6
4.26 -312.7 -214.9 58.62 -723 -48.85 -547.6 146.6 -781.6 -263.8 -332.2 175.9 -527.6 78.16 -97.7 156.3 -361.5 -771.9 107.5 -644.8 -469
4.265 -449.4 -342 -175.9 -898.9 -224.7 -752.3 -39.08 -1085 -537.4 -810.9 -175.9 -810.9 -234.5 -410.4 0 -742.6 -977.5 -87.93 -1055 -459.2
4.27 -527.6 -273.6 -224.7 -752.3 -332.2 -508.1 -48.85 -879.8 -488.5 -644.8 -127 -596 -175.9 -175.9 58.62 -400.6 -781.6 166.1 -879.8 -547.6
4.275 -869.6 -605.8 -459.2 -801.2 -732.8 -478.7 -342 -928.2 -791.4 -957.5 -459.2 -664.4 -537.4 -420.1 -244.3 -615.5 -889.1 -107.5 -1104 -410.4
4.28 -596 -381 -214.9 -605.8 -693.7 -107.5 -312.7 -508.1 -625.3 -683.9 -185.6 -263.8 -439.7 68.39 -224.7 -263.8 -547.6 68.39 -693.7 -234.5
4.285 -635.6 -547.6 -283.3 -576.5 -898.9 -19.54 -488.5 -361.5 -664.4 -771.9 -332.2 -107.5 -683.9 107.5 -537.4 -185.6 -527.6 -146.6 -625.3 -78.16
4.29 -68.39 -214.9 68.39 -478.7 -674.6 185.6 -254 78.16 -273.6 -254 48.85 -156.3 -390.8 273.6 -205.2 48.85 -146.6 9.77 -68.39 97.7
4.295 -58.62 -214.9 -29.31 -517.8 -655.1 136.8 -342 146.6 -263.8 -293.1 39.08 -175.9 -576.5 371.3 -390.8 -58.62 -263.8 -293.1 -19.54 214.9
4.3 -29.31 -156.3 78.16 -420.1 -469 244.3 -117.2 498.3 117.2 156.3 156.3 -244.3 -312.7 293.1 -39.08 263.8 -39.08 -175.9 371.3 254
4.305 -234.5 -371.3 -195.4 -547.6 -635.6 19.54 -283.3 322.4 -48.85 -58.62 -87.93 -547.6 -488.5 29.31 -263.8 19.54 -342 -459.2 58.62 214.9
4.31 -273.6 -429.9 -87.93 -371.3 -469 117.2 -29.31 537.4 302.9 254 78.16 -527.6 -214.9 39.08 136.8 351.7 -127 -302.9 361.5 312.7
4.315 -371.3 -664.4 -342 -508.1 -683.9 -107.5 -224.7 293.1 48.85 48.85 -254 -791.4 -293.1 -175.9 -214.9 48.85 -361.5 -478.7 58.62 273.6
4.32 -117.2 -371.3 -58.62 -400.6 -390.8 -29.31 29.31 429.9 361.5 312.7 48.85 -644.8 -9.77 -87.93 68.39 224.7 -68.39 -234.5 381 302.9
4.325 -322.4 -332.2 -156.3 -429.9 -439.7 -185.6 -107.5 244.3 127 283.3 -195.4 -801.2 -185.6 -234.5 -273.6 -19.54 -234.5 -224.7 87.93 107.5
4.33 -78.16 -68.39 58.62 -351.7 -234.5 -283.3 87.93 136.8 361.5 429.9 127 -615.5 29.31 -146.6 39.08 39.08 39.08 -9.77 302.9 68.39
4.335 -224.7 -48.85 -97.7 -293.1 -361.5 -410.4 -68.39 -156.3 87.93 224.7 -48.85 -840.3 -166.1 -351.7 -263.8 -136.8 -97.7 -195.4 -127 -29.31
4.34 -78.16 78.16 68.39 -166.1 -273.6 -420.1 48.85 -342 205.2 175.9 175.9 -625.3 9.77 -293.1 29.31 0 195.4 -78.16 9.77 68.39
4.345 146.6 185.6 58.62 -156.3 -244.3 -449.4 -97.7 -586.2 0 -136.8 78.16 -762.1 -146.6 -400.6 -175.9 -214.9 214.9 -185.6 -381 29.31
4.35 322.4 459.2 214.9 -9.77 -185.6 -361.5 29.31 -635.6 39.08 -156.3 263.8 -390.8 68.39 -224.7 9.77 39.08 439.7 29.31 -254 39.08
4.355 351.7 390.8 146.6 -175.9 -283.3 -556.9 -127 -908.6 -175.9 -566.7 97.7 -527.6 -185.6 -342 -214.9 -371.3 293.1 -214.9 -547.6 127
4.36 361.5 566.7 263.8 68.39 -68.39 -361.5 48.85 -723 -9.77 -547.6 283.3 -136.8 107.5 -107.5 48.85 -78.16 508.1 -9.77 -293.1 175.9
4.365 273.6 342 107.5 -87.93 -185.6 -556.9 -107.5 -977.5 -342 -947.7 78.16 -224.7 -107.5 -263.8 -224.7 -400.6 293.1 -273.6 -615.5 156.3
4.37 312.7 439.7 293.1 254 78.16 -244.3 19.54 -693.7 -254 -859.8 371.3 117.2 87.93 68.39 -19.54 -29.31 556.9 9.77 -351.7 175.9
4.375 302.9 263.8 205.2 254 48.85 -185.6 -195.4 -771.9 -596 -1085 156.3 68.39 -87.93 -78.16 -293.1 -224.7 439.7 -244.3 -537.4 175.9
4.38 127 371.3 283.3 547.1 156.3 234.5 -136.8 -312.7 -537.4 -801.2 322.4 410.4 9.77 342 -185.6 9.77 596 68.39 -195.4 166.1
4.385 78.16 234.5 87.93 537.4 39.08 302.9 -254 -224.7 -723 -830.5 39.08 127 -214.9 254 -508.1 -78.16 469 -9.77 -234.5 156.3
4.39 58.62 576.5 214.9 869.6 205.2 732.8 -58.62 390.8 -342 -342 185.6 410.4 9.77 517.8 -205.2 195.4 683.9 381 351.7 156.3
4.395 -58.62 214.9 48.85 752.3 136.8 723 -97.7 566.7 -371.3 -361.5 87.93 136.8 -107.5 410.4 -361.5 97.7 420.1 224.7 322.4 205.2
4.4 9.77 449.4 224.7 1026 410.4 1036 214.9 1036 117.2 175.9 273.6 488.5 166.1 674.2 68.39 508.1 625.3 498.3 859.8 244.3
4.405 0 312.7 29.31 977 312.7 947.7 175.9 1036 117.2 146.6 185.6 449.4 87.93 517.8 -29.31 351.7 449.4 381 664.4 205.2
4.41 -97.7 39.08 58.62 928.2 381 918.4 244.3 1094 342 371.3 400.6 586.2 254 713.2 136.8 527.6 449.4 439.7 791.4 205.2
4.415 -107.5 205.2 -224.7 654.6 48.85 517.8 68.39 742.6 214.9 175.9 68.39 371.3 68.39 429.9 -68.39 214.9 185.6 87.93 371.3 195.4
4.42 -87.93 29.31 -175.9 508.1 39.08 400.6 166.1 713.2 390.8 459.2 156.3 566.7 205.2 615.5 166.1 342 166.1 136.8 429.9 185.6
4.425 -342 -469 -429.9 -58.62 -156.3 -87.93 39.08 322.4 254 205.2 -87.93 -29.31 39.08 244.3 58.62 -127 -263.8 -342 97.7 273.6
4.43 -117.2 -166.1 -263.8 -58.62 39.08 -78.16 205.2 361.5 469 390.8 58.62 214.9 293.1 381 263.8 97.7 -78.16 -156.3 214.9 175.9
4.435 -273.6 -732.8 -312.7 -390.8 -68.39 -478.7 29.31 -166.1 234.5 -48.85 -68.39 -302.9 29.31 146.6 127 -312.7 -361.5 -586.2 -244.3 293.1
4.44 -68.39 -254 -87.93 -175.9 136.8 -342 156.3 -97.7 371.3 78.16 136.8 -68.39 214.9 254 342 9.77 -87.93 -400.6 -136.8 234.5
4.445 -322.4 -361.5 -263.8 -293.1 -19.54 -508.1 -87.93 -537.4 39.08 -322.4 -58.62 -127 -156.3 97.7 48.85 -420.1 -332.2 -635.6 -625.3 156.3
4.45 -195.4 -205.2 -136.8 -185.6 195.4 -410.4 9.77 -469 205.2 -175.9 234.5 19.54 9.77 146.6 263.8 -185.6 -175.9 -400.6 -410.4 87.93
4.455 -371.3 -205.2 -312.7 -214.9 -19.54 -508.1 -156.3 -674.6 -97.7 -400.6 -29.31 -68.39 -136.8 -107.5 -107.5 -498.3 -361.5 -566.7 -713.2 29.31
4.46 -68.39 -58.62 -127 -87.93 166.1 -302.9 19.54 -478.7 87.93 -175.9 244.3 195.4 146.6 39.08 127 -234.5 -107.5 -361.5 -390.8 58.62
4.465 127 -68.39 -117.2 -117.2 19.54 -351.7 -156.3 -615.5 -214.9 -459.2 68.39 -127 -39.08 -166.1 -244.3 -498.3 -185.6 -488.5 -576.5 -19.54
4.47 312.7 214.9 136.8 224.7 283.3 78.16 117.2 -195.4 0 -78.16 322.4 195.4 273.6 254 107.5 -117.2 185.6 -58.62 -19.54 19.54
4.475 302.9 263.8 48.85 273.6 87.93 234.5 -97.7 9.77 -283.3 -107.5 136.8 48.85 78.16 293.1 -195.4 -214.9 78.16 -87.93 -97.7 -166.1
4.48 478.7 488.5 322.4 605.8 342 674.2 175.9 508.1 0 410.4 439.7 263.8 351.7 605.8 127 322.4 332.2 390.8 449.4 -205.2
4.485 263.8 576.5 107.5 498.3 68.39 635.1 -39.08 566.7 -322.4 351.7 234.5 136.8 146.6 566.7 -214.9 234.5 87.93 400.6 273.6 -429.9
4.49 361.5 664.4 293.1 683.9 283.3 889.1 166.1 869.6 -48.85 586.2 390.8 420.1 400.6 703.5 107.5 566.7 351.7 791.4 615.5 -390.8
4.495 175.9 390.8 97.7 420.1 9.77 664.4 -29.31 683.9 -244.3 273.6 127 -58.62 146.6 420.1 -107.5 371.3 58.62 576.5 332.2 -381
4.5 185.6 332.2 97.7 381 97.7 820.7 117.2 859.8 -9.77 381 234.5 -19.54 381 224.7 107.5 586.2 166.1 713.2 596 -254
4.505 -48.85 68.39 -136.8 205.2 -78.16 674.2 68.39 703.5 -9.77 156.3 -107.5 -244.3 127 312.7 19.54 351.7 -39.08 498.3 351.7 -195.4
4.51 78.16 48.85 -127 185.6 87.93 713.2 244.3 781.6 332.2 420.1 39.08 -214.9 361.5 312.7 361.5 605.8 19.54 615.5 517.8 -156.3
4.515 -166.1 19.54 -371.3 78.16 -87.93 449.4 156.3 459.2 283.3 273.6 -332.2 -293.1 175.9 263.8 166.1 312.7 -195.4 351.7 175.9 -117.2
4.52 -146.6 29.31 -244.3 136.8 9.77 439.7 312.7 469 625.3 635.1 -214.9 -195.4 390.8 381 488.5 508.1 -68.39 469 332.2 -156.3
4.525 -478.7 -254 -420.1 -97.7 -185.6 146.6 146.6 166.1 527.6 371.3 -517.8 -547.6 166.1 -29.31 273.6 234.5 -302.9 117.2 19.54 -39.08
4.53 -635.6 -342 -381 -107.5 -136.8 146.6 244.3 156.3 664.4 537.4 -508.1 -449.4 273.6 -97.7 449.4 302.9 -185.6 117.2 127 -29.31
4.535 -635.6 -439.7 -469 -166.1 -390.8 48.85 -29.31 9.77 361.5 254 -674.6 -713.2 97.7 -400.6 117.2 127 -410.4 -146.6 -273.6 -68.39
4.54 -381 -127 -273.6 97.7 -234.5 156.3 136.8 29.31 508.1 400.6 -410.4 -449.4 312.7 -469 332.2 283.3 -107.5 -39.08 -29.31 48.85
4.545 29.31 -146.6 -293.1 68.39 -410.4 -97.7 -107.5 -254 195.4 -19.54 -469 -635.6 156.3 -771.9 39.08 -78.16 -254 -224.7 -332.2 58.62
4.55 -156.3 -107.5 -254 244.3 -312.7 -19.54 19.54 -214.9 429.9 156.3 -263.8 -185.6 361.5 -655.1 273.6 48.85 -78.16 -48.85 0 78.16
4.555 97.7 -185.6 -263.8 68.39 -420.1 -254 -68.39 -420.1 263.8 -107.5 -224.7 -293.1 146.6 -869.6 78.16 -302.9 -195.4 -244.3 -78.16 97.7
4.56 -273.6 -263.8 -224.7 78.16 -244.3 -127 205.2 -185.6 547.1 166.1 -29.31 -87.93 332.2 -586.2 420.1 -156.3 -58.62 -29.31 361.5 107.5
4.565 -293.1 -224.7 -420.1 0 -332.2 -244.3 -58.62 -214.9 273.6 29.31 -390.8 -185.6 -263.8 -771.9 -58.62 -410.4 -214.9 -68.39 127 -117.2
4.57 166.1 175.9 -48.85 263.8 87.93 29.31 400.6 107.5 556.9 371.3 195.4 78.16 517.8 -478.7 449.4 -117.2 283.3 214.9 635.1 39.08
4.575 39.08 48.85 -273.6 146.6 -58.62 -87.93 175.9 -19.54 156.3 87.93 -117.2 -58.62 19.54 -596 48.85 -390.8 127 -29.31 342 29.31
4.58 586.2 293.1 136.8 342 332.2 146.6 488.5 195.4 371.3 283.3 351.7 214.9 537.4 -361.5 390.8 -97.7 547.1 117.2 752.3 263.8
4.585 254 68.39 -136.8 146.6 58.62 -117.2 156.3 -127 -97.7 -244.3 -39.08 -19.54 342 -469 19.54 -429.9 273.6 -195.4 361.5 342
4.59 508.1 283.3 185.6 273.6 283.3 0 263.8 -39.08 -19.54 -185.6 322.4 302.9 488.5 -273.6 185.6 -156.3 488.5 107.5 508.1 293.1
4.595 361.5 107.5 29.31 0 29.31 -254 -156.3 -478.7 -498.3 -713.2 -58.62 117.2 127 -459.2 -234.5 -459.2 175.9 -185.6 -117.2 293.1
4.6 371.3 263.8 224.7 117.2 58.62 -205.2 -195.4 -478.7 -586.2 -791.4 254 537.4 312.7 -175.9 -136.8 -146.6 254 -39.08 -214.9 244.3
4.605 224.7 29.31 19.54 -205.2 -254 -488.5 -527.6 -947.7 -996.6 -1201 -9.77 39.08 107.5 -400.6 -527.6 -556.9 -48.85 -410.4 -820.7 136.8
4.61 146.6 97.7 68.39 -48.85 -283.3 -322.4 -488.5 -791.4 -840.3 -928.2 97.7 283.3 283.3 -293.1 -342 -283.3 48.85 -214.9 -762.1 0
4.615 78.16 195.4 -68.39 -166.1 -478.7 -517.8 -664.4 -1006 -957.5 -1114 -97.7 68.39 117.2 -429.9 -566.7 -556.9 -107.5 -508.1 -1104 -39.08
4.62 254 381 136.8 58.62 -312.7 -273.6 -390.8 -644.8 -488.5 -517.8 68.39 322.4 342 -342 -214.9 -175.9 68.39 -146.6 -713.2 -156.3
4.625 -283.3 29.31 -244.3 -117.2 -517.8 -302.9 -566.7 -576.5 -547.6 -371.3 -322.4 19.54 9.77 -449.4 -459.2 -244.3 -420.1 -263.8 -996.6 -381
4.63 -166.1 234.5 -136.8 58.62 -263.8 -39.08 -283.3 -136.8 -58.62 283.3 -166.1 283.3 214.9 -273.6 -39.08 195.4 -312.7 68.39 -547.6 -547.6
4.635 -674.6 -244.3 -469 -166.1 -410.4 -78.16 -390.8 -9.77 -87.93 439.7 -420.1 -68.39 -58.62 -342 -214.9 146.6 -781.6 -146.6 -683.9 -693.7
4.64 -566.7 -48.85 -469 -48.85 -254 146.6 -175.9 322.4 195.4 908.6 -244.3 127 39.08 -185.6 117.2 517.8 -635.6 9.77 -322.4 -732.8
4.645 -371.3 -185.6 -429.9 -263.8 -185.6 -117.2 -156.3 185.6 244.3 723 -263.8 9.77 -19.54 -273.6 97.7 283.3 -674.6 -254 -244.3 -459.2
4.65 -175.9 -459.2 -48.85 -459.2 185.6 -205.2 195.4 166.1 635.1 791.4 117.2 19.54 312.7 -322.4 439.7 342 -205.2 -263.8 390.8 68.39
4.655 29.31 -683.9 195.4 -655.1 254 -537.4 175.9 -156.3 488.5 381 224.7 -214.9 293.1 -517.8 254 107.5 -127 -556.9 312.7 459.2
4.66 371.3 -664.4 703.5 -635.6 644.8 -566.7 498.3 -244.3 713.2 332.2 723 -185.6 693.7 -449.4 498.3 263.8 381 -459.2 752.3 859.8
4.665 625.3 -586.2 840.3 -625.3 596 -713.2 273.6 -508.1 273.6 -127 771.9 -429.9 498.3 -556.9 146.6 9.77 429.9 -635.6 400.6 898.9
4.67 830.5 -254 1036 -342 683.9 -586.2 361.5 -537.4 273.6 -156.3 947.7 -48.85 566.7 -478.7 273.6 156.3 752.3 -322.4 478.7 801.2
4.675 801.2 -48.85 918.4 -195.4 527.6 -556.9 97.7 -752.3 -175.9 -586.2 810.9 -68.39 332.2 -469 -78.16 -166.1 644.8 -361.5 68.39 605.8
4.68 762.1 29.31 1006 19.54 693.7 -410.4 214.9 -723 -117.2 -498.3 859.8 254 596 -478.7 146.6 -87.93 771.9 -117.2 263.8 547.1
4.685 508.1 -58.62 703.5 39.08 400.6 -459.2 -136.8 -879.8 -644.8 -840.3 547.1 302.9 214.9 -537.4 -263.8 -381 439.7 -146.6 -312.7 214.9
4.69 596 293.1 859.8 469 547.1 -68.39 -48.85 -566.7 -625.3 -615.5 654.6 674.2 508.1 -214.9 -87.93 -48.85 654.6 254 -97.7 0
4.695 527.6 205.2 635.1 478.7 312.7 -156.3 -293.1 -742.6 -918.4 -996.6 381 371.3 205.2 -263.8 -371.3 -342 537.4 117.2 -478.7 -19.54
4.7 713.2 566.7 771.9 869.6 508.1 214.9 -146.6 -469 -801.2 -879.8 527.6 674.2 312.7 39.08 -136.8 0 810.9 508.1 -332.2 -117.2
4.705 810.9 459.2 713.2 771.9 527.6 166.1 -185.6 -527.6 -879.8 -1153 498.3 381 224.7 19.54 -322.4 -293.1 830.5 342 -517.8 -29.31
4.71 771.9 596 703.5 869.6 693.7 400.6 58.62 -234.5 -517.8 -850 596 674.2 342 195.4 -9.77 39.08 908.6 547.1 -195.4 -29.31
4.715 312.7 78.16 312.7 527.6 459.2 175.9 -78.16 -302.9 -547.6 -928.2 254 283.3 58.62 97.7 -312.7 -107.5 449.4 97.7 -342 29.31
4.72 332.2 195.4 244.3 429.9 312.7 214.9 127 48.85 -68.39 -420.1 420.1 527.6 107.5 97.7 39.08 175.9 351.7 -9.77 117.2 156.3
4.725 48.85 -127 -185.6 78.16 19.54 -117.2 -87.93 -9.77 -48.85 -332.2 29.31 166.1 -224.7 -127 -117.2 -48.85 -185.6 -488.5 -78.16 146.6
4.73 -156.3 -146.6 -293.1 58.62 -39.08 0 0 400.6 322.4 214.9 156.3 420.1 -273.6 39.08 97.7 361.5 -293.1 -449.4 195.4 107.5
4.735 -361.5 -429.9 -655.1 -254 -312.7 -371.3 -254 185.6 97.7 146.6 -136.8 48.85 -615.5 -214.9 -175.9 48.85 -771.9 -850 -214.9 -29.31
4.74 -361.5 -322.4 -508.1 -244.3 -97.7 -273.6 -117.2 381 342 537.4 78.16 244.3 -390.8 -9.77 107.5 293.1 -596 -605.8 48.85 -9.77
4.745 -674.6 -605.8 -664.4 -469 -234.5 -469 -381 117.2 48.85 371.3 -273.6 -136.8 -674.6 -254 -293.1 -58.62 -791.4 -752.3 -244.3 -136.8
4.75 -342 -429.9 -410.4 -390.8 -58.62 -381 -195.4 195.4 214.9 605.8 48.85 0 -371.3 -175.9 -97.7 68.39 -478.7 -381 68.39 -156.3
4.755 -263.8 -381 -371.3 -322.4 0 -371.3 -224.7 97.7 87.93 498.3 -117.2 -156.3 -527.6 -205.2 -156.3 -107.5 -390.8 -332.2 87.93 -78.16
4.76 -136.8 48.85 -322.4 68.39 156.3 9.77 -29.31 381 283.3 820.7 0 175.9 -244.3 -117.2 -19.54 195.4 -58.62 136.8 410.4 -156.3
4.765 -68.39 0 -371.3 156.3 117.2 29.31 -107.5 185.6 29.31 488.5 -214.9 185.6 -449.4 -107.5 -185.6 0 -97.7 117.2 185.6 -205.2
4.77 234.5 351.7 -87.93 488.5 429.9 361.5 156.3 410.4 244.3 654.6 127 654.6 -136.8 68.39 136.8 273.6 332.2 508.1 478.7 -175.9
4.775 97.7 283.3 -224.7 302.9 302.9 166.1 -156.3 9.77 -224.7 68.39 -214.9 566.7 -439.7 -19.54 -254 -127 166.1 234.5 48.85 -127
4.78 166.1 361.5 39.08 429.9 469 283.3 29.31 87.93 -224.7 156.3 87.93 801.2 -214.9 107.5 -78.16 0 342 429.9 175.9 -97.7
4.785 107.5 87.93 -9.77 87.93 390.8 -48.85 -205.2 -254 -644.8 -371.3 -19.54 381 -420.1 -87.93 -371.3 -332.2 97.7 146.6 -224.7 -29.31
4.79 127 185.6 224.7 322.4 547.1 283.3 -48.85 68.39 -547.6 -97.7 224.7 840.3 -185.6 254 -205.2 -9.77 244.3 469 9.77 -146.6
4.795 175.9 -39.08 244.3 107.5 371.3 127 -214.9 -39.08 -771.9 -459.2 87.93 400.6 -283.3 146.6 -459.2 -166.1 87.93 254 -302.9 -97.7
4.8 136.8 136.8 400.6 244.3 527.6 400.6 -58.62 175.9 -547.6 -273.6 400.6 791.4 0 488.5 -195.4 87.93 224.7 410.4 -78.16 -97.7
4.805 87.93 -19.54 156.3 29.31 214.9 166.1 -342 -78.16 -810.9 -752.3 205.2 449.4 -234.5 420.1 -527.6 -166.1 48.85 78.16 -517.8 -87.93
4.81 87.93 48.85 166.1 205.2 283.3 332.2 -185.6 58.62 -576.5 -508.1 429.9 674.2 -19.54 693.7 -302.9 -39.08 234.5 312.7 -312.7 -136.8
4.815 -29.31 78.16 -146.6 48.85 -48.85 107.5 -429.9 -185.6 -752.3 -713.2 224.7 449.4 -410.4 576.5 -556.9 -293.1 19.54 -9.77 -566.7 -127
4.82 127 205.2 -19.54 322.4 48.85 302.9 -185.6 97.7 -381 -312.7 371.3 752.3 -254 723 -185.6 -87.93 302.9 263.8 -195.4 -107.5
4.825 127 322.4 -156.3 283.3 -87.93 175.9 -244.3 117.2 -449.4 -254 214.9 478.7 -488.5 517.8 -371.3 -244.3 146.6 146.6 -312.7 -146.6
4.83 302.9 566.7 68.39 498.3 146.6 361.5 127 410.4 -29.31 195.4 351.7 703.5 -263.8 537.4 87.93 29.31 400.6 420.1 117.2 -136.8
4.835 48.85 351.7 -127 293.1 -19.54 214.9 9.77 351.7 -29.31 214.9 -39.08 381 -517.8 351.7 -87.93 -195.4 127 185.6 -68.39 -234.5
4.84 195.4 635.1 146.6 586.2 185.6 537.4 381 703.5 429.9 742.6 175.9 508.1 -146.6 644.8 322.4 87.93 469 547.1 400.6 -185.6
4.845 -19.54 244.3 -58.62 332.2 -68.39 273.6 214.9 527.6 361.5 605.8 -166.1 234.5 -342 283.3 97.7 -224.7 214.9 342 302.9 -283.3
4.85 -48.85 400.6 19.54 420.1 -29.31 361.5 361.5 674.2 654.6 947.7 48.85 58.62 -136.8 312.7 293.1 -107.5 371.3 517.8 596 -302.9
4.855 -39.08 195.4 -117.2 254 -166.1 156.3 214.9 439.7 439.7 713.2 -78.16 -97.7 -381 0 58.62 -214.9 234.5 224.7 400.6 -185.6
4.86 9.77 469 19.54 400.6 -254 254 254 576.5 527.6 898.9 39.08 97.7 -254 185.6 195.4 48.85 371.3 400.6 527.6 -195.4
4.865 -146.6 371.3 -146.6 205.2 -429.9 146.6 29.31 302.9 205.2 566.7 -156.3 -68.39 -596 87.93 -117.2 -136.8 156.3 224.7 48.85 -244.3
4.87 19.54 654.6 19.54 322.4 -332.2 283.3 156.3 420.1 322.4 683.9 -87.93 234.5 -342 342 107.5 166.1 429.9 478.7 234.5 -166.1
4.875 -195.4 224.7 -224.7 19.54 -644.8 0 -136.8 48.85 -97.7 195.4 -439.7 -68.39 -703.5 166.1 -224.7 -136.8 58.62 9.77 -273.6 -87.93
4.88 -224.7 293.1 -136.8 48.85 -478.7 39.08 19.54 156.3 -19.54 302.9 -361.5 214.9 -459.2 205.2 19.54 68.39 127 107.5 -48.85 19.54
4.885 -361.5 -254 -410.4 -449.4 -791.4 -439.7 -283.3 -302.9 -429.9 -214.9 -723 -263.8 -693.7 -97.7 -273.6 -322.4 -332.2 -488.5 -498.3 146.6
4.89 -478.7 -175.9 -459.2 -439.7 -703.5 -420.1 -283.3 -205.2 -488.5 -97.7 -596 -136.8 -420.1 -9.77 -136.8 -29.31 -459.2 -410.4 -449.4 -39.08
4.895 -586.2 -566.7 -655.1 -840.3 -908.6 -781.6 -488.5 -517.8 -801.2 -478.7 -889.1 -527.6 -703.5 -244.3 -410.4 -381 -820.7 -869.6 -850 -39.08
4.9 -439.7 -312.7 -390.8 -879.8 -635.6 -810.9 -322.4 -537.4 -655.1 -371.3 -439.7 -400.6 -400.6 -195.4 -127 -205.2 -703.5 -742.6 -683.9 -19.54
4.905 -586.2 -556.9 -410.4 -957.5 -693.7 -967.8 -469 -781.6 -840.3 -703.5 -498.3 -625.3 -576.5 -371.3 -390.8 -508.1 -820.7 -957.5 -967.8 -87.93
4.91 -254 -322.4 -48.85 -889.1 -361.5 -820.7 -244.3 -723 -508.1 -625.3 -78.16 -351.7 -302.9 -332.2 -39.08 -302.9 -478.7 -674.6 -674.6 -19.54
4.915 -410.4 -537.4 -29.31 -1006 -400.6 -879.8 -312.7 -879.8 -576.5 -889.1 -156.3 -664.4 -410.4 -664.4 -283.3 -556.9 -596 -801.2 -810.9 0
4.92 -185.6 -332.2 234.5 -752.3 -117.2 -508.1 -19.54 -469 -136.8 -537.4 146.6 -527.6 -136.8 -713.2 29.31 -205.2 -244.3 -312.7 -302.9 87.93
4.925 -166.1 -449.4 166.1 -810.9 -175.9 -429.9 -156.3 -429.9 -214.9 -615.5 48.85 -869.6 -312.7 -869.6 -254 -361.5 -312.7 -234.5 -361.5 0
4.93 -9.77 19.54 381 -488.5 136.8 19.54 156.3 68.39 185.6 -48.85 371.3 -693.7 156.3 -781.6 97.7 87.93 78.16 322.4 136.8 -39.08
4.935 19.54 -224.7 273.6 -390.8 19.54 146.6 58.62 234.5 107.5 39.08 175.9 -850 -19.54 -801.2 0 -29.31 68.39 342 97.7 -107.5
4.94 146.6 87.93 400.6 -156.3 117.2 420.1 254 556.9 449.4 498.3 322.4 -478.7 312.7 -576.5 224.7 214.9 293.1 576.5 469 -39.08
4.945 -263.8 -381 -29.31 -322.4 -175.9 342 29.31 586.2 312.7 498.3 -293.1 -635.6 -48.85 -625.3 19.54 -39.08 -87.93 390.8 332.2 -146.6
4.95 -136.8 -371.3 48.85 -312.7 -195.4 420.1 127 762.1 586.2 859.8 -175.9 -469 97.7 -420.1 224.7 68.39 0 508.1 654.6 -87.93
4.955 -381 -625.3 -283.3 -537.4 -449.4 146.6 -117.2 576.5 371.3 664.4 -547.6 -703.5 -214.9 -655.1 -127 -175.9 -420.1 78.16 390.8 -39.08
4.96 -390.8 -420.1 -205.2 -508.1 -371.3 107.5 -9.77 517.8 517.8 791.4 -332.2 -498.3 -68.39 -655.1 87.93 19.54 -312.7 87.93 576.5 78.16
4.965 -361.5 -459.2 -273.6 -674.6 -488.5 -254 -205.2 166.1 156.3 371.3 -420.1 -576.5 -234.5 -840.3 -185.6 -205.2 -576.5 -302.9 146.6 78.16
4.97 -19.54 -195.4 -58.62 -664.4 -254 -342 58.62 19.54 332.2 332.2 -107.5 -478.7 117.2 -674.6 146.6 -127 -332.2 -263.8 361.5 214.9
4.975 -322.4 -410.4 -273.6 -781.6 -420.1 -508.1 -136.8 -234.5 0 -58.62 -302.9 -351.7 -68.39 -527.6 -146.6 -254 -537.4 -508.1 -9.77 263.8
4.98 -185.6 -234.5 -146.6 -644.8 -185.6 -400.6 107.5 -146.6 263.8 68.39 -107.5 -234.5 254 -429.9 87.93 -136.8 -332.2 -400.6 234.5 254
4.985 -342 -439.7 -351.7 -723 -400.6 -488.5 -107.5 -312.7 -146.6 -312.7 -332.2 -576.5 -48.85 -537.4 -185.6 -429.9 -527.6 -517.8 -127 185.6
4.99 -156.3 -244.3 -107.5 -420.1 -117.2 -214.9 97.7 -78.16 117.2 -97.7 19.54 -195.4 244.3 -263.8 39.08 -136.8 -185.6 -127 136.8 87.93
4.995 -205.2 -361.5 -185.6 -371.3 -254 -342 -97.7 -254 -283.3 -459.2 -175.9 -322.4 48.85 -312.7 -224.7 -410.4 -312.7 -332.2 -332.2 58.62
5 97.7 -78.16 185.6 -146.6 87.93 -166.1 195.4 -107.5 9.77 -312.7 136.8 -68.39 381 -107.5 156.3 -195.4 58.62 0 -39.08 107.5
5.005 19.54 -214.9 78.16 -234.5 -9.77 -429.9 78.16 -410.4 -254 -703.5 -107.5 -166.1 263.8 -224.7 -58.62 -469 -78.16 -322.4 -351.7 214.9
5.01 117.2 97.7 254 -78.16 78.16 -293.1 234.5 -254 -19.54 -459.2 48.85 -9.77 498.3 -87.93 205.2 -293.1 136.8 -87.93 -48.85 107.5
5.015 -78.16 -9.77 -19.54 -156.3 -205.2 -400.6 -48.85 -312.7 -244.3 -586.2 -351.7 -361.5 136.8 9.77 -195.4 -508.1 -185.6 -263.8 -254 39.08
5.02 156.3 146.6 293.1 48.85 39.08 -117.2 156.3 -9.77 185.6 -136.8 -136.8 -224.7 342 351.7 136.8 -175.9 205.2 9.77 293.1 185.6
5.025 -48.85 19.54 58.62 29.31 -244.3 -19.54 -146.6 48.85 9.77 -185.6 -420.1 -371.3 -136.8 517.8 -293.1 -342 -29.31 -9.77 48.85 39.08
5.03 -19.54 107.5 283.3 283.3 -19.54 332.2 97.7 439.7 302.9 273.6 -136.8 -117.2 19.54 830.5 78.16 87.93 293.1 361.5 498.3 97.7
5.035 -97.7 185.6 156.3 175.9 -175.9 293.1 -97.7 322.4 58.62 205.2 -273.6 -224.7 -175.9 723 -136.8 -78.16 107.5 185.6 136.8 -29.31
5.04 -39.08 312.7 234.5 322.4 0 439.7 68.39 527.6 205.2 547.1 -39.08 39.08 185.6 830.5 87.93 185.6 283.3 371.3 371.3 -29.31
5.045 -39.08 166.1 -29.31 58.62 -136.8 156.3 -78.16 312.7 68.39 361.5 -244.3 -205.2 0 576.5 -117.2 -68.39 9.77 39.08 68.39 -107.5
5.05 19.54 234.5 -9.77 48.85 117.2 234.5 195.4 449.4 459.2 693.7 -29.31 -48.85 400.6 654.6 244.3 185.6 195.4 224.7 547.1 39.08
5.055 -195.4 -224.7 -273.6 -332.2 -19.54 -29.31 78.16 195.4 400.6 488.5 -332.2 -586.2 97.7 537.4 29.31 -117.2 -117.2 -175.9 361.5 97.7
5.06 -312.7 -293.1 -273.6 -302.9 136.8 58.62 254 390.8 654.6 752.3 -205.2 -429.9 244.3 556.9 283.3 205.2 -19.54 -29.31 703.5 205.2
5.065 -566.7 -498.3 -371.3 -517.8 68.39 -78.16 156.3 175.9 478.7 527.6 -361.5 -683.9 68.39 498.3 117.2 48.85 -332.2 -185.6 420.1 97.7
5.07 -508.1 -469 -175.9 -371.3 293.1 127 390.8 381 644.8 762.1 -78.16 -429.9 293.1 566.7 400.6 263.8 -156.3 97.7 674.2 68.39
5.075 -459.2 -459.2 -254 -390.8 166.1 19.54 205.2 127 293.1 449.4 -224.7 -371.3 166.1 449.4 136.8 78.16 -371.3 -97.7 283.3 -48.85
5.08 -244.3 -429.9 -68.39 -214.9 420.1 195.4 439.7 312.7 449.4 615.5 39.08 -29.31 478.7 488.5 410.4 420.1 -205.2 166.1 556.9 -58.62
5.085 -283.3 -322.4 -244.3 -156.3 146.6 78.16 195.4 97.7 87.93 214.9 -205.2 58.62 205.2 224.7 97.7 224.7 -361.5 -78.16 195.4 -117.2
5.09 -175.9 -127 -68.39 136.8 342 322.4 390.8 332.2 263.8 371.3 -9.77 429.9 420.1 420.1 410.4 615.5 -9.77 224.7 469 -78.16
5.095 -263.8 -97.7 -234.5 342 68.39 351.7 175.9 312.7 9.77 107.5 -312.7 332.2 48.85 332.2 87.93 449.4 -87.93 39.08 205.2 -107.5
5.1 175.9 488.5 244.3 723 371.3 664.4 429.9 517.8 263.8 156.3 107.5 781.6 371.3 625.3 439.7 674.2 498.3 332.2 478.7 48.85
5.105 58.62 390.8 156.3 732.8 263.8 586.2 234.5 371.3 78.16 -166.1 -166.1 771.9 78.16 674.2 195.4 429.9 381 195.4 127 -19.54
5.11 254 439.7 371.3 693.7 439.7 605.8 351.7 420.1 214.9 -87.93 117.2 664.4 361.5 879.3 410.4 635.1 576.5 342 302.9 39.08
5.115 -19.54 146.6 136.8 312.7 156.3 244.3 39.08 136.8 -9.77 -459.2 -136.8 342 87.93 713.2 117.2 322.4 127 -107.5 -78.16 78.16
5.12 -68.39 -214.9 39.08 -19.54 -283.3 0 48.85 195.4 87.93 -107.5 478.7 205.2 -400.6 117.2 -166.1 283.3 -283.3 -390.8 205.2 361.5
5.125 185.6 -78.16 244.3 29.31 -87.93 -29.31 195.4 342 322.4 302.9 713.2 361.5 -48.85 87.93 117.2 478.7 -68.39 -175.9 537.4 351.7
5.13 87.93 -312.7 87.93 -107.5 -390.8 -312.7 -166.1 166.1 -68.39 97.7 439.7 -19.54 -254 -361.5 -361.5 48.85 -244.3 -449.4 205.2 244.3
5.135 78.16 -87.93 322.4 0 -302.9 -263.8 -19.54 254 87.93 498.3 635.1 78.16 -9.77 -488.5 -87.93 117.2 -39.08 -166.1 508.1 195.4
5.14 -136.8 -312.7 127 -224.7 -517.8 -547.6 -351.7 -9.77 -420.1 166.1 322.4 -361.5 -351.7 -889.1 -517.8 -312.7 -302.9 -302.9 39.08 29.31
5.145 214.9 136.8 410.4 -97.7 -283.3 -459.2 -136.8 87.93 -283.3 439.7 547.1 -234.5 -78.16 -928.2 -205.2 -146.6 -9.77 87.93 224.7 -97.7
5.15 -205.2 -293.1 87.93 -469 -488.5 -889.1 -400.6 -410.4 -752.3 -68.39 136.8 -752.3 -351.7 -1290 -498.3 -537.4 -361.5 -283.3 -322.4 -156.3
5.155 58.62 -39.08 244.3 -361.5 -127 -771.9 -117.2 -312.7 -517.8 234.5 371.3 -547.6 -29.31 -1172 -156.3 -117.2 -117.2 -107.5 -107.5 -156.3
5.16 -156.3 -371.3 -97.7 -664.4 -351.7 -1143 -371.3 -742.6 -889.1 -136.8 -117.2 -957.5 -361.5 -1436 -410.4 -498.3 -488.5 -537.4 -664.4 -166.1
5.165 -136.8 -117.2 58.62 -449.4 -9.77 -1036 29.31 -615.5 -420.1 254 136.8 -723 -78.16 -1201 78.16 -185.6 -244.3 -244.3 -263.8 -185.6
5.17 -293.1 -332.2 -254 -566.7 -156.3 -1104 -87.93 -889.1 -547.6 -19.54 -224.7 -850 -234.5 -1387 -58.62 -556.9 -469 -400.6 -596 -166.1
5.175 -87.93 -97.7 29.31 -234.5 263.8 -644.8 449.4 -596 175.9 439.7 127 -381 175.9 -1114 488.5 -283.3 -58.62 0 29.31 -29.31
5.18 -244.3 -342 -263.8 -381 68.39 -635.6 214.9 -762.1 29.31 127 -205.2 -400.6 -58.62 -1192 195.4 -615.5 -234.5 -175.9 -263.8 -9.77
5.185 -39.08 39.08 29.31 87.93 537.4 -29.31 732.8 -254 664.4 615.5 68.39 107.5 439.7 -693.7 674.2 -156.3 254 302.9 400.6 87.93
5.19 -146.6 -29.31 -185.6 39.08 390.8 19.54 488.5 -273.6 429.9 283.3 -166.1 224.7 127 -508.1 342 -273.6 58.62 107.5 175.9 68.39
5.195 78.16 175.9 156.3 420.1 820.7 517.8 869.6 195.4 879.3 635.1 293.1 576.5 566.7 -39.08 693.7 224.7 420.1 390.8 752.3 214.9
5.2 97.7 48.85 0 420.1 605.8 498.3 576.5 234.5 596 263.8 156.3 459.2 205.2 87.93 371.3 107.5 273.6 166.1 556.9 283.3
