    T[sec] Fp1 Fp2 F3  F4  C3  C4  P3  P4  O1  O2  F7  F8  T3  T4  T5  T6  Fz  Cz  Pz  A2 
30 1000 1000 1000 1000 1000 1000 1000 1000 1000 1000 1000 1000 1000 1000 1000 1000 1000 1000 1000 1000
0.625 -58.62 -517.8 771.9 371.3 1006 420.1 635.1 693.7 -107.5 58.62 302.9 -9.77 117.2 -58.62 -683.9 166.1 1202 830.5 957.5 410.4
0.63 -273.6 -498.3 586.2 478.7 1221 576.5 986.8 1026 254 586.2 127 254 -166.1 214.9 -322.4 596 1153 947.7 1055 302.9
0.635 -244.3 -537.4 1143 263.8 1886 166.1 1681 820.7 781.6 693.7 429.9 48.85 -556.9 127 -302.9 605.8 1094 703.5 1045 459.2
0.64 -771.9 -810.9 -185.6 -97.7 527.6 -254 596 547.1 410.4 771.9 -537.4 -156.3 19.54 48.85 175.9 791.4 283.3 136.8 175.9 166.1
0.645 -762.1 -635.6 48.85 -390.8 459.2 -508.1 801.2 244.3 635.1 713.2 -146.6 -263.8 -136.8 48.85 342 732.8 58.62 -146.6 -39.08 146.6
0.65 -918.4 -820.7 -508.1 -615.5 -205.2 -889.1 244.3 -166.1 547.1 664.4 -439.7 -302.9 459.2 -39.08 556.9 683.9 -254 -586.2 -420.1 185.6
0.655 -1075 -820.7 -908.6 -644.8 -869.6 -820.7 9.77 -224.7 508.1 556.9 -127 -693.7 429.9 -19.54 596 635.1 -508.1 -713.2 -635.6 58.62
0.66 -1163 -928.2 -928.2 -898.9 -820.7 -1025 175.9 -273.6 644.8 537.4 -175.9 -469 371.3 -234.5 674.2 517.8 -586.2 -703.5 -586.2 19.54
0.665 -918.4 -820.7 -517.8 -390.8 -117.2 -508.1 625.3 117.2 859.8 576.5 -263.8 -332.2 214.9 -58.62 850 556.9 -234.5 -293.1 -234.5 48.85
0.67 -928.2 -742.6 -527.6 -556.9 9.77 -576.5 508.1 39.08 605.8 273.6 -469 -254 214.9 -185.6 742.6 390.8 -312.7 -273.6 -332.2 -29.31
0.675 -938 -850 -508.1 -68.39 -127 -175.9 273.6 322.4 322.4 127 -302.9 -97.7 -48.85 -68.39 400.6 68.39 -322.4 -19.54 -342 -205.2
0.68 -810.9 -449.4 -263.8 185.6 273.6 254 390.8 644.8 166.1 146.6 -302.9 117.2 312.7 78.16 234.5 68.39 -78.16 361.5 -58.62 -234.5
0.685 -830.5 -547.6 -195.4 78.16 185.6 136.8 166.1 576.5 -263.8 -371.3 19.54 -195.4 -175.9 -78.16 -420.1 -596 -117.2 342 -9.77 -146.6
0.69 -566.7 -361.5 185.6 185.6 605.8 322.4 869.6 859.8 29.31 -254 283.3 19.54 -205.2 78.16 78.16 -664.4 293.1 644.8 596 48.85
0.695 -664.4 -283.3 -29.31 166.1 156.3 410.4 -29.31 898.9 -566.7 -439.7 9.77 127 302.9 185.6 -156.3 -713.2 224.7 586.2 371.3 -58.62
0.7 -293.1 -254 371.3 146.6 664.4 224.7 508.1 977 -351.7 -127 322.4 127 498.3 175.9 107.5 -390.8 566.7 674.2 791.4 185.6
0.705 -390.8 -547.6 195.4 -19.54 635.1 9.77 488.5 732.8 -469 -263.8 175.9 58.62 293.1 361.5 -78.16 -312.7 654.6 439.7 928.2 459.2
0.71 -517.8 -508.1 87.93 -29.31 263.8 -156.3 -263.8 683.9 -908.6 78.16 224.7 48.85 889.1 371.3 -254 87.93 400.6 293.1 537.4 205.2
0.715 -263.8 -732.8 410.4 -224.7 644.8 -449.4 351.7 361.5 -556.9 -205.2 342 0 322.4 254 -429.9 -117.2 635.1 107.5 742.6 596
0.72 -342 -459.2 351.7 -48.85 752.3 -312.7 302.9 488.5 -351.7 97.7 156.3 -107.5 195.4 214.9 -342 175.9 498.3 136.8 488.5 263.8
0.725 -371.3 -576.5 342 -205.2 508.1 -400.6 371.3 312.7 78.16 97.7 -136.8 -195.4 664.4 -48.85 -117.2 19.54 429.9 0 381 263.8
0.73 244.3 449.4 263.8 -224.7 39.08 -381 263.8 -459.2 625.3 -117.2 78.16 -39.08 381 -87.93 420.1 -429.9 -214.9 0 97.7 -205.2
0.735 400.6 664.4 420.1 273.6 605.8 254 293.1 -273.6 263.8 -547.6 48.85 156.3 429.9 -58.62 420.1 -625.3 107.5 361.5 58.62 -302.9
0.74 537.4 703.5 0 263.8 117.2 58.62 -29.31 -655.1 -410.4 -1163 293.1 400.6 -332.2 117.2 -498.3 -957.5 146.6 322.4 -439.7 -234.5
0.745 1065 889.1 566.7 615.5 586.2 420.1 146.6 -527.6 -488.5 -1348 166.1 488.5 -58.62 78.16 58.62 -947.7 732.8 576.5 -449.4 29.31
0.75 986.8 742.6 273.6 517.8 429.9 381 19.54 -566.7 -791.4 -1426 166.1 517.8 29.31 156.3 -107.5 -859.8 664.4 400.6 -713.2 136.8
0.755 898.9 683.9 195.4 498.3 -195.4 410.4 -371.3 -381 -947.7 -1124 244.3 420.1 48.85 244.3 29.31 -576.5 547.1 293.1 -840.3 175.9
0.76 664.4 302.9 146.6 136.8 -342 156.3 -586.2 -322.4 -987.3 -810.9 39.08 78.16 -107.5 136.8 -78.16 -322.4 342 9.77 -850 263.8
0.765 605.8 459.2 78.16 156.3 -683.9 244.3 -732.8 9.77 -947.7 -322.4 332.2 254 9.77 273.6 -254 68.39 234.5 39.08 -742.6 117.2
0.77 762.1 498.3 586.2 156.3 -87.93 322.4 -293.1 166.1 -537.4 -19.54 351.7 273.6 -127 234.5 39.08 263.8 527.6 175.9 -224.7 342
0.775 654.6 459.2 332.2 117.2 -322.4 87.93 -117.2 263.8 -361.5 254 136.8 87.93 -478.7 205.2 -156.3 439.7 273.6 146.6 -39.08 185.6
0.78 732.8 625.3 547.1 361.5 -78.16 263.8 -87.93 371.3 -87.93 439.7 127 263.8 29.31 234.5 234.5 469 469 263.8 254 205.2
0.785 586.2 508.1 293.1 302.9 -263.8 136.8 400.6 429.9 371.3 732.8 -156.3 283.3 136.8 351.7 48.85 566.7 224.7 205.2 566.7 68.39
0.79 351.7 371.3 127 19.54 -478.7 -312.7 263.8 234.5 537.4 732.8 -136.8 -146.6 -127 175.9 410.4 371.3 -29.31 -29.31 596 -39.08
0.795 302.9 146.6 371.3 0 -19.54 -127 625.3 293.1 928.2 820.7 -312.7 0 312.7 195.4 596 254 -29.31 29.31 810.9 -39.08
0.8 342 78.16 146.6 -302.9 0 -429.9 1241 127 1280 664.4 195.4 -527.6 -596 -29.31 752.3 -78.16 -127 -39.08 967.3 78.16
0.805 351.7 175.9 224.7 -205.2 -78.16 -78.16 576.5 214.9 1045 576.5 117.2 -48.85 117.2 48.85 478.7 -175.9 -224.7 254 615.5 -312.7
0.81 293.1 234.5 68.39 -78.16 146.6 224.7 771.9 214.9 996.6 332.2 78.16 146.6 -342 -97.7 214.9 -410.4 -185.6 371.3 556.9 -254
0.815 312.7 351.7 -195.4 185.6 -332.2 273.6 68.39 39.08 410.4 0 58.62 410.4 244.3 127 -420.1 -508.1 -293.1 420.1 117.2 -556.9
0.82 371.3 439.7 29.31 351.7 78.16 596 136.8 0 342 -293.1 -58.62 410.4 -713.2 -205.2 -19.54 -723 58.62 527.6 224.7 -293.1
0.825 381 693.7 195.4 947.7 244.3 1085 185.6 342 117.2 -205.2 -78.16 801.2 0 136.8 -254 -439.7 127 850 97.7 -469
0.83 596 508.1 283.3 762.1 136.8 1016 312.7 244.3 19.54 -381 175.9 605.8 -371.3 68.39 117.2 -517.8 361.5 810.9 87.93 -214.9
0.835 732.8 918.4 615.5 1241 625.3 1514 429.9 713.2 -146.6 -19.54 283.3 1045 224.7 400.6 205.2 -68.39 596 1241 -19.54 -381
0.84 683.9 1026 429.9 1143 -19.54 1309 -107.5 508.1 -655.1 -107.5 293.1 957.5 371.3 449.4 -58.62 -9.77 478.7 996.6 -566.7 -420.1
0.845 1036 1221 850 1231 576.5 1309 439.7 576.5 -439.7 78.16 449.4 1114 -117.2 625.3 68.39 224.7 879.3 1055 -263.8 -97.7
0.85 879.3 1221 644.8 1045 29.31 1036 -537.4 449.4 -957.5 332.2 195.4 938 312.7 723 -9.77 576.5 556.9 713.2 -723 -283.3
0.855 1085 1192 771.9 664.4 449.4 683.9 19.54 361.5 -390.8 615.5 29.31 693.7 -410.4 566.7 -29.31 752.3 664.4 459.2 -224.7 127
0.86 928.2 762.1 254 322.4 -9.77 293.1 -293.1 205.2 -224.7 723 -48.85 469 332.2 439.7 312.7 742.6 185.6 68.39 -136.8 107.5
0.865 683.9 605.8 -9.77 -48.85 -175.9 -117.2 -234.5 78.16 78.16 947.7 0 87.93 68.39 175.9 -9.77 723 -58.62 -97.7 146.6 136.8
0.87 801.2 420.1 117.2 -48.85 -19.54 -185.6 332.2 58.62 732.8 1026 175.9 195.4 400.6 0 781.6 674.2 9.77 -97.7 683.9 332.2
0.875 537.4 410.4 -302.9 -127 -488.5 -175.9 293.1 107.5 771.9 947.7 -214.9 0 97.7 0 312.7 713.2 -273.6 -273.6 762.1 244.3
0.88 762.1 332.2 117.2 -332.2 78.16 -664.4 537.4 -312.7 1036 742.6 -29.31 -136.8 234.5 -78.16 547.1 254 -19.54 -351.7 1006 556.9
0.885 977 459.2 175.9 -97.7 19.54 -342 556.9 -166.1 1016 742.6 -78.16 -127 175.9 -19.54 429.9 381 -68.39 -361.5 996.6 410.4
0.89 1026 214.9 293.1 -312.7 332.2 -605.8 732.8 -263.8 1143 615.5 -29.31 78.16 175.9 29.31 498.3 302.9 -19.54 -351.7 1202 508.1
0.895 1065 390.8 156.3 -166.1 381 -449.4 713.2 -351.7 918.4 547.1 -39.08 19.54 175.9 0 136.8 48.85 0 -234.5 1163 410.4
0.9 967.3 361.5 234.5 -58.62 429.9 -107.5 967.3 -205.2 908.6 244.3 127 273.6 -214.9 -117.2 -205.2 -68.39 68.39 136.8 1319 312.7
0.905 1329 850 596 195.4 664.4 224.7 517.8 -322.4 635.1 -68.39 -29.31 332.2 302.9 -29.31 97.7 -302.9 302.9 351.7 1094 205.2
0.91 1378 957.5 596 429.9 469 449.4 879.3 -439.7 664.4 -517.8 537.4 449.4 107.5 -136.8 156.3 -820.7 576.5 459.2 1085 332.2
0.915 1847 1544 1426 1182 1329 1036 1221 -156.3 771.9 -566.7 459.2 762.1 342 48.85 342 -801.2 1163 1045 1280 254
0.92 1436 1514 1202 1407 918.4 1309 693.7 -19.54 400.6 -801.2 869.6 771.9 664.4 127 390.8 -928.2 1299 1114 1094 293.1
0.925 2003 2257 1661 2100 1241 1866 869.6 400.6 78.16 -693.7 1016 1466 68.39 420.1 302.9 -635.6 1563 1563 918.4 -58.62
0.93 1602 1935 1280 1720 644.8 1397 -87.93 87.93 -713.2 -1124 928.2 947.7 996.6 224.7 -293.1 -742.6 1299 1212 273.6 -78.16
0.935 1993 1915 1641 1690 1085 1426 39.08 273.6 -810.9 -859.8 1045 1075 332.2 439.7 127 -224.7 1426 1212 39.08 -107.5
0.94 1876 1524 1114 1104 459.2 742.6 -576.5 -136.8 -1339 -1025 869.6 713.2 420.1 254 -420.1 -205.2 1036 644.8 -537.4 -127
0.945 1485 1036 928.2 723 205.2 469 -644.8 19.54 -1036 -537.4 674.2 332.2 371.3 332.2 -214.9 371.3 801.2 263.8 -498.3 -29.31
0.95 1348 683.9 635.1 254 156.3 -244.3 -644.8 -244.3 -889.1 -234.5 556.9 0 -234.5 185.6 -234.5 527.6 488.5 -156.3 -537.4 9.77
0.955 947.7 469 469 117.2 97.7 -390.8 -576.5 29.31 -527.6 390.8 29.31 -254 107.5 205.2 -244.3 957.5 48.85 -390.8 -400.6 -107.5
0.96 429.9 -420.1 -19.54 -693.7 -703.5 -1348 -801.2 -429.9 -439.7 400.6 214.9 -586.2 -107.5 -214.9 -791.4 801.2 -576.5 -987.3 -527.6 -58.62
0.965 312.7 -371.3 107.5 -683.9 -381 -1309 -361.5 -234.5 19.54 713.2 -78.16 -664.4 -166.1 -58.62 -87.93 889.1 -537.4 -928.2 -117.2 58.62
0.97 39.08 -810.9 -302.9 -1182 -840.3 -1622 -527.6 -429.9 -29.31 605.8 29.31 -693.7 -156.3 -351.7 -488.5 615.5 -928.2 -1211 -205.2 48.85
0.975 29.31 -810.9 -332.2 -1211 -644.8 -1299 166.1 -293.1 342 596 107.5 -830.5 -283.3 -371.3 -195.4 459.2 -840.3 -1006 136.8 185.6
0.98 -68.39 -938 -332.2 -1299 -371.3 -1339 -244.3 -459.2 136.8 312.7 127 -918.4 -175.9 -508.1 78.16 175.9 -879.8 -957.5 19.54 87.93
0.985 -107.5 -605.8 -429.9 -791.4 -273.6 -693.7 48.85 -97.7 254 439.7 19.54 -596 -117.2 -273.6 78.16 234.5 -791.4 -498.3 136.8 -127
0.99 0 -859.8 263.8 -742.6 752.3 -683.9 625.3 -214.9 508.1 224.7 39.08 -615.5 -1064 -410.4 19.54 -78.16 -381 -342 596 205.2
0.995 -322.4 -576.5 -390.8 -351.7 -342 -312.7 -302.9 -107.5 146.6 175.9 68.39 -234.5 674.2 -214.9 283.3 -9.77 -742.6 -322.4 39.08 -263.8
1 -146.6 -410.4 97.7 -29.31 732.8 -117.2 674.2 -175.9 449.4 -48.85 -19.54 -107.5 -527.6 -469 273.6 -302.9 -195.4 19.54 439.7 -9.77
1.005 -234.5 -302.9 -146.6 78.16 -58.62 -87.93 -205.2 -332.2 -107.5 -429.9 166.1 -342 820.7 -635.6 -312.7 -576.5 -488.5 -166.1 -273.6 -283.3
1.01 -214.9 -9.77 -214.9 449.4 -469 127 -508.1 -351.7 -381 -683.9 351.7 -127 39.08 -449.4 273.6 -586.2 -175.9 -29.31 -586.2 -390.8
1.015 361.5 322.4 537.4 469 205.2 78.16 -400.6 -517.8 -674.6 -1133 732.8 -195.4 107.5 -508.1 -107.5 -859.8 342 156.3 -723 -166.1
1.02 547.1 439.7 850 771.9 146.6 478.7 -615.5 -390.8 -1104 -1573 615.5 -185.6 214.9 -195.4 -107.5 -996.6 683.9 459.2 -869.6 -224.7
1.025 1153 850 1299 1104 547.1 683.9 -390.8 -342 -1172 -1729 908.6 185.6 97.7 -68.39 -185.6 -1124 1319 879.3 -644.8 0
1.03 1241 1309 1309 1602 596 1114 -429.9 127 -1319 -1729 713.2 723 469 283.3 -322.4 -908.6 1407 1251 -556.9 -302.9
1.035 1407 1221 1290 1514 752.3 869.6 136.8 185.6 -938 -1602 771.9 732.8 48.85 175.9 -488.5 -928.2 1514 1202 -146.6 -29.31
1.04 1036 1163 1094 1358 420.1 752.3 -390.8 312.7 -947.7 -1211 674.2 879.3 498.3 263.8 -283.3 -625.3 1104 996.6 -195.4 -263.8
1.045 1006 918.4 1290 1153 898.9 615.5 420.1 586.2 -205.2 -439.7 674.2 830.5 -136.8 312.7 -127 -97.7 1104 977 429.9 -39.08
1.05 703.5 195.4 1055 508.1 1045 332.2 322.4 488.5 263.8 0 254 127 410.4 19.54 78.16 58.62 840.3 547.1 644.8 244.3
1.055 488.5 -19.54 752.3 429.9 488.5 400.6 244.3 713.2 439.7 693.7 322.4 136.8 342 234.5 0 566.7 576.5 527.6 732.8 107.5
1.06 205.2 -390.8 459.2 -39.08 771.9 87.93 508.1 635.1 742.6 830.5 -175.9 -400.6 156.3 0 -9.77 654.6 420.1 312.7 977 293.1
1.065 68.39 -449.4 146.6 -254 332.2 -254 488.5 459.2 781.6 898.9 9.77 -449.4 361.5 19.54 205.2 644.8 107.5 39.08 957.5 273.6
1.07 -371.3 -439.7 -224.7 -410.4 127 -244.3 488.5 674.2 683.9 1153 -185.6 -400.6 244.3 39.08 39.08 908.6 -322.4 19.54 830.5 -78.16
1.075 -547.6 -605.8 -283.3 -586.2 127 -361.5 644.8 674.2 752.3 1085 -175.9 -488.5 58.62 0 342 693.7 -478.7 -136.8 928.2 19.54
1.08 -556.9 -478.7 -381 -469 234.5 -48.85 957.5 1006 986.8 1397 -410.4 -302.9 78.16 117.2 449.4 996.6 -586.2 -39.08 1036 -175.9
1.085 -810.9 -771.9 -556.9 -527.6 0 -48.85 908.6 1075 947.7 1339 -234.5 -224.7 283.3 -39.08 556.9 840.3 -723 -87.93 977 -175.9
1.09 -713.2 -869.6 -635.6 -556.9 117.2 78.16 1016 1094 1006 1358 -469 -449.4 -195.4 78.16 342 791.4 -723 -58.62 918.4 -214.9
1.095 -1045 -967.8 -1006 -420.1 -439.7 254 429.9 1104 586.2 1299 -723 -332.2 293.1 244.3 -156.3 859.8 -938 -39.08 420.1 -508.1
1.1 -723 -840.3 -752.3 -517.8 -214.9 -195.4 478.7 625.3 508.1 908.6 -488.5 -683.9 -596 -214.9 87.93 566.7 -683.9 -254 136.8 -234.5
1.105 -478.7 -527.6 -469 -390.8 -9.77 29.31 674.2 576.5 459.2 791.4 -478.7 -488.5 48.85 48.85 146.6 596 -547.6 -136.8 -117.2 -322.4
1.11 -478.7 -371.3 -283.3 -214.9 -478.7 -195.4 -381 -9.77 -234.5 195.4 29.31 -625.3 -87.93 -214.9 -19.54 214.9 -410.4 -410.4 -683.9 -214.9
1.115 -429.9 -205.2 -527.6 -371.3 -791.4 -508.1 -556.9 -488.5 -547.6 -302.9 -68.39 -361.5 -19.54 -410.4 -156.3 -244.3 -439.7 -674.6 -1075 -136.8
1.12 -332.2 -58.62 -459.2 -78.16 -1299 -234.5 -1602 -655.1 -1387 -723 68.39 -283.3 459.2 -302.9 -488.5 -517.8 -332.2 -605.8 -1475 -293.1
1.125 -39.08 488.5 -302.9 390.8 -957.5 58.62 -1690 -498.3 -1866 -938 254 283.3 -9.77 -244.3 -713.2 -781.6 19.54 -107.5 -1387 -410.4
1.13 302.9 361.5 -254 244.3 -1006 -78.16 -1485 -635.6 -2120 -1280 381 78.16 185.6 -478.7 -1133 -1133 234.5 -48.85 -1163 -224.7
1.135 723 957.5 527.6 986.8 87.93 664.4 -693.7 9.77 -1856 -987.3 723 625.3 -254 48.85 -820.7 -928.2 791.4 762.1 -254 -273.6
1.14 781.6 723 469 459.2 547.1 156.3 -117.2 0 -1573 -1055 332.2 234.5 -78.16 -156.3 -1055 -1143 752.3 713.2 371.3 9.77
1.145 791.4 615.5 810.9 596 1075 537.4 576.5 596 -752.3 -508.1 596 302.9 273.6 97.7 -723 -810.9 918.4 1045 1192 48.85
1.15 322.4 400.6 302.9 332.2 908.6 459.2 977 928.2 -48.85 -19.54 -9.77 234.5 -146.6 254 -390.8 -449.4 605.8 957.5 1690 39.08
1.155 361.5 390.8 469 478.7 1143 791.4 1681 1436 840.3 781.6 254 576.5 283.3 566.7 -39.08 273.6 664.4 1104 2218 -19.54
1.16 9.77 -146.6 244.3 166.1 1036 889.1 2149 1690 1446 1299 136.8 -117.2 -146.6 547.1 136.8 723 361.5 810.9 2394 127
1.165 -342 -234.5 78.16 185.6 449.4 566.7 1505 1348 1466 1290 39.08 136.8 586.2 371.3 488.5 810.9 48.85 293.1 1778 117.2
1.17 -576.5 -400.6 -156.3 -68.39 576.5 488.5 1641 1319 1593 1553 -293.1 -146.6 -39.08 469 117.2 1202 -175.9 78.16 1378 0
1.175 -713.2 -762.1 -527.6 -556.9 0 -254 1192 615.5 1622 1231 -302.9 -615.5 361.5 48.85 1065 938 -596 -693.7 625.3 263.8
1.18 -1163 -898.9 -977.5 -869.6 -713.2 -742.6 214.9 175.9 1045 879.3 -351.7 -713.2 9.77 0 429.9 850 -1025 -1016 -244.3 9.77
1.185 -879.8 -664.4 -810.9 -596 9.77 -302.9 566.7 449.4 1260 1192 -351.7 -439.7 -381 9.77 762.1 1202 -840.3 -742.6 -254 -19.54
1.19 -1124 -1211 -1163 -1367 -1377 -1309 -537.4 -263.8 635.1 605.8 -283.3 -1036 166.1 -390.8 449.4 713.2 -1367 -1505 -957.5 19.54
1.195 -850 -1006 -781.6 -1075 -810.9 -938 -351.7 -234.5 439.7 469 -195.4 -810.9 -97.7 -322.4 244.3 674.2 -1025 -1172 -908.6 0
1.2 -879.8 -889.1 -898.9 -1133 -1309 -1192 -703.5 -605.8 48.85 146.6 -214.9 -781.6 107.5 -312.7 166.1 469 -987.3 -1367 -1114 58.62
1.205 -850 -918.4 -1025 -1182 -1700 -1446 -1133 -996.6 -547.6 -351.7 -166.1 -771.9 87.93 -429.9 -322.4 117.2 -1045 -1514 -1426 39.08
1.21 -596 -273.6 -342 -635.6 -859.8 -1016 -967.8 -879.8 -674.6 -517.8 -263.8 -586.2 -205.2 -322.4 -478.7 -19.54 -596 -1085 -1290 -48.85
1.215 -586.2 -244.3 -820.7 -605.8 -1290 -1036 -1367 -1045 -1036 -957.5 -127 -488.5 -342 -390.8 -508.1 -361.5 -576.5 -1114 -1466 19.54
1.22 -39.08 -68.39 0 -420.1 -469 -869.6 -1075 -1064 -1085 -1290 -175.9 -537.4 -478.7 -498.3 -1055 -771.9 -39.08 -752.3 -1124 244.3
1.225 68.39 -29.31 -214.9 -185.6 -879.8 -615.5 -1436 -1045 -1514 -1671 420.1 -136.8 -302.9 -390.8 -928.2 -977.5 68.39 -566.7 -1172 58.62
1.23 508.1 283.3 214.9 332.2 -195.4 29.31 -1075 -713.2 -1475 -1817 517.8 87.93 -508.1 -469 -947.7 -1329 596 -19.54 -615.5 136.8
1.235 615.5 420.1 449.4 459.2 -107.5 -19.54 -1182 -810.9 -1787 -2090 771.9 273.6 -342 -166.1 -1064 -1690 664.4 175.9 -527.6 -39.08
1.24 527.6 771.9 644.8 810.9 420.1 361.5 -1025 -527.6 -1856 -2022 683.9 459.2 -205.2 -78.16 -1036 -1827 840.3 674.2 -136.8 -224.7
1.245 644.8 869.6 1065 771.9 1221 263.8 -527.6 -478.7 -1641 -2022 527.6 175.9 381 -136.8 -1270 -1944 938 879.3 136.8 -214.9
1.25 654.6 791.4 967.3 615.5 1016 254 -107.5 -400.6 -1133 -1700 635.1 381 117.2 48.85 -762.1 -1749 1026 967.3 449.4 -107.5
1.255 439.7 752.3 1026 683.9 1417 664.4 371.3 107.5 -596 -1085 273.6 361.5 -469 166.1 -674.6 -1201 908.6 1114 644.8 -166.1
1.26 517.8 166.1 820.7 185.6 967.3 410.4 967.3 205.2 293.1 -566.7 517.8 107.5 156.3 58.62 185.6 -703.5 732.8 596 869.6 166.1
1.265 -224.7 -166.1 175.9 127 283.3 605.8 674.2 586.2 791.4 439.7 -19.54 322.4 -439.7 371.3 283.3 166.1 185.6 478.7 752.3 -29.31
1.27 -478.7 -683.9 -107.5 -781.6 175.9 -263.8 801.2 166.1 1299 596 -273.6 -420.1 -19.54 0 537.4 283.3 -312.7 -244.3 517.8 244.3
1.275 -938 -859.8 -586.2 -928.2 -410.4 -517.8 322.4 0 1456 928.2 -488.5 -263.8 312.7 78.16 820.7 615.5 -762.1 -586.2 68.39 127
1.28 -1387 -1270 -1153 -1485 -957.5 -1163 -127 -429.9 1260 850 -576.5 -889.1 -175.9 -390.8 517.8 625.3 -1416 -1280 -547.6 87.93
1.285 -1358 -1475 -1064 -1856 -644.8 -1671 29.31 -859.8 1231 508.1 -703.5 -1124 -361.5 -576.5 566.7 449.4 -1348 -1514 -781.6 283.3
1.29 -1319 -1582 -1211 -1807 -781.6 -1807 -342 -1075 781.6 390.8 -840.3 -1240 -156.3 -683.9 127 498.3 -1573 -1690 -1260 166.1
1.295 -1133 -1280 -1133 -1593 -1055 -1778 -576.5 -1114 586.2 351.7 -791.4 -869.6 -439.7 -498.3 322.4 566.7 -1406 -1632 -1329 136.8
1.3 -1133 -1446 -869.6 -1778 -947.7 -2022 -859.8 -1397 185.6 -9.77 -596 -1182 -166.1 -508.1 117.2 449.4 -1387 -1768 -1563 156.3
1.305 -1045 -869.6 -1143 -1339 -1475 -1700 -1309 -1339 -117.2 -78.16 -664.4 -693.7 9.77 -410.4 283.3 410.4 -1290 -1622 -1641 39.08
1.31 -869.6 -762.1 -928.2 -1064 -1104 -1280 -1163 -1143 -136.8 -214.9 -410.4 -771.9 -48.85 -293.1 127 322.4 -977.5 -1377 -1387 58.62
1.315 -713.2 -566.7 -1153 -869.6 -1104 -1221 -1290 -1348 -449.4 -566.7 -429.9 -469 -342 -214.9 -244.3 -87.93 -742.6 -1240 -1290 107.5
1.32 -263.8 -205.2 -429.9 -371.3 -420.1 -810.9 -840.3 -1153 -420.1 -781.6 156.3 -254 29.31 -302.9 -146.6 -488.5 -107.5 -693.7 -791.4 214.9
1.325 107.5 68.39 -107.5 29.31 -48.85 -508.1 -869.6 -1094 -762.1 -1064 39.08 48.85 -146.6 -332.2 -478.7 -879.8 205.2 -371.3 -537.4 244.3
1.33 58.62 273.6 214.9 439.7 312.7 -87.93 -771.9 -742.6 -996.6 -1201 273.6 48.85 -117.2 -527.6 -1016 -1250 439.7 205.2 -283.3 0
1.335 625.3 674.2 1143 889.1 1632 644.8 -39.08 -68.39 -742.6 -889.1 166.1 390.8 -283.3 -214.9 -439.7 -1055 1172 898.9 576.5 254
1.34 449.4 762.1 683.9 1133 820.7 947.7 -371.3 185.6 -1172 -781.6 537.4 664.4 48.85 -195.4 -1201 -1055 967.3 1114 478.7 -107.5
1.345 664.4 820.7 1075 1329 1280 1270 -87.93 537.4 -1025 -351.7 615.5 996.6 9.77 214.9 -879.8 -752.3 1339 1329 898.9 39.08
1.35 967.3 703.5 1114 1114 1153 967.3 429.9 459.2 -791.4 -244.3 859.8 898.9 -371.3 273.6 -869.6 -556.9 1358 1114 1036 312.7
1.355 840.3 693.7 1085 1045 1065 742.6 107.5 312.7 -713.2 -195.4 556.9 840.3 -263.8 351.7 -683.9 -400.6 1143 859.8 693.7 195.4
1.36 488.5 263.8 547.1 478.7 195.4 214.9 -351.7 -29.31 -625.3 -195.4 420.1 351.7 -9.77 117.2 -234.5 -263.8 517.8 205.2 185.6 205.2
1.365 205.2 97.7 469 19.54 381 -166.1 -244.3 -166.1 -39.08 -19.54 117.2 29.31 29.31 29.31 117.2 78.16 107.5 -283.3 -78.16 283.3
1.37 -420.1 -488.5 -127 -576.5 -166.1 -498.3 -322.4 -293.1 449.4 214.9 29.31 -322.4 381 -29.31 703.5 586.2 -469 -840.3 -283.3 263.8
1.375 -928.2 -635.6 -703.5 -791.4 -1143 -586.2 -556.9 -390.8 664.4 517.8 -224.7 -254 97.7 -97.7 879.3 820.7 -957.5 -1114 -615.5 9.77
1.38 -1290 -1104 -840.3 -1231 -1114 -840.3 -400.6 -664.4 781.6 400.6 -371.3 -918.4 78.16 -400.6 478.7 889.1 -1250 -1573 -830.5 146.6
1.385 -1319 -1006 -1133 -1201 -1192 -957.5 -371.3 -947.7 762.1 420.1 -859.8 -488.5 97.7 68.39 527.6 840.3 -1260 -1456 -1036 -48.85
1.39 -1094 -1006 -1201 -1339 -1534 -1397 -820.7 -1466 478.7 -9.77 -537.4 -1055 -19.54 -459.2 488.5 410.4 -1260 -1837 -1475 175.9
1.395 -674.6 -889.1 -693.7 -1104 -1036 -1397 -644.8 -1534 400.6 -58.62 -459.2 -625.3 39.08 -312.7 654.6 390.8 -928.2 -1602 -1436 224.7
1.4 -273.6 -478.7 -596 -801.2 -967.8 -1250 -781.6 -1593 127 -439.7 -68.39 -605.8 214.9 -400.6 732.8 29.31 -556.9 -1377 -1397 273.6
1.405 -156.3 -156.3 -400.6 -244.3 -703.5 -498.3 -635.6 -1006 48.85 -214.9 -146.6 -214.9 107.5 -156.3 556.9 254 -449.4 -840.3 -1114 58.62
1.41 -273.6 -234.5 -254 -459.2 -156.3 -439.7 -371.3 -791.4 -87.93 -342 156.3 -39.08 -283.3 -127 293.1 0 -302.9 -488.5 -664.4 136.8
1.415 -205.2 146.6 -205.2 -9.77 156.3 254 127 -273.6 -78.16 -205.2 39.08 371.3 -39.08 166.1 -166.1 -29.31 -107.5 97.7 -48.85 -39.08
1.42 -156.3 87.93 -117.2 -166.1 508.1 312.7 48.85 -224.7 -166.1 -332.2 -127 429.9 -273.6 -39.08 175.9 -400.6 -39.08 224.7 273.6 78.16
1.425 381 654.6 537.4 635.1 1094 1153 576.5 332.2 -97.7 -205.2 342 996.6 78.16 214.9 -58.62 -459.2 713.2 1065 957.5 48.85
1.43 693.7 1309 537.4 1407 840.3 1720 146.6 527.6 -547.6 -361.5 566.7 1407 410.4 312.7 97.7 -693.7 977 1407 840.3 -302.9
1.435 1085 1182 889.1 1593 1378 1847 156.3 439.7 -742.6 -771.9 478.7 1143 332.2 214.9 19.54 -1133 1495 1514 1143 97.7
1.44 1270 1720 977 2149 1104 2306 -78.16 742.6 -1250 -752.3 801.2 1661 205.2 508.1 -439.7 -1064 1778 1749 1075 -87.93
1.445 1563 1348 1456 1974 2071 2051 361.5 556.9 -1329 -928.2 361.5 1358 -547.6 371.3 -830.5 -1172 2218 1700 1446 449.4
1.45 1280 1221 1104 1563 1055 1710 -469 449.4 -1798 -781.6 351.7 1124 351.7 371.3 -732.8 -938 1700 1299 771.9 175.9
1.455 1075 1417 996.6 1514 1065 1622 -39.08 498.3 -1339 -342 273.6 957.5 -175.9 332.2 -556.9 -459.2 1563 1241 781.6 205.2
1.46 723 1143 635.1 996.6 381 1163 -439.7 263.8 -908.6 78.16 205.2 566.7 400.6 234.5 -146.6 -87.93 879.3 664.4 185.6 -9.77
1.465 97.7 703.5 -342 381 -791.4 244.3 -810.9 -390.8 -381 205.2 -244.3 244.3 342 302.9 166.1 156.3 -78.16 -146.6 -537.4 -195.4
1.47 -254 195.4 -488.5 -156.3 -791.4 -234.5 -459.2 -635.6 527.6 410.4 -361.5 156.3 166.1 175.9 537.4 342 -429.9 -762.1 -596 107.5
1.475 -537.4 -439.7 -977.5 -820.7 -859.8 -1055 -48.85 -1143 1075 322.4 -840.3 -175.9 -439.7 48.85 566.7 371.3 -869.6 -1397 -674.6 390.8
1.48 -977.5 -967.8 -1182 -1201 -820.7 -1221 -136.8 -1270 1094 263.8 -1240 -283.3 -713.2 68.39 478.7 400.6 -1280 -1534 -967.8 283.3
1.485 -1201 -1025 -1397 -1446 -879.8 -1299 117.2 -1172 1319 420.1 -1319 -635.6 -39.08 -107.5 752.3 488.5 -1534 -1651 -996.6 254
1.49 -1329 -1064 -1641 -1573 -938 -1211 48.85 -1094 1045 156.3 -1211 -537.4 -517.8 -78.16 644.8 390.8 -1671 -1612 -987.3 214.9
1.495 -1505 -752.3 -1837 -1406 -1221 -1104 -185.6 -801.2 840.3 312.7 -1319 -244.3 156.3 185.6 791.4 635.1 -1768 -1495 -928.2 -58.62
1.5 -1563 -947.7 -2081 -1466 -1632 -1133 -214.9 -625.3 596 273.6 -1192 -254 205.2 -19.54 390.8 302.9 -1768 -1495 -664.4 -9.77
1.505 -1055 -898.9 -1329 -1143 -693.7 -820.7 390.8 -234.5 908.6 381 -1075 -175.9 -146.6 58.62 537.4 342 -1163 -1133 78.16 254
1.51 -586.2 -459.2 -655.1 -381 68.39 -107.5 752.3 283.3 918.4 713.2 -596 175.9 -175.9 156.3 488.5 302.9 -449.4 -371.3 605.8 263.8
1.515 -312.7 -214.9 -117.2 175.9 459.2 400.6 801.2 654.6 830.5 781.6 -556.9 381 -107.5 117.2 342 420.1 19.54 107.5 840.3 205.2
1.52 263.8 342 469 537.4 928.2 586.2 810.9 625.3 683.9 683.9 -166.1 469 -9.77 166.1 293.1 166.1 576.5 488.5 957.5 254
1.525 459.2 947.7 683.9 1026 791.4 938 537.4 644.8 302.9 332.2 29.31 830.5 117.2 234.5 -175.9 0 879.3 742.6 791.4 68.39
1.53 879.3 1260 840.3 1270 664.4 1094 439.7 703.5 107.5 205.2 127 1065 87.93 351.7 -293.1 -185.6 1143 1006 801.2 -68.39
1.535 1075 1505 938 1485 654.6 1436 371.3 810.9 -48.85 -97.7 478.7 850 -87.93 596 -78.16 -302.9 1348 1055 810.9 -58.62
1.54 1387 1612 1094 1563 693.7 1221 293.1 596 -166.1 -302.9 635.1 1231 273.6 605.8 -342 -420.1 1573 1065 810.9 39.08
1.545 1534 1690 1290 1710 1055 1495 439.7 830.5 -127 -58.62 654.6 1143 146.6 771.9 -342 -127 1768 1212 1026 195.4
1.55 1505 1524 1456 1641 1153 1299 644.8 683.9 -127 -68.39 527.6 1094 -351.7 810.9 -683.9 0 1954 1045 1182 459.2
1.555 1466 1153 1700 1426 1485 986.8 244.3 508.1 -195.4 9.77 322.4 1241 263.8 781.6 -332.2 136.8 1974 713.2 967.3 615.5
1.56 1006 840.3 830.5 1016 635.1 683.9 29.31 342 -508.1 -117.2 254 801.2 -664.4 527.6 -869.6 234.5 1387 293.1 537.4 508.1
1.565 732.8 498.3 420.1 586.2 48.85 224.7 -302.9 29.31 -478.7 -273.6 322.4 869.6 68.39 390.8 -390.8 234.5 996.6 -263.8 146.6 605.8
1.57 312.7 244.3 -234.5 -78.16 -683.9 -429.9 -566.7 -351.7 -449.4 -293.1 185.6 332.2 -97.7 87.93 -78.16 254 283.3 -830.5 -400.6 478.7
1.575 -9.77 234.5 -683.9 -361.5 -1367 -723 -655.1 -625.3 -381 -400.6 68.39 254 -19.54 -9.77 9.77 195.4 -254 -1133 -771.9 390.8
1.58 -39.08 156.3 -508.1 -586.2 -977.5 -928.2 -146.6 -683.9 29.31 -283.3 -214.9 -107.5 -78.16 -166.1 195.4 195.4 -429.9 -1064 -655.1 283.3
1.585 -420.1 -68.39 -449.4 -527.6 -830.5 -625.3 39.08 -381 283.3 29.31 -312.7 -107.5 -136.8 -78.16 371.3 283.3 -674.6 -713.2 -576.5 -87.93
1.59 -527.6 -156.3 -459.2 -449.4 -48.85 -566.7 703.5 -136.8 840.3 390.8 -547.6 -107.5 -664.4 -19.54 644.8 429.9 -644.8 -361.5 -58.62 -117.2
1.595 -791.4 -48.85 -508.1 -39.08 -371.3 68.39 693.7 488.5 967.3 1016 -723 224.7 48.85 234.5 869.6 801.2 -869.6 195.4 -29.31 -771.9
1.6 -938 224.7 -781.6 175.9 -29.31 322.4 889.1 781.6 820.7 1172 -723 469 -693.7 488.5 -78.16 918.4 -791.4 625.3 146.6 -1016
1.605 -791.4 488.5 -938 146.6 -655.1 283.3 244.3 703.5 596 1163 -859.8 224.7 156.3 214.9 664.4 762.1 -859.8 439.7 -283.3 -1133
1.61 -185.6 683.9 -185.6 332.2 127 615.5 810.9 918.4 596 859.8 -361.5 332.2 -283.3 312.7 117.2 596 -205.2 762.1 234.5 -674.6
1.615 68.39 742.6 -166.1 107.5 -361.5 -78.16 166.1 224.7 127 254 -9.77 48.85 58.62 -97.7 224.7 9.77 -107.5 156.3 -166.1 -244.3
1.62 810.9 859.8 586.2 488.5 361.5 322.4 342 429.9 117.2 78.16 195.4 97.7 244.3 0 342 68.39 586.2 449.4 244.3 136.8
1.625 889.1 762.1 820.7 459.2 439.7 39.08 48.85 156.3 -273.6 -371.3 390.8 273.6 205.2 -29.31 29.31 -117.2 752.3 302.9 127 342
1.63 1299 1114 996.6 1055 459.2 410.4 -273.6 293.1 -703.5 -488.5 596 654.6 429.9 273.6 -342 -39.08 1094 605.8 195.4 283.3
1.635 1583 1348 1329 1055 596 625.3 -293.1 478.7 -850 -566.7 664.4 859.8 156.3 322.4 -136.8 48.85 1475 801.2 498.3 410.4
1.64 1788 1446 1436 1260 713.2 820.7 -302.9 566.7 -1045 -615.5 918.4 977 117.2 410.4 -713.2 -68.39 1622 879.3 615.5 410.4
1.645 1710 1544 1192 1094 429.9 674.2 -410.4 566.7 -1055 -390.8 859.8 908.6 293.1 517.8 -674.6 -19.54 1514 810.9 654.6 410.4
1.65 1700 1446 1368 1124 742.6 791.4 -87.93 644.8 -655.1 -175.9 859.8 928.2 48.85 537.4 -556.9 68.39 1612 840.3 918.4 459.2
1.655 1407 1153 1202 752.3 889.1 439.7 224.7 498.3 -214.9 -9.77 410.4 420.1 205.2 322.4 -439.7 87.93 1270 625.3 879.3 478.7
1.66 1172 859.8 1309 556.9 947.7 332.2 625.3 517.8 293.1 175.9 644.8 469 -68.39 263.8 -195.4 205.2 1124 664.4 1055 381
1.665 977 674.2 1202 469 1299 322.4 1231 576.5 947.7 371.3 117.2 97.7 498.3 48.85 390.8 156.3 947.7 674.2 1153 351.7
1.67 410.4 439.7 302.9 156.3 439.7 156.3 1075 527.6 977 390.8 -48.85 19.54 195.4 -9.77 -19.54 166.1 293.1 469 801.2 9.77
1.675 498.3 351.7 439.7 117.2 967.3 312.7 2090 801.2 1856 762.1 -58.62 -39.08 9.77 39.08 1094 381 420.1 556.9 1192 146.6
1.68 -205.2 371.3 -762.1 -78.16 -351.7 185.6 947.7 615.5 1182 664.4 -136.8 -9.77 381 -136.8 576.5 361.5 -381 244.3 410.4 -322.4
1.685 -107.5 263.8 -332.2 -214.9 273.6 410.4 1593 830.5 1651 869.6 -400.6 -449.4 87.93 -332.2 1114 556.9 -332.2 273.6 635.1 -175.9
1.69 -527.6 -244.3 -1025 -820.7 -342 -517.8 644.8 166.1 1104 498.3 -469 -576.5 -683.9 -293.1 801.2 342 -967.8 -293.1 -9.77 -234.5
1.695 -576.5 -146.6 -928.2 -771.9 -683.9 -371.3 244.3 302.9 1006 791.4 -576.5 -596 488.5 -244.3 859.8 644.8 -1182 -420.1 -185.6 -381
1.7 -586.2 -429.9 -791.4 -1221 -78.16 -1075 850 -185.6 1231 527.6 -957.5 -879.8 -752.3 -449.4 625.3 381 -1094 -703.5 87.93 107.5
1.705 -771.9 -39.08 -1143 -791.4 -1055 -771.9 -254 58.62 635.1 742.6 -850 -342 175.9 -39.08 -117.2 723 -1290 -410.4 -224.7 -469
1.71 -771.9 -283.3 -742.6 -605.8 -449.4 -449.4 527.6 293.1 1065 732.8 -889.1 -342 -48.85 -166.1 635.1 576.5 -752.3 -136.8 459.2 -39.08
1.715 -381 283.3 -566.7 -439.7 -429.9 -478.7 -166.1 185.6 508.1 478.7 -625.3 -371.3 175.9 -332.2 136.8 312.7 -713.2 -97.7 19.54 -361.5
1.72 -175.9 19.54 -214.9 -381 -390.8 -302.9 -214.9 136.8 371.3 254 9.77 -87.93 -175.9 -371.3 381 -39.08 -381 107.5 97.7 -254
1.725 -39.08 214.9 -644.8 -566.7 -869.6 -644.8 -947.7 -439.7 -322.4 -312.7 -156.3 -361.5 -127 -703.5 -263.8 -605.8 -781.6 -351.7 -771.9 -469
1.73 -195.4 156.3 -508.1 -478.7 -1094 -586.2 -1514 -683.9 -947.7 -713.2 19.54 -342 -302.9 -742.6 -1182 -967.8 -762.1 -224.7 -1290 -683.9
1.735 0 342 -185.6 39.08 -830.5 -224.7 -1456 -615.5 -987.3 -781.6 117.2 -136.8 -322.4 -576.5 -791.4 -967.8 -322.4 97.7 -1290 -605.8
1.74 97.7 596 -224.7 459.2 -938 175.9 -1573 -469 -1495 -1006 175.9 332.2 -615.5 -410.4 -1416 -1025 -78.16 488.5 -1299 -781.6
1.745 410.4 508.1 517.8 674.2 -58.62 400.6 -928.2 -117.2 -1211 -879.8 644.8 214.9 -420.1 -469 -850 -938 459.2 918.4 -683.9 -547.6
1.75 254 312.7 361.5 654.6 39.08 654.6 -820.7 351.7 -1339 -635.6 322.4 273.6 -586.2 -127 -1114 -605.8 410.4 1212 -302.9 -605.8
1.755 469 68.39 752.3 400.6 1182 762.1 48.85 947.7 -742.6 -127 127 68.39 -655.1 29.31 -703.5 -185.6 517.8 1514 498.3 -469
1.76 -371.3 -556.9 0 -293.1 420.1 449.4 -29.31 1055 -478.7 263.8 263.8 -322.4 68.39 48.85 -644.8 185.6 -166.1 1045 625.3 -459.2
1.765 -625.3 -820.7 -214.9 -459.2 654.6 498.3 576.5 1407 156.3 947.7 -117.2 -390.8 -146.6 175.9 -293.1 703.5 -449.4 1006 840.3 -547.6
1.77 -655.1 -664.4 -371.3 -488.5 185.6 342 810.9 1397 625.3 1319 420.1 -302.9 342 136.8 146.6 928.2 -752.3 644.8 615.5 -596
1.775 -1133 -1124 -762.1 -723 -498.3 244.3 625.3 1280 850 1485 332.2 -693.7 263.8 175.9 156.3 1163 -1094 166.1 195.4 -556.9
1.78 -859.8 -1231 -478.7 -713.2 -351.7 -9.77 693.7 977 1133 1378 127 -781.6 87.93 -48.85 820.7 1163 -879.8 -146.6 -39.08 -342
1.785 -1280 -1661 -859.8 -1201 -859.8 -488.5 136.8 547.1 898.9 1016 -39.08 -987.3 -9.77 -205.2 449.4 947.7 -1211 -596 -537.4 -273.6
1.79 -1133 -1524 -801.2 -1201 -547.6 -596 48.85 283.3 840.3 967.3 -175.9 -947.7 -439.7 -175.9 537.4 977 -1143 -644.8 -683.9 -273.6
1.795 -1153 -1681 -1329 -1466 -1085 -1075 -381 -351.7 527.6 400.6 -625.3 -869.6 -234.5 -420.1 302.9 498.3 -1387 -1172 -1036 -68.39
1.8 -957.5 -1436 -1240 -1367 -1133 -1094 -429.9 -517.8 410.4 381 -420.1 -830.5 -625.3 -400.6 390.8 469 -1319 -1163 -1163 -117.2
1.805 -1064 -1114 -1446 -1270 -1690 -1319 -1290 -1114 -322.4 -156.3 -439.7 -732.8 -68.39 -576.5 -478.7 58.62 -1426 -1358 -1651 -195.4
1.81 -605.8 -967.8 -928.2 -1085 -1240 -1240 -830.5 -1192 -107.5 -381 -332.2 -810.9 -478.7 -625.3 214.9 -117.2 -938 -1329 -1280 214.9
1.815 -791.4 -967.8 -869.6 -1064 -1729 -1495 -2149 -1661 -1153 -889.1 -195.4 -664.4 156.3 -703.5 -273.6 -527.6 -1094 -1406 -1856 -48.85
1.82 -195.4 -693.7 -107.5 -644.8 -723 -1016 -1329 -1466 -967.8 -1036 48.85 -498.3 -205.2 -635.6 -97.7 -732.8 -371.3 -869.6 -1211 214.9
1.825 0 -615.5 29.31 -342 -625.3 -742.6 -1456 -1348 -1348 -1270 -9.77 -351.7 107.5 -576.5 -361.5 -1075 -166.1 -498.3 -1172 87.93
1.83 400.6 -283.3 508.1 224.7 -19.54 -78.16 -908.6 -820.7 -1231 -1045 410.4 97.7 205.2 -273.6 -342 -1016 439.7 244.3 -586.2 29.31
1.835 859.8 302.9 967.3 771.9 762.1 625.3 -136.8 -205.2 -1045 -908.6 644.8 371.3 0 -19.54 -449.4 -1085 1055 957.5 127 19.54
1.84 947.7 293.1 938 1143 810.9 1153 19.54 263.8 -1182 -938 977 781.6 478.7 -39.08 -605.8 -1260 1339 1368 683.9 87.93
1.845 1026 713.2 1192 1544 1270 2003 498.3 1270 -1104 -459.2 879.3 635.1 127 175.9 -732.8 -918.4 1563 1974 1446 9.77
1.85 957.5 342 1299 1270 1251 1808 508.1 1387 -1163 -508.1 859.8 771.9 263.8 156.3 -1036 -1006 1456 1974 1778 146.6
1.855 938 263.8 1505 1426 1573 2277 840.3 2051 -850 39.08 879.3 508.1 -87.93 244.3 -576.5 -429.9 1514 2169 2247 195.4
1.86 693.7 146.6 1133 1006 1348 1827 1387 2051 -224.7 410.4 537.4 478.7 205.2 420.1 -615.5 -19.54 967.3 1788 2100 107.5
1.865 293.1 68.39 879.3 820.7 1309 1622 947.7 2012 117.2 957.5 205.2 420.1 87.93 644.8 195.4 635.1 654.6 1563 1612 -234.5
1.87 -224.7 -68.39 78.16 410.4 410.4 1075 986.8 1710 693.7 1407 29.31 87.93 449.4 517.8 556.9 1192 -136.8 820.7 928.2 -488.5
1.875 -683.9 -214.9 -371.3 0 -127 576.5 898.9 1085 1085 1505 -655.1 29.31 -68.39 312.7 762.1 1231 -517.8 175.9 410.4 -410.4
1.88 -1143 -625.3 -996.6 -517.8 -1006 -68.39 -127 508.1 840.3 1485 -410.4 -586.2 166.1 -39.08 615.5 1329 -1221 -449.4 -488.5 -664.4
1.885 -1182 -889.1 -938 -938 -1377 -508.1 -48.85 0 1045 1348 -371.3 -762.1 87.93 -214.9 566.7 1143 -1436 -996.6 -801.2 -429.9
1.89 -1426 -1358 -1348 -1299 -1700 -977.5 -439.7 -547.6 820.7 1045 -527.6 -1114 -58.62 -547.6 508.1 908.6 -1690 -1426 -1231 -351.7
1.895 -1201 -1182 -1192 -1085 -1651 -859.8 -566.7 -517.8 771.9 996.6 -566.7 -996.6 254 -478.7 605.8 928.2 -1475 -1329 -1319 -263.8
1.9 -1201 -1377 -1280 -1143 -1768 -791.4 -752.3 -693.7 420.1 556.9 -556.9 -1367 -39.08 -537.4 214.9 732.8 -1446 -1299 -1632 -283.3
1.905 -1006 -957.5 -967.8 -830.5 -1104 -752.3 -713.2 -635.6 -19.54 322.4 -693.7 -791.4 78.16 -429.9 -332.2 635.1 -1153 -889.1 -1768 -410.4
1.91 -742.6 -869.6 -762.1 -879.8 -918.4 -1036 -810.9 -1025 -234.5 -205.2 -420.1 -1045 -224.7 -361.5 78.16 302.9 -859.8 -938 -1885 -234.5
1.915 -420.1 -703.5 -703.5 -850 -762.1 -1231 -1055 -1329 -840.3 -723 -312.7 -655.1 -273.6 -449.4 -478.7 -68.39 -830.5 -889.1 -2100 -205.2
1.92 -263.8 -605.8 -19.54 -566.7 -156.3 -1085 -810.9 -1475 -908.6 -967.8 -205.2 -429.9 -29.31 -420.1 -224.7 -478.7 -322.4 -596 -1729 29.31
1.925 469 -175.9 810.9 156.3 850 -293.1 146.6 -987.3 -527.6 -850 273.6 195.4 -547.6 -195.4 -361.5 -556.9 459.2 117.2 -850 214.9
1.93 224.7 -58.62 478.7 469 439.7 136.8 -381 -781.6 -967.8 -810.9 312.7 127 39.08 -234.5 -439.7 -801.2 449.4 390.8 -703.5 19.54
1.935 654.6 517.8 1124 1172 996.6 889.1 322.4 -146.6 -674.6 -635.6 859.8 556.9 195.4 9.77 -449.4 -898.9 1016 1085 117.2 -48.85
1.94 429.9 498.3 439.7 1085 439.7 947.7 -214.9 -68.39 -1114 -556.9 674.2 371.3 508.1 -39.08 -1133 -996.6 732.8 1094 107.5 -302.9
1.945 928.2 850 1026 1426 850 1329 302.9 342 -703.5 -449.4 908.6 547.1 449.4 29.31 -361.5 -1094 1270 1339 879.3 9.77
1.95 1114 615.5 1114 1280 1114 1319 566.7 596 -556.9 -263.8 723 361.5 205.2 107.5 -644.8 -918.4 1309 1358 1290 58.62
1.955 1299 801.2 1602 1368 2267 1485 1544 996.6 224.7 68.39 390.8 586.2 -234.5 381 -117.2 -655.1 1681 1495 1866 400.6
1.96 1172 556.9 1309 1212 1436 1309 1055 1124 302.9 381 615.5 683.9 0 498.3 -9.77 -175.9 1397 1172 1681 322.4
1.965 683.9 166.1 1163 791.4 1485 830.5 1143 967.3 586.2 566.7 48.85 185.6 400.6 390.8 156.3 136.8 918.4 752.3 1231 244.3
1.97 293.1 39.08 537.4 635.1 781.6 869.6 693.7 1045 674.2 850 78.16 381 400.6 596 576.5 635.1 390.8 459.2 732.8 39.08
1.975 -390.8 -517.8 -185.6 -254 -273.6 -224.7 166.1 400.6 537.4 771.9 -146.6 -576.5 342 29.31 214.9 654.6 -576.5 -429.9 -48.85 -107.5
1.98 -732.8 -1094 -762.1 -1094 -752.3 -898.9 -78.16 -58.62 664.4 683.9 -508.1 -859.8 97.7 -156.3 517.8 625.3 -1240 -1075 -478.7 -9.77
1.985 -635.6 -1240 -566.7 -1514 -439.7 -1485 449.4 -469 1016 576.5 -244.3 -1036 -146.6 -312.7 713.2 498.3 -1192 -1329 -371.3 322.4
1.99 -1319 -1602 -1446 -2012 -1495 -2032 -859.8 -1094 283.3 283.3 -664.4 -1270 117.2 -459.2 654.6 302.9 -1846 -1787 -1143 97.7
1.995 -1025 -1426 -938 -1778 -987.3 -1905 -429.9 -1221 351.7 87.93 -97.7 -947.7 127 -400.6 703.5 195.4 -1495 -1553 -1104 175.9
2 -1182 -1397 -1377 -1485 -1143 -1602 -996.6 -1367 -273.6 -254 -625.3 -1124 -332.2 -429.9 361.5 -19.54 -1485 -1348 -1426 -48.85
2.005 -840.3 -1211 -752.3 -1270 -732.8 -1436 -859.8 -1436 -371.3 -625.3 -302.9 -859.8 175.9 -361.5 342 -263.8 -1055 -1094 -1250 68.39
2.01 -732.8 -830.5 -469 -771.9 -312.7 -928.2 -683.9 -1260 -527.6 -703.5 -449.4 -596 -156.3 -166.1 127 -332.2 -742.6 -683.9 -1025 -29.31
2.015 -234.5 -478.7 0 -469 87.93 -527.6 -322.4 -1085 -517.8 -859.8 -166.1 -517.8 0 -156.3 -19.54 -566.7 -371.3 -283.3 -693.7 -9.77
2.02 29.31 -9.77 400.6 156.3 713.2 87.93 -58.62 -820.7 -537.4 -1045 19.54 -166.1 332.2 -117.2 205.2 -742.6 127 214.9 -283.3 0
2.025 185.6 371.3 439.7 654.6 517.8 762.1 -19.54 -508.1 -781.6 -1319 439.7 58.62 322.4 29.31 -420.1 -1006 371.3 693.7 -58.62 -214.9
2.03 615.5 566.7 820.7 1036 967.3 928.2 136.8 -605.8 -869.6 -1641 351.7 185.6 332.2 -87.93 -312.7 -1406 830.5 879.3 263.8 9.77
2.035 801.2 810.9 1202 1456 1133 1514 342 -29.31 -889.1 -1544 566.7 830.5 68.39 234.5 -429.9 -1231 1329 1378 810.9 -9.77
2.04 1436 879.3 1651 1681 1837 1710 859.8 439.7 -625.3 -1182 615.5 732.8 -459.2 390.8 -488.5 -1006 1964 1495 1632 488.5
2.045 1514 908.6 1808 1544 1563 1495 908.6 889.1 -429.9 -429.9 801.2 957.5 58.62 625.3 -498.3 -498.3 1944 1466 1954 547.1
2.05 1290 723 1553 1309 1759 1583 1358 1573 78.16 400.6 429.9 801.2 -381 674.2 -312.7 127 1827 1426 2521 732.8
2.055 908.6 537.4 1133 918.4 703.5 1221 908.6 1681 244.3 986.8 674.2 410.4 791.4 693.7 68.39 576.5 1065 957.5 2149 459.2
2.06 449.4 127 781.6 371.3 625.3 820.7 1094 1573 898.9 1436 381 107.5 781.6 683.9 732.8 938 547.1 713.2 2042 459.2
2.065 -29.31 -97.7 -9.77 -107.5 -127 195.4 781.6 1114 1055 1475 19.54 -244.3 517.8 410.4 840.3 1016 -136.8 97.7 1436 244.3
2.07 -361.5 -332.2 -156.3 -449.4 39.08 -283.3 703.5 596 1309 1456 -175.9 -449.4 166.1 254 977 918.4 -498.3 -244.3 908.6 146.6
2.075 -762.1 -644.8 -1036 -791.4 -713.2 -830.5 410.4 68.39 1241 1280 -332.2 -655.1 107.5 78.16 840.3 859.8 -1104 -674.6 273.6 -78.16
2.08 -987.3 -810.9 -928.2 -967.8 -322.4 -1094 508.1 -312.7 1270 1036 -655.1 -693.7 -107.5 -68.39 879.3 654.6 -1270 -889.1 -97.7 -117.2
2.085 -1250 -869.6 -1260 -1299 -1064 -1505 0 -820.7 830.5 674.2 -635.6 -928.2 -166.1 -166.1 683.9 390.8 -1720 -1280 -732.8 -136.8
2.09 -1153 -781.6 -1153 -1201 -879.8 -1260 -107.5 -898.9 547.1 537.4 -752.3 -957.5 224.7 -244.3 312.7 459.2 -1817 -1182 -1064 -342
2.095 -1309 -928.2 -1406 -1358 -1280 -1387 -371.3 -1182 214.9 39.08 -703.5 -762.1 -146.6 -254 723 195.4 -1935 -1456 -1329 -136.8
2.1 -1064 -742.6 -1163 -1240 -1143 -1377 -655.1 -1446 -127 -185.6 -693.7 -1025 -9.77 -195.4 273.6 68.39 -1837 -1299 -1612 -322.4
2.105 -967.8 -674.6 -1221 -1016 -1104 -1192 -850 -1593 -478.7 -596 -693.7 -742.6 -390.8 -351.7 107.5 -283.3 -1582 -1231 -1690 -224.7
2.11 -781.6 -752.3 -742.6 -869.6 -664.4 -1064 -742.6 -1602 -556.9 -898.9 -293.1 -605.8 -263.8 -273.6 19.54 -556.9 -1075 -918.4 -1348 -127
2.115 -302.9 -322.4 -273.6 -361.5 -254 -302.9 -469 -1104 -615.5 -967.8 -185.6 -449.4 -517.8 -205.2 -351.7 -771.9 -459.2 -263.8 -830.5 -58.62
2.12 107.5 29.31 459.2 117.2 420.1 185.6 19.54 -771.9 -527.6 -1064 263.8 156.3 -214.9 -39.08 -381 -1094 185.6 351.7 -175.9 0
2.125 469 439.7 781.6 664.4 400.6 957.5 -39.08 -97.7 -625.3 -1075 371.3 332.2 -29.31 48.85 -371.3 -1250 615.5 898.9 371.3 0
2.13 791.4 810.9 1133 1124 801.2 1417 195.4 439.7 -537.4 -693.7 537.4 859.8 117.2 273.6 -879.8 -1064 996.6 1368 918.4 -9.77
2.135 1319 1124 1348 1446 1065 1778 156.3 869.6 -410.4 -478.7 566.7 938 156.3 478.7 -214.9 -850 1358 1573 1387 97.7
2.14 1456 967.3 1280 1387 1006 1749 283.3 1251 -244.3 -48.85 615.5 830.5 68.39 556.9 -703.5 -293.1 1563 1593 1886 351.7
2.145 1651 1172 1768 1475 1710 1632 850 1475 263.8 302.9 732.8 771.9 -469 449.4 -293.1 127 1964 1583 2364 644.8
2.15 1221 703.5 977 898.9 967.3 1172 605.8 1524 205.2 615.5 410.4 273.6 214.9 488.5 -195.4 556.9 1378 1085 2081 586.2
2.155 801.2 625.3 1114 625.3 850 801.2 752.3 1514 478.7 986.8 537.4 254 166.1 596 -29.31 879.3 1163 752.3 2032 566.7
2.16 254 205.2 283.3 58.62 400.6 175.9 508.1 1182 459.2 1045 48.85 -48.85 371.3 449.4 205.2 898.9 527.6 166.1 1524 449.4
2.165 19.54 -48.85 9.77 -293.1 175.9 -254 371.3 908.6 605.8 1133 117.2 -224.7 586.2 381 371.3 1055 0 -283.3 1045 332.2
2.17 -576.5 -293.1 -840.3 -322.4 -566.7 -342 -97.7 654.6 420.1 1036 -420.1 -9.77 -39.08 410.4 0 1085 -615.5 -576.5 234.5 -117.2
2.175 -566.7 -605.8 -596 -683.9 -146.6 -683.9 312.7 371.3 752.3 898.9 -420.1 -420.1 -234.5 283.3 586.2 1104 -820.7 -732.8 -9.77 -29.31
2.18 -1094 -938 -1231 -1104 -1036 -1280 -605.8 -332.2 244.3 469 -664.4 -459.2 -214.9 -39.08 390.8 693.7 -1456 -1348 -987.3 -224.7
2.185 -683.9 -859.8 -771.9 -1036 -224.7 -1221 293.1 -322.4 693.7 459.2 -713.2 -381 -420.1 87.93 898.9 771.9 -1085 -1192 -850 -78.16
2.19 -1064 -752.3 -1124 -1466 -977.5 -1768 -840.3 -1075 48.85 -175.9 -664.4 -556.9 -224.7 -127 547.1 263.8 -1348 -1681 -1563 -87.93
2.195 -674.6 -449.4 -644.8 -1016 -586.2 -1514 -781.6 -1221 -136.8 -498.3 -801.2 -263.8 78.16 -107.5 547.1 39.08 -928.2 -1426 -1739 -87.93
2.2 -576.5 -68.39 -889.1 -742.6 -1114 -1406 -1260 -1514 -605.8 -1006 -283.3 -136.8 195.4 -322.4 263.8 -332.2 -830.5 -1534 -2051 -156.3
2.205 -429.9 195.4 -556.9 0 -928.2 -655.1 -1201 -1211 -918.4 -1104 -273.6 410.4 -87.93 -127 48.85 -361.5 -361.5 -879.8 -1944 -371.3
2.21 127 420.1 58.62 166.1 -342 -674.6 -850 -1406 -967.8 -1602 97.7 312.7 -381 -381 -19.54 -947.7 146.6 -664.4 -1573 -107.5
2.215 195.4 635.1 117.2 674.2 -234.5 19.54 -879.8 -938 -1240 -1622 -39.08 781.6 -195.4 -146.6 -381 -1104 439.7 -78.16 -1260 -390.8
2.22 635.1 820.7 498.3 830.5 146.6 136.8 -556.9 -898.9 -1064 -1944 244.3 635.1 -205.2 -273.6 -351.7 -1749 947.7 136.8 -644.8 -146.6
2.225 742.6 1104 517.8 1192 283.3 683.9 -429.9 -410.4 -1094 -1846 332.2 938 39.08 -19.54 -683.9 -1768 1202 664.4 -214.9 -371.3
2.23 1016 1387 928.2 1602 1133 1114 205.2 127 -693.7 -1524 752.3 1163 -166.1 224.7 -498.3 -1534 1847 1221 635.1 -136.8
2.235 1260 1651 1094 1954 1085 1690 732.8 850 -312.7 -703.5 781.6 1495 -29.31 596 -234.5 -791.4 2189 1720 1299 -48.85
2.24 1241 1514 1182 1778 1407 1485 498.3 986.8 -449.4 -596 850 1299 224.7 556.9 -312.7 -615.5 2129 1690 1485 78.16
2.245 1417 1348 1573 1632 1798 1641 1124 1534 87.93 351.7 801.2 1163 322.4 498.3 -185.6 263.8 2247 1690 2012 381
2.25 1065 977 957.5 1172 1006 1299 791.4 1446 107.5 889.1 879.3 752.3 -39.08 801.2 -351.7 723 1661 1348 1915 244.3
2.255 908.6 381 1251 615.5 1768 908.6 781.6 1309 351.7 1202 78.16 547.1 39.08 410.4 19.54 1055 1319 947.7 1749 400.6
2.26 439.7 19.54 615.5 351.7 1065 508.1 898.9 1006 586.2 1309 371.3 429.9 -107.5 420.1 78.16 1231 732.8 527.6 1475 283.3
2.265 -29.31 -342 29.31 -87.93 439.7 146.6 664.4 752.3 664.4 1378 9.77 87.93 68.39 254 146.6 1309 175.9 78.16 918.4 136.8
2.27 -605.8 -420.1 -547.6 -244.3 -273.6 -78.16 234.5 449.4 586.2 1202 -29.31 254 420.1 400.6 175.9 1241 -459.2 -322.4 185.6 -205.2
2.275 -1016 -791.4 -1055 -723 -987.3 -586.2 -19.54 9.77 742.6 1104 -312.7 -195.4 175.9 205.2 175.9 1143 -898.9 -889.1 -263.8 -136.8
2.28 -1055 -996.6 -898.9 -928.2 -703.5 -801.2 205.2 -293.1 1055 938 -478.7 -351.7 -107.5 -29.31 527.6 947.7 -791.4 -1104 -371.3 107.5
2.285 -1085 -1094 -1025 -1231 -683.9 -1211 205.2 -635.6 1143 781.6 -576.5 -752.3 -791.4 -342 87.93 810.9 -1025 -1495 -674.6 254
2.29 -1055 -1114 -1114 -1319 -938 -1260 -400.6 -791.4 810.9 322.4 -879.8 -898.9 -351.7 -517.8 263.8 556.9 -918.4 -1505 -869.6 263.8
2.295 -938 -762.1 -1211 -1163 -1104 -1260 -547.6 -859.8 615.5 254 -683.9 -723 -351.7 -703.5 48.85 420.1 -810.9 -1534 -1094 214.9
2.3 -762.1 -547.6 -1075 -713.2 -1221 -898.9 -1045 -918.4 39.08 -254 -615.5 -556.9 -87.93 -361.5 -39.08 136.8 -683.9 -1182 -1339 -68.39
2.305 -449.4 -195.4 -869.6 -703.5 -1094 -967.8 -967.8 -967.8 -39.08 -400.6 -342 -136.8 -146.6 -322.4 0 -29.31 -449.4 -977.5 -1280 -58.62
2.31 -263.8 -97.7 -488.5 -332.2 -830.5 -742.6 -889.1 -1143 -127 -850 -117.2 -9.77 -234.5 -166.1 -312.7 -469 -136.8 -693.7 -1085 -9.77
2.315 -166.1 107.5 -693.7 -166.1 -947.7 -635.6 -938 -1025 -254 -1094 -214.9 302.9 -224.7 -146.6 -273.6 -771.9 -107.5 -469 -1036 -175.9
2.32 39.08 400.6 -312.7 19.54 -459.2 -439.7 -674.6 -771.9 -205.2 -1085 117.2 234.5 -273.6 -234.5 -810.9 -967.8 273.6 -9.77 -498.3 -87.93
2.325 381 771.9 263.8 439.7 -234.5 -68.39 -488.5 -410.4 -39.08 -967.8 322.4 498.3 214.9 -166.1 -410.4 -908.6 654.6 342 -78.16 -87.93
2.33 400.6 1006 127 732.8 -185.6 244.3 -566.7 -39.08 -244.3 -791.4 322.4 664.4 97.7 48.85 -644.8 -1104 791.4 762.1 68.39 -283.3
2.335 850 1319 801.2 1085 1319 713.2 566.7 508.1 185.6 -273.6 -97.7 1006 -781.6 244.3 -566.7 -576.5 1319 1280 801.2 -166.1
2.34 469 1055 527.6 1075 39.08 859.8 -254 517.8 -244.3 -283.3 214.9 996.6 19.54 381 -459.2 -566.7 1045 977 625.3 -244.3
2.345 586.2 898.9 488.5 1172 889.1 908.6 293.1 674.2 -107.5 0 -39.08 1026 -459.2 459.2 -459.2 -244.3 1114 1016 898.9 -156.3
2.35 195.4 625.3 429.9 1006 195.4 889.1 -156.3 635.1 -283.3 58.62 185.6 840.3 556.9 127 -293.1 -19.54 830.5 625.3 674.2 -87.93
2.355 78.16 302.9 68.39 703.5 -166.1 566.7 -117.2 429.9 -166.1 136.8 146.6 820.7 185.6 439.7 -263.8 283.3 566.7 283.3 547.1 78.16
2.36 -263.8 9.77 29.31 302.9 351.7 332.2 234.5 410.4 68.39 302.9 87.93 390.8 -254 283.3 -625.3 547.1 312.7 136.8 459.2 185.6
2.365 -478.7 -410.4 -293.1 -273.6 -244.3 -107.5 127 87.93 293.1 234.5 -68.39 205.2 68.39 254 214.9 683.9 -9.77 -361.5 146.6 322.4
2.37 -635.6 -488.5 -420.1 -312.7 -136.8 -9.77 185.6 175.9 429.9 566.7 156.3 9.77 185.6 342 127 1124 -195.4 -459.2 29.31 322.4
2.375 -947.7 -840.3 -947.7 -957.5 -928.2 -781.6 -420.1 -488.5 214.9 156.3 -156.3 -361.5 127 -29.31 273.6 830.5 -820.7 -1290 -664.4 381
2.38 -1280 -1133 -1153 -1250 -967.8 -1759 -605.8 -938 361.5 244.3 -605.8 -889.1 -166.1 -771.9 420.1 78.16 -1514 -1553 -1768 -312.7
2.385 -1299 -1055 -1133 -1006 -869.6 -1367 -723 -683.9 166.1 283.3 -566.7 -1270 -156.3 -498.3 332.2 166.1 -1524 -1231 -1925 -625.3
2.39 -1309 -1221 -996.6 -1201 -439.7 -1563 -439.7 -908.6 234.5 -39.08 -840.3 -840.3 -644.8 -576.5 371.3 -293.1 -1270 -1094 -1593 -342
2.395 -1280 -1153 -879.8 -1104 -596 -1055 -664.4 -547.6 9.77 0 -566.7 -1221 449.4 -625.3 117.2 -48.85 -1377 -889.1 -1582 -537.4
2.4 -1075 -1182 -693.7 -1309 -293.1 -1436 -635.6 -850 -29.31 -381 -947.7 -908.6 -312.7 -410.4 156.3 -449.4 -1094 -928.2 -1299 -195.4
2.405 -703.5 -1006 -312.7 -957.5 195.4 -928.2 -293.1 -420.1 127 -214.9 -801.2 -674.6 234.5 -439.7 195.4 -322.4 -732.8 -683.9 -820.7 -39.08
2.41 -537.4 -771.9 -449.4 -830.5 -459.2 -830.5 -244.3 -361.5 29.31 -390.8 -19.54 -547.6 -351.7 -381 9.77 -449.4 -576.5 -655.1 -508.1 156.3
2.415 -420.1 -723 -254 -312.7 -302.9 -322.4 -361.5 -29.31 -185.6 -390.8 -19.54 -205.2 312.7 -283.3 0 -469 -400.6 -332.2 -234.5 48.85
2.42 -195.4 -273.6 97.7 -9.77 87.93 127 39.08 469 -273.6 -293.1 205.2 -263.8 -312.7 -205.2 -342 -381 19.54 263.8 469 19.54
2.425 -9.77 -58.62 117.2 469 58.62 693.7 -185.6 810.9 -713.2 -342 332.2 117.2 625.3 -19.54 -547.6 -478.7 234.5 771.9 674.2 -175.9
2.43 547.1 449.4 664.4 801.2 615.5 986.8 29.31 1124 -791.4 -312.7 410.4 117.2 29.31 29.31 -703.5 -420.1 908.6 1231 1397 48.85
2.435 850 830.5 908.6 1251 938 1426 263.8 1417 -879.8 -332.2 742.6 312.7 596 322.4 -820.7 -576.5 1299 1671 1671 19.54
2.44 1094 840.3 1026 1143 918.4 1055 342 1133 -957.5 -517.8 810.9 449.4 498.3 205.2 -938 -693.7 1514 1475 1739 205.2
2.445 1124 957.5 1270 1221 1339 1094 1075 1163 -420.1 -322.4 674.2 566.7 19.54 342 -732.8 -537.4 1466 1348 1798 214.9
2.45 556.9 654.6 615.5 644.8 732.8 371.3 312.7 508.1 -547.6 -429.9 469 234.5 547.1 19.54 -166.1 -576.5 674.2 547.1 908.6 78.16
2.455 87.93 146.6 -39.08 146.6 312.7 -9.77 508.1 234.5 -78.16 -185.6 342 -19.54 -48.85 -19.54 195.4 -244.3 19.54 -39.08 508.1 39.08
2.46 -371.3 29.31 -302.9 -283.3 342 -410.4 312.7 -68.39 156.3 -68.39 -615.5 -459.2 175.9 -351.7 547.1 -87.93 -635.6 -488.5 -136.8 -224.7
2.465 -723 -576.5 -771.9 -889.1 -644.8 -987.3 39.08 -527.6 410.4 -78.16 -166.1 -840.3 361.5 -625.3 693.7 -87.93 -1240 -1309 -674.6 -58.62
2.47 -625.3 -635.6 -586.2 -1124 -283.3 -1085 371.3 -498.3 859.8 156.3 -263.8 -938 195.4 -459.2 889.1 146.6 -1250 -1367 -810.9 -87.93
2.475 -1085 -1104 -1211 -1553 -1299 -1544 -58.62 -791.4 762.1 273.6 -869.6 -908.6 254 -869.6 644.8 185.6 -1846 -2012 -1387 -166.1
2.48 -1182 -947.7 -1231 -1456 -1201 -1329 -68.39 -596 752.3 508.1 -488.5 -781.6 9.77 -498.3 654.6 478.7 -1817 -1905 -1436 -283.3
2.485 -1573 -1143 -1661 -1495 -1622 -1329 -400.6 -683.9 449.4 488.5 -977.5 -674.6 -19.54 -429.9 48.85 517.8 -2003 -2022 -1720 -459.2
2.49 -1290 -859.8 -1436 -1133 -1192 -938 -87.93 -478.7 605.8 273.6 -996.6 -596 -244.3 -234.5 605.8 478.7 -1573 -1837 -1416 -175.9
2.495 -1085 -771.9 -1387 -1143 -1514 -1094 -371.3 -655.1 371.3 -68.39 -655.1 -556.9 39.08 -156.3 390.8 302.9 -1466 -1817 -1436 -107.5
2.5 -566.7 -469 -908.6 -840.3 -1075 -732.8 -175.9 -410.4 283.3 -234.5 -508.1 -478.7 -127 -127 517.8 195.4 -977.5 -1582 -1055 146.6
2.505 -205.2 -312.7 -429.9 -713.2 -596 -635.6 -78.16 -342 224.7 -508.1 -205.2 -263.8 117.2 -156.3 459.2 -39.08 -498.3 -1280 -596 400.6
2.51 185.6 136.8 29.31 -136.8 39.08 39.08 175.9 234.5 127 -293.1 -390.8 224.7 -87.93 166.1 273.6 214.9 29.31 -537.4 9.77 302.9
2.515 596 312.7 527.6 234.5 488.5 420.1 762.1 478.7 214.9 -527.6 214.9 302.9 -78.16 68.39 78.16 -107.5 605.8 -29.31 752.3 644.8
2.52 1172 781.6 1358 947.7 2129 1153 1768 1085 566.7 -175.9 0 801.2 -254 449.4 293.1 117.2 1358 928.2 1641 605.8
2.525 1153 1075 1094 1153 771.9 1221 947.7 1006 78.16 -439.7 781.6 918.4 214.9 400.6 19.54 -273.6 1290 1016 1563 517.8
2.53 1153 908.6 1192 1221 1319 1358 1075 1055 -185.6 -664.4 566.7 840.3 244.3 469 39.08 -459.2 1358 1378 1651 263.8
2.535 1446 1065 1632 1387 1348 1495 723 1006 -420.1 -771.9 967.3 752.3 889.1 205.2 117.2 -840.3 1583 1514 1671 312.7
2.54 1006 1026 1006 1290 840.3 1563 498.3 1133 -742.6 -615.5 478.7 1036 644.8 390.8 -185.6 -791.4 1299 1681 1505 -29.31
2.545 1348 1075 1505 1124 1661 1329 1065 996.6 -605.8 -459.2 576.5 556.9 146.6 39.08 -361.5 -850 1505 1681 1710 224.7
2.55 1133 1026 1339 1075 1133 1319 781.6 1006 -625.3 -48.85 586.2 869.6 381 185.6 -390.8 -547.6 1270 1485 1456 175.9
2.555 605.8 693.7 752.3 674.2 801.2 869.6 381 596 -752.3 146.6 263.8 449.4 97.7 107.5 -615.5 -361.5 762.1 928.2 947.7 146.6
2.56 283.3 420.1 273.6 185.6 410.4 214.9 39.08 0 -644.8 205.2 58.62 156.3 -351.7 136.8 -655.1 -224.7 195.4 302.9 244.3 29.31
2.565 -214.9 -117.2 -312.7 -302.9 -537.4 -254 -332.2 -351.7 -351.7 263.8 -175.9 -107.5 -254 -48.85 -29.31 -87.93 -488.5 -429.9 -322.4 29.31
2.57 -596 -429.9 -674.6 -830.5 -576.5 -771.9 -381 -674.6 -19.54 410.4 -517.8 -439.7 -254 0 -214.9 166.1 -1104 -850 -840.3 -136.8
2.575 -1036 -1006 -1309 -1416 -1358 -1085 -459.2 -938 361.5 420.1 -683.9 -703.5 -361.5 -156.3 312.7 205.2 -1524 -1280 -1182 -97.7
2.58 -908.6 -918.4 -1250 -1329 -1367 -898.9 -224.7 -752.3 742.6 693.7 -605.8 -517.8 -254 29.31 664.4 517.8 -1387 -1172 -1133 -39.08
2.585 -987.3 -1133 -1045 -1270 -859.8 -801.2 -97.7 -732.8 918.4 683.9 -713.2 -556.9 -439.7 39.08 605.8 674.2 -1153 -1025 -1104 97.7
2.59 -615.5 -674.6 -889.1 -957.5 -977.5 -830.5 -19.54 -752.3 879.3 683.9 -449.4 -449.4 -517.8 39.08 488.5 781.6 -889.1 -987.3 -1114 175.9
2.595 -400.6 -683.9 -478.7 -762.1 -556.9 -859.8 -371.3 -801.2 527.6 439.7 -596 -605.8 -302.9 -97.7 302.9 693.7 -664.4 -938 -1290 185.6
2.6 -273.6 -537.4 -586.2 -635.6 -810.9 -810.9 -371.3 -820.7 410.4 302.9 -78.16 -439.7 -263.8 -107.5 312.7 654.6 -498.3 -928.2 -1143 361.5
2.605 -244.3 -351.7 -527.6 -517.8 -1064 -605.8 -1025 -791.4 -302.9 -48.85 -68.39 -439.7 -195.4 -205.2 -9.77 420.1 -517.8 -801.2 -1406 156.3
2.61 -312.7 -420.1 -781.6 -625.3 -879.8 -576.5 -1104 -869.6 -459.2 -205.2 -205.2 -390.8 -156.3 -224.7 -87.93 127 -410.4 -703.5 -1192 263.8
2.615 39.08 -107.5 -254 -342 -410.4 -146.6 -655.1 -625.3 -537.4 -244.3 -29.31 -185.6 -1036 -19.54 -400.6 -48.85 146.6 -58.62 -537.4 312.7
2.62 400.6 302.9 185.6 107.5 -48.85 136.8 -596 -439.7 -644.8 -224.7 156.3 9.77 322.4 97.7 -488.5 -205.2 361.5 420.1 -381 29.31
2.625 889.1 644.8 791.4 429.9 693.7 351.7 146.6 -381 -586.2 -566.7 351.7 263.8 -302.9 39.08 -556.9 -596 928.2 967.3 185.6 117.2
2.63 1583 1387 1524 1094 1075 859.8 400.6 0 -576.5 -517.8 996.6 527.6 576.5 185.6 -205.2 -723 1505 1622 625.3 9.77
2.635 1768 1553 1876 1387 1632 1143 517.8 234.5 -752.3 -596 1055 703.5 -48.85 156.3 -527.6 -850 1798 2071 947.7 -78.16
2.64 2090 1847 2345 1749 2081 1632 683.9 674.2 -820.7 -351.7 1026 830.5 723 263.8 -644.8 -703.5 2062 2413 1221 -117.2
2.645 1895 1583 1905 1690 1778 1778 742.6 938 -762.1 -78.16 1182 674.2 -175.9 449.4 -840.3 -488.5 2022 2472 1475 -78.16
2.65 1661 1378 1661 1671 1514 1612 762.1 928.2 -605.8 166.1 869.6 938 254 322.4 -879.8 -293.1 1641 2208 1221 -166.1
2.655 1260 1231 1006 1495 488.5 1495 234.5 889.1 -400.6 469 1202 977 537.4 332.2 29.31 68.39 1221 1759 918.4 -195.4
2.66 723 713.2 527.6 898.9 48.85 752.3 185.6 537.4 29.31 586.2 732.8 410.4 390.8 117.2 -9.77 175.9 410.4 1016 332.2 -312.7
2.665 0 351.7 -58.62 410.4 -322.4 234.5 -97.7 283.3 361.5 977 371.3 459.2 381 244.3 508.1 566.7 -224.7 566.7 -156.3 -488.5
2.67 -332.2 -117.2 -429.9 -244.3 -596 -273.6 -19.54 -58.62 810.9 1036 -107.5 -244.3 -107.5 -58.62 683.9 703.5 -771.9 -127 -478.7 -312.7
2.675 -820.7 -302.9 -967.8 -713.2 -1319 -752.3 -283.3 -332.2 898.9 1124 -390.8 -498.3 9.77 -68.39 576.5 840.3 -1201 -605.8 -869.6 -322.4
2.68 -781.6 -605.8 -1075 -928.2 -1299 -898.9 -302.9 -527.6 947.7 1075 -664.4 -615.5 -713.2 -244.3 254 801.2 -1446 -908.6 -1075 -224.7
2.685 -781.6 -742.6 -987.3 -1016 -1250 -1006 -244.3 -655.1 1026 869.6 -517.8 -469 166.1 -234.5 625.3 820.7 -1299 -1075 -1016 48.85
2.69 -771.9 -1025 -1064 -1133 -1280 -1124 -302.9 -752.3 918.4 625.3 -655.1 -820.7 -537.4 -400.6 332.2 674.2 -1299 -1221 -996.6 185.6
2.695 -840.3 -957.5 -1094 -1075 -1475 -1143 -537.4 -781.6 508.1 361.5 -605.8 -644.8 29.31 -400.6 -127 508.1 -1280 -1192 -1085 146.6
2.7 -605.8 -889.1 -947.7 -1025 -938 -1133 -351.7 -762.1 556.9 127 -371.3 -693.7 -175.9 -371.3 556.9 342 -938 -1064 -771.9 361.5
2.705 -556.9 -605.8 -889.1 -879.8 -1085 -1143 -459.2 -830.5 68.39 -175.9 -361.5 -586.2 -166.1 -429.9 -146.6 19.54 -840.3 -898.9 -977.5 175.9
2.71 -78.16 -48.85 -273.6 -400.6 -439.7 -732.8 -361.5 -674.6 -127 -351.7 -19.54 -156.3 -29.31 -224.7 48.85 -195.4 -400.6 -410.4 -840.3 39.08
2.715 29.31 -283.3 -322.4 -478.7 -459.2 -723 -410.4 -850 -439.7 -752.3 9.77 -449.4 -68.39 -655.1 -87.93 -781.6 -244.3 -254 -625.3 185.6
2.72 517.8 420.1 420.1 234.5 283.3 29.31 -293.1 -361.5 -605.8 -742.6 283.3 87.93 205.2 -263.8 -224.7 -840.3 293.1 478.7 -244.3 -97.7
2.725 605.8 508.1 644.8 508.1 381 449.4 -254 -9.77 -810.9 -723 674.2 381 400.6 -117.2 -332.2 -1036 693.7 1026 273.6 -127
2.73 1094 977 1417 1241 1358 1309 429.9 644.8 -596 -605.8 977 1026 351.7 273.6 -420.1 -918.4 1495 1808 1133 -9.77
2.735 977 1085 1221 1358 1280 1553 517.8 918.4 -732.8 -547.6 791.4 1055 302.9 517.8 -703.5 -781.6 1593 2032 1417 -97.7
2.74 1505 1260 1993 1778 2364 2306 1309 1573 -332.2 -244.3 1202 1329 19.54 889.1 -615.5 -302.9 2335 2599 2208 156.3
2.745 1192 801.2 1436 1299 1759 1700 830.5 1163 -488.5 -244.3 664.4 850 234.5 644.8 -693.7 -302.9 1905 2022 1935 293.1
2.75 1202 703.5 1387 1221 1681 1768 1085 1446 -146.6 234.5 723 644.8 420.1 596 -342 195.4 1827 1886 1974 322.4
2.755 703.5 205.2 1036 615.5 1163 967.3 576.5 967.3 -263.8 400.6 576.5 263.8 498.3 205.2 -771.9 283.3 1124 1192 1280 185.6
2.76 234.5 -302.9 381 175.9 410.4 469 429.9 625.3 136.8 703.5 146.6 -19.54 429.9 107.5 117.2 488.5 625.3 537.4 938 254
2.765 -302.9 -527.6 78.16 -48.85 58.62 254 117.2 459.2 127 889.1 185.6 -195.4 234.5 19.54 -156.3 732.8 39.08 175.9 293.1 -39.08
2.77 -801.2 -879.8 -771.9 -459.2 -586.2 -166.1 -117.2 107.5 351.7 938 -195.4 -263.8 -342 -19.54 205.2 840.3 -556.9 -429.9 -136.8 -29.31
2.775 -918.4 -771.9 -889.1 -390.8 -566.7 -156.3 68.39 -39.08 664.4 1045 -254 -381 -351.7 48.85 283.3 1104 -723 -547.6 -312.7 -58.62
2.78 -1094 -1025 -996.6 -928.2 -605.8 -781.6 -87.93 -625.3 635.1 693.7 -361.5 -566.7 -420.1 -136.8 410.4 859.8 -1192 -996.6 -820.7 -68.39
2.785 -1211 -928.2 -1114 -938 -987.3 -801.2 -302.9 -840.3 635.1 664.4 -498.3 -605.8 -254 -29.31 605.8 830.5 -1377 -1075 -1153 -224.7
2.79 -1163 -1182 -1085 -1456 -898.9 -1436 -459.2 -1505 498.3 -9.77 -312.7 -1055 -234.5 -439.7 742.6 312.7 -1446 -1495 -1466 -9.77
2.795 -1055 -840.3 -996.6 -1133 -918.4 -996.6 -723 -1387 302.9 -19.54 -566.7 -791.4 87.93 -224.7 664.4 234.5 -1446 -1319 -1641 -283.3
2.8 -869.6 -644.8 -918.4 -1075 -859.8 -928.2 -293.1 -1309 283.3 -283.3 -302.9 -801.2 -517.8 -136.8 371.3 0 -1124 -1153 -1250 -78.16
2.805 -693.7 -244.3 -723 -664.4 -830.5 -644.8 -703.5 -1211 0 -449.4 -547.6 -381 29.31 -254 361.5 -224.7 -889.1 -1085 -1270 -166.1
2.81 -224.7 -273.6 -29.31 -312.7 -19.54 -107.5 9.77 -644.8 195.4 -351.7 127 -48.85 -576.5 127 254 -195.4 -293.1 -488.5 -488.5 19.54
2.815 381 87.93 156.3 -312.7 48.85 -205.2 -48.85 -410.4 -29.31 -527.6 -19.54 -322.4 -351.7 -273.6 205.2 -224.7 -97.7 -361.5 -78.16 68.39
2.82 488.5 166.1 605.8 -87.93 556.9 -68.39 127 -498.3 -78.16 -830.5 -29.31 19.54 0 -185.6 0 -556.9 283.3 -127 58.62 146.6
2.825 654.6 244.3 693.7 117.2 332.2 48.85 -19.54 -449.4 -136.8 -850 -19.54 107.5 381 -283.3 478.7 -781.6 625.3 78.16 156.3 205.2
2.83 771.9 576.5 840.3 820.7 488.5 664.4 156.3 29.31 -29.31 -655.1 381 283.3 234.5 -9.77 410.4 -625.3 830.5 644.8 263.8 -78.16
2.835 723 625.3 752.3 615.5 166.1 410.4 -273.6 -263.8 -322.4 -1016 478.7 185.6 654.6 -254 205.2 -1231 654.6 498.3 -58.62 -205.2
2.84 996.6 1172 1006 1085 273.6 693.7 -107.5 97.7 -293.1 -830.5 1026 517.8 723 9.77 -9.77 -918.4 957.5 918.4 136.8 -361.5
2.845 1006 1133 1124 986.8 547.1 664.4 48.85 166.1 -361.5 -996.6 840.3 390.8 244.3 -127 -234.5 -1006 1055 1026 361.5 -205.2
2.85 1114 1172 1319 986.8 1241 791.4 322.4 488.5 -459.2 -771.9 615.5 312.7 371.3 -9.77 -420.1 -674.6 1172 1172 703.5 -58.62
2.855 908.6 967.3 947.7 1055 879.3 898.9 263.8 732.8 -615.5 -478.7 566.7 556.9 195.4 214.9 -723 -205.2 1055 1133 889.1 39.08
2.86 898.9 683.9 723 732.8 801.2 830.5 420.1 938 -410.4 29.31 429.9 87.93 263.8 332.2 -469 107.5 869.6 986.8 1124 185.6
2.865 732.8 156.3 469 361.5 527.6 527.6 605.8 791.4 -87.93 293.1 429.9 -68.39 -29.31 29.31 -283.3 283.3 683.9 547.1 1299 566.7
2.87 605.8 29.31 556.9 312.7 869.6 693.7 967.3 1045 322.4 898.9 342 0 146.6 342 68.39 771.9 615.5 586.2 1339 459.2
2.875 420.1 -117.2 302.9 195.4 381 654.6 723 918.4 605.8 1143 332.2 -371.3 -224.7 263.8 58.62 1016 302.9 185.6 1055 381
2.88 -78.16 -420.1 -195.4 -312.7 87.93 254 742.6 742.6 820.7 1182 -263.8 -644.8 9.77 234.5 342 1192 -97.7 -146.6 810.9 342
2.885 -410.4 -400.6 -410.4 -195.4 -234.5 127 312.7 527.6 781.6 1221 -420.1 -381 254 293.1 498.3 1192 -566.7 -459.2 195.4 -29.31
2.89 -566.7 -674.6 -635.6 -508.1 -185.6 -117.2 312.7 390.8 810.9 1124 -859.8 -655.1 -136.8 175.9 273.6 1094 -713.2 -527.6 78.16 -78.16
2.895 -371.3 -488.5 -459.2 -420.1 -244.3 -234.5 371.3 78.16 1006 771.9 -586.2 -371.3 273.6 9.77 1045 791.4 -527.6 -625.3 175.9 214.9
2.9 -830.5 -693.7 -655.1 -517.8 -283.3 -390.8 87.93 -127 771.9 644.8 -957.5 -586.2 -175.9 -107.5 605.8 723 -693.7 -576.5 -19.54 68.39
2.905 -635.6 -342 -469 -351.7 -723 -342 -244.3 -439.7 547.1 205.2 -498.3 -342 371.3 -146.6 752.3 302.9 -625.3 -644.8 -371.3 39.08
2.91 -390.8 -58.62 -390.8 -244.3 -996.6 -508.1 -459.2 -703.5 390.8 9.77 -371.3 -361.5 224.7 -293.1 644.8 205.2 -674.6 -752.3 -791.4 -68.39
2.915 -566.7 87.93 -655.1 -302.9 -1309 -771.9 -898.9 -996.6 -107.5 -351.7 -596 -342 29.31 -351.7 254 -166.1 -869.6 -918.4 -1260 -283.3
2.92 -107.5 -175.9 -195.4 -107.5 -1006 -674.6 -840.3 -928.2 -351.7 -537.4 -166.1 -136.8 58.62 -361.5 234.5 -400.6 -703.5 -713.2 -1280 -332.2
2.925 -156.3 -224.7 -39.08 -58.62 -302.9 -459.2 -381 -683.9 -234.5 -655.1 -263.8 -283.3 -78.16 -527.6 205.2 -615.5 -469 -400.6 -830.5 -175.9
2.93 9.77 -127 146.6 273.6 -283.3 -48.85 -234.5 -342 -351.7 -683.9 29.31 48.85 58.62 -234.5 136.8 -723 -166.1 -29.31 -371.3 -146.6
2.935 371.3 244.3 615.5 732.8 644.8 635.1 302.9 175.9 -351.7 -693.7 -244.3 576.5 -146.6 -58.62 -39.08 -918.4 224.7 625.3 234.5 -156.3
2.94 644.8 791.4 781.6 908.6 635.1 820.7 332.2 224.7 -429.9 -928.2 214.9 596 68.39 0 -283.3 -1153 693.7 674.2 674.2 185.6
2.945 1036 1065 1202 1358 1544 1524 547.1 771.9 -576.5 -752.3 58.62 830.5 -87.93 322.4 -1045 -938 1075 1202 1006 29.31
2.95 1329 1133 1602 1329 1563 1426 1329 918.4 48.85 -478.7 644.8 781.6 -117.2 254 -244.3 -703.5 1622 1280 1827 469
2.955 1094 957.5 1407 1475 1700 1661 918.4 1339 -107.5 -78.16 361.5 1026 273.6 469 -449.4 -78.16 1593 1456 1866 332.2
2.96 918.4 879.3 1065 1124 635.1 1319 918.4 1358 136.8 351.7 605.8 830.5 273.6 439.7 -68.39 302.9 1319 1231 1837 244.3
2.965 703.5 566.7 859.8 752.3 547.1 996.6 537.4 1368 205.2 664.4 429.9 810.9 596 537.4 351.7 654.6 1026 947.7 1641 273.6
2.97 449.4 498.3 547.1 605.8 625.3 1006 566.7 1573 390.8 1153 68.39 791.4 117.2 713.2 254 1143 752.3 1055 1612 19.54
2.975 293.1 156.3 244.3 48.85 -29.31 469 351.7 1163 478.7 1133 78.16 234.5 48.85 322.4 293.1 1085 224.7 420.1 1163 68.39
2.98 48.85 -68.39 175.9 -97.7 390.8 254 605.8 957.5 635.1 1133 -254 -19.54 156.3 78.16 -78.16 1036 -39.08 234.5 947.7 0
2.985 19.54 -351.7 136.8 -342 48.85 -58.62 605.8 703.5 898.9 1192 -117.2 -214.9 146.6 -39.08 820.7 1182 -117.2 87.93 820.7 29.31
2.99 -400.6 -498.3 -107.5 -488.5 78.16 -469 429.9 420.1 762.1 1006 -371.3 -361.5 527.6 -107.5 703.5 1153 -361.5 -68.39 361.5 -78.16
2.995 -312.7 -596 -429.9 -703.5 -175.9 -928.2 127 -9.77 517.8 498.3 -244.3 -537.4 166.1 -273.6 879.3 1104 -459.2 -361.5 -68.39 0
3 -556.9 -351.7 -644.8 -488.5 -322.4 -1064 -185.6 -185.6 214.9 283.3 -361.5 -312.7 97.7 -234.5 889.1 928.2 -547.6 -478.7 -517.8 -97.7
3.005 -732.8 -332.2 -1006 -527.6 -655.1 -928.2 -723 -390.8 -302.9 -224.7 -449.4 -254 -166.1 -166.1 537.4 683.9 -850 -635.6 -1075 -273.6
3.01 -781.6 0 -1143 -449.4 -850 -1016 -1094 -644.8 -810.9 -576.5 -449.4 -166.1 -58.62 -175.9 400.6 224.7 -1016 -732.8 -1475 -420.1
3.015 -840.3 -97.7 -1153 -390.8 -918.4 -537.4 -996.6 -488.5 -830.5 -644.8 -342 -146.6 -224.7 -146.6 371.3 78.16 -859.8 -625.3 -1231 -244.3
3.02 -655.1 -107.5 -732.8 58.62 -97.7 29.31 -420.1 -146.6 -693.7 -400.6 -127 78.16 -332.2 234.5 214.9 185.6 -400.6 78.16 -655.1 -302.9
3.025 -283.3 146.6 -469 283.3 -78.16 478.7 -459.2 58.62 -762.1 -596 -322.4 195.4 -166.1 254 -175.9 -205.2 -205.2 166.1 -439.7 -234.5
3.03 -68.39 87.93 87.93 547.1 791.4 820.7 156.3 342 -342 -537.4 -322.4 596 -322.4 48.85 -107.5 -371.3 312.7 732.8 342 -87.93
3.035 -39.08 390.8 244.3 732.8 478.7 1163 58.62 459.2 -449.4 -703.5 19.54 703.5 214.9 459.2 -420.1 -742.6 302.9 801.2 469 -205.2
3.04 224.7 517.8 527.6 791.4 537.4 1114 9.77 469 -537.4 -879.8 156.3 1006 214.9 263.8 -332.2 -918.4 469 869.6 713.2 -224.7
3.045 371.3 537.4 615.5 703.5 683.9 957.5 332.2 322.4 -420.1 -957.5 556.9 683.9 -302.9 351.7 -664.4 -1114 674.2 723 1094 29.31
3.05 723 527.6 1075 869.6 1456 1192 986.8 810.9 9.77 -342 879.3 683.9 -87.93 410.4 -205.2 -655.1 1065 967.3 1739 214.9
3.055 556.9 293.1 576.5 586.2 723 742.6 566.7 664.4 -58.62 -48.85 586.2 263.8 -29.31 234.5 -850 -439.7 752.3 498.3 1563 195.4
3.06 449.4 156.3 664.4 400.6 1124 586.2 1045 928.2 586.2 635.1 517.8 195.4 117.2 185.6 78.16 156.3 820.7 449.4 1925 439.7
3.065 -156.3 -322.4 -19.54 -58.62 224.7 -19.54 322.4 615.5 566.7 762.1 39.08 -136.8 586.2 78.16 -175.9 293.1 146.6 -117.2 1290 273.6
3.07 -146.6 -195.4 -58.62 -214.9 -78.16 -410.4 351.7 381 898.9 879.3 351.7 58.62 381 185.6 146.6 527.6 19.54 -381 1036 293.1
3.075 -361.5 -449.4 -332.2 -605.8 -175.9 -1114 293.1 -78.16 947.7 762.1 -146.6 -293.1 -127 -9.77 332.2 478.7 -342 -771.9 498.3 302.9
3.08 -547.6 -469 -351.7 -596 -107.5 -1211 234.5 -136.8 928.2 781.6 -263.8 -9.77 -127 185.6 488.5 683.9 -586.2 -762.1 146.6 78.16
3.085 -898.9 -625.3 -820.7 -850 -332.2 -1367 107.5 -351.7 723 596 -732.8 -410.4 -508.1 39.08 469 644.8 -791.4 -957.5 -254 48.85
3.09 -1124 -723 -977.5 -1036 -762.1 -1153 -302.9 -410.4 537.4 635.1 -771.9 -478.7 -390.8 0 390.8 859.8 -1114 -1094 -752.3 -195.4
3.095 -1153 -547.6 -1104 -820.7 -439.7 -683.9 -517.8 -439.7 234.5 263.8 -1133 -537.4 -908.6 -39.08 400.6 674.2 -967.8 -957.5 -957.5 -195.4
3.1 -1377 -1016 -1358 -1231 -987.3 -840.3 -1133 -791.4 -195.4 -68.39 -781.6 -938 -605.8 -263.8 244.3 390.8 -1299 -1397 -1485 -136.8
3.105 -1299 -918.4 -1240 -1036 -1221 -644.8 -1622 -859.8 -644.8 -371.3 -732.8 -742.6 -283.3 -283.3 -107.5 273.6 -1270 -1309 -1778 -283.3
3.11 -1339 -840.3 -1114 -801.2 -1016 -488.5 -1524 -732.8 -801.2 -332.2 -635.6 -351.7 -283.3 -263.8 -48.85 19.54 -1104 -1133 -1671 -283.3
3.115 -1124 -898.9 -908.6 -693.7 -1025 -214.9 -1309 -537.4 -879.8 -498.3 -410.4 -371.3 -283.3 -273.6 -185.6 -58.62 -987.3 -987.3 -1495 -156.3
3.12 -752.3 -655.1 -625.3 -517.8 -635.6 -361.5 -996.6 -586.2 -859.8 -527.6 -9.77 -19.54 -87.93 -39.08 -293.1 -400.6 -664.4 -732.8 -1260 -39.08
3.125 -488.5 -332.2 -439.7 -381 -429.9 -224.7 -947.7 -459.2 -977.5 -752.3 -78.16 -127 -576.5 -224.7 -625.3 -693.7 -449.4 -469 -1016 39.08
3.13 -78.16 -175.9 -332.2 -97.7 39.08 -244.3 -605.8 -449.4 -840.3 -683.9 -78.16 185.6 -683.9 -68.39 -586.2 -879.8 -146.6 -283.3 -644.8 39.08
3.135 -29.31 -107.5 -9.77 29.31 322.4 -244.3 -596 -361.5 -889.1 -683.9 -48.85 342 185.6 -68.39 -1299 -967.8 -127 -156.3 -459.2 -39.08
3.14 136.8 166.1 -9.77 224.7 234.5 -390.8 9.77 -185.6 -381 -332.2 48.85 400.6 -908.6 -185.6 -693.7 -850 263.8 19.54 283.3 205.2
3.145 224.7 302.9 234.5 312.7 156.3 -586.2 -439.7 -185.6 -547.6 -361.5 136.8 361.5 488.5 -263.8 -781.6 -859.8 146.6 -29.31 107.5 -29.31
3.15 166.1 605.8 68.39 283.3 -244.3 -840.3 -48.85 -19.54 -214.9 -19.54 293.1 273.6 -107.5 -254 -508.1 -566.7 107.5 -78.16 429.9 -29.31
3.155 312.7 195.4 9.77 -214.9 -283.3 -1104 87.93 -97.7 39.08 136.8 312.7 -48.85 -205.2 -361.5 -420.1 -508.1 -19.54 -332.2 556.9 146.6
3.16 29.31 87.93 -205.2 -381 -400.6 -908.6 -283.3 68.39 78.16 420.1 117.2 -87.93 0 -244.3 -478.7 -224.7 -322.4 -400.6 400.6 -58.62
3.165 -332.2 -459.2 -361.5 -820.7 -371.3 -820.7 48.85 9.77 498.3 586.2 -107.5 -322.4 -429.9 -263.8 -400.6 -78.16 -508.1 -732.8 625.3 234.5
3.17 -400.6 -322.4 -429.9 -732.8 -117.2 -390.8 -29.31 9.77 615.5 723 -205.2 -254 -449.4 -205.2 -263.8 68.39 -527.6 -655.1 420.1 166.1
3.175 -469 -420.1 -439.7 -644.8 -655.1 -254 -498.3 -78.16 469 664.4 -351.7 -136.8 -527.6 -136.8 -214.9 205.2 -723 -938 -19.54 127
3.18 -488.5 -429.9 -488.5 -576.5 -107.5 -273.6 -117.2 -273.6 713.2 762.1 -556.9 -58.62 -195.4 78.16 -312.7 361.5 -556.9 -879.8 -136.8 263.8
3.185 -234.5 -283.3 -556.9 -703.5 -596 -576.5 -439.7 -674.6 420.1 195.4 -234.5 -127 -293.1 -146.6 175.9 68.39 -625.3 -1153 -703.5 293.1
3.19 -283.3 -293.1 -859.8 -918.4 -1055 -947.7 -859.8 -1045 39.08 0 -312.7 -195.4 -29.31 -166.1 -488.5 136.8 -967.8 -1377 -1339 166.1
3.195 -312.7 -234.5 -635.6 -908.6 -967.8 -898.9 -879.8 -1182 -9.77 -381 -68.39 -322.4 58.62 -263.8 -87.93 156.3 -791.4 -1270 -1495 244.3
3.2 -302.9 -78.16 -732.8 -898.9 -1045 -752.3 -1104 -1339 -312.7 -655.1 -39.08 -263.8 -283.3 -312.7 -214.9 -136.8 -859.8 -1270 -1778 107.5
3.205 -78.16 58.62 -195.4 -390.8 -615.5 -361.5 -869.6 -1006 -342 -605.8 19.54 -78.16 -39.08 -342 -205.2 39.08 -508.1 -771.9 -1573 19.54
3.21 -459.2 -48.85 -469 -283.3 -723 -361.5 -869.6 -1016 -498.3 -625.3 -400.6 39.08 -254 19.54 -302.9 -136.8 -527.6 -537.4 -1416 -107.5
3.215 -381 342 -302.9 234.5 -615.5 -107.5 -771.9 -810.9 -840.3 -674.6 -127 469 -390.8 -107.5 -478.7 -390.8 -449.4 -68.39 -1485 -556.9
3.22 -87.93 889.1 -244.3 771.9 -732.8 58.62 -898.9 -693.7 -1085 -605.8 -254 869.6 58.62 -58.62 -556.9 -478.7 -420.1 293.1 -1563 -1075
3.225 -390.8 908.6 -117.2 986.8 -332.2 205.2 -596 -302.9 -928.2 -361.5 -58.62 752.3 -332.2 78.16 -517.8 -449.4 -185.6 840.3 -1133 -1309
3.23 -78.16 1251 -68.39 1075 -156.3 195.4 -97.7 -175.9 -644.8 -224.7 -214.9 840.3 -537.4 146.6 -771.9 -596 78.16 986.8 -674.6 -1319
3.235 263.8 1182 312.7 859.8 -48.85 29.31 -508.1 -58.62 -693.7 -234.5 136.8 615.5 39.08 87.93 -674.6 -615.5 166.1 859.8 -381 -1104
3.24 371.3 615.5 449.4 361.5 830.5 -58.62 459.2 175.9 -19.54 19.54 -19.54 263.8 -390.8 146.6 -547.6 -586.2 547.1 762.1 713.2 -283.3
3.245 459.2 322.4 410.4 136.8 635.1 29.31 205.2 332.2 48.85 156.3 234.5 146.6 -185.6 107.5 -381 -586.2 439.7 429.9 977 58.62
3.25 488.5 107.5 508.1 127 1006 517.8 771.9 1006 576.5 801.2 205.2 214.9 117.2 361.5 -166.1 29.31 654.6 566.7 1661 312.7
3.255 127 -166.1 214.9 39.08 537.4 771.9 791.4 1231 723 1075 214.9 0 244.3 449.4 -302.9 312.7 381 342 1602 302.9
3.26 9.77 -156.3 -127 -39.08 -78.16 605.8 713.2 1221 889.1 1192 263.8 273.6 342 517.8 -244.3 527.6 146.6 156.3 1387 273.6
3.265 87.93 -9.77 -175.9 29.31 -293.1 605.8 615.5 1026 938 1153 234.5 381 283.3 478.7 -205.2 625.3 9.77 -9.77 996.6 234.5
3.27 381 -117.2 -68.39 -342 -273.6 58.62 586.2 556.9 928.2 713.2 273.6 68.39 166.1 156.3 -48.85 449.4 39.08 -224.7 742.6 400.6
3.275 234.5 -312.7 -400.6 -312.7 -351.7 19.54 429.9 410.4 713.2 615.5 -58.62 48.85 -39.08 224.7 -508.1 566.7 -107.5 -312.7 263.8 224.7
3.28 410.4 -263.8 -107.5 -214.9 -58.62 -107.5 498.3 146.6 732.8 322.4 -9.77 -146.6 -97.7 -234.5 283.3 439.7 146.6 -254 29.31 283.3
3.285 361.5 19.54 -146.6 -19.54 342 -146.6 781.6 -29.31 478.7 107.5 -78.16 -19.54 -918.4 117.2 -263.8 488.5 234.5 -117.2 -224.7 146.6
3.29 -195.4 -195.4 -381 19.54 -322.4 -342 -185.6 -410.4 -39.08 -146.6 -547.6 -48.85 -283.3 39.08 -39.08 322.4 -58.62 -283.3 -987.3 -224.7
3.295 -19.54 9.77 -322.4 -87.93 -127 -830.5 -342 -1006 -400.6 -742.6 -146.6 0 -254 -97.7 -9.77 -87.93 -87.93 -537.4 -1495 -214.9
3.3 19.54 29.31 -156.3 -127 -97.7 -1016 -605.8 -1201 -576.5 -898.9 -439.7 -107.5 -39.08 -97.7 263.8 -185.6 0 -547.6 -1563 -156.3
3.305 -244.3 -97.7 -283.3 -332.2 -332.2 -1153 -967.8 -1377 -810.9 -1045 -195.4 -312.7 234.5 -322.4 97.7 -381 -166.1 -655.1 -1681 -185.6
3.31 117.2 273.6 -283.3 -127 -488.5 -967.8 -1182 -1221 -947.7 -1006 -48.85 0 -185.6 -205.2 -48.85 -361.5 -136.8 -537.4 -1582 -342
3.315 146.6 273.6 175.9 -97.7 293.1 -547.6 -517.8 -810.9 -459.2 -674.6 -58.62 -175.9 371.3 -107.5 87.93 -263.8 -9.77 -283.3 -840.3 -175.9
3.32 166.1 107.5 -39.08 -214.9 -254 -293.1 -674.6 -655.1 -596 -713.2 185.6 -156.3 -39.08 -29.31 -107.5 -459.2 -156.3 -254 -605.8 -195.4
3.325 273.6 58.62 273.6 -146.6 136.8 166.1 -449.4 -224.7 -420.1 -508.1 381 -117.2 234.5 136.8 -361.5 -371.3 -78.16 29.31 -156.3 -234.5
3.33 371.3 312.7 488.5 156.3 224.7 654.6 -175.9 136.8 -244.3 -527.6 361.5 9.77 361.5 312.7 -29.31 -214.9 244.3 371.3 322.4 -78.16
3.335 400.6 381 420.1 410.4 175.9 928.2 -254 263.8 -527.6 -586.2 322.4 293.1 68.39 332.2 -566.7 -469 234.5 517.8 205.2 -273.6
3.34 625.3 459.2 889.1 674.2 830.5 1153 263.8 410.4 -400.6 -586.2 478.7 527.6 332.2 429.9 -224.7 -400.6 742.6 810.9 556.9 -39.08
3.345 654.6 429.9 664.4 605.8 537.4 820.7 117.2 214.9 -644.8 -566.7 459.2 371.3 166.1 195.4 -185.6 -683.9 664.4 752.3 342 -78.16
3.35 674.2 381 508.1 556.9 498.3 781.6 166.1 273.6 -791.4 -312.7 605.8 439.7 312.7 293.1 -293.1 -469 615.5 664.4 400.6 -48.85
3.355 674.2 459.2 429.9 615.5 439.7 771.9 293.1 547.1 -537.4 156.3 400.6 400.6 234.5 117.2 -273.6 -127 586.2 703.5 566.7 -87.93
3.36 635.1 381 342 371.3 400.6 488.5 390.8 517.8 -224.7 537.4 547.1 127 87.93 361.5 -156.3 224.7 293.1 576.5 508.1 -127
3.365 107.5 -19.54 263.8 97.7 801.2 302.9 596 517.8 273.6 840.3 -381 -127 -234.5 136.8 -175.9 459.2 107.5 478.7 488.5 -107.5
3.37 19.54 -107.5 -127 -87.93 78.16 -214.9 322.4 127 459.2 898.9 -175.9 -156.3 68.39 97.7 39.08 547.1 -234.5 127 -87.93 -254
3.375 -342 -322.4 -175.9 -400.6 -19.54 -576.5 205.2 -254 635.1 889.1 -214.9 -312.7 -254 -87.93 166.1 576.5 -371.3 -48.85 -420.1 -302.9
3.38 -371.3 -332.2 -478.7 -469 -195.4 -810.9 517.8 -566.7 850 576.5 -400.6 -390.8 -332.2 -332.2 361.5 400.6 -439.7 -381 -655.1 -195.4
3.385 -693.7 -351.7 -791.4 -400.6 -1192 -987.3 -674.6 -967.8 224.7 371.3 -156.3 -302.9 263.8 -420.1 312.7 302.9 -752.3 -596 -1377 -459.2
3.39 -674.6 -527.6 -742.6 -605.8 -830.5 -1055 -244.3 -1085 459.2 136.8 -166.1 -498.3 68.39 -498.3 644.8 244.3 -655.1 -703.5 -1319 -205.2
3.395 -1016 -488.5 -1094 -498.3 -1387 -938 -1182 -1201 -244.3 -136.8 -312.7 -254 429.9 -469 390.8 234.5 -1016 -810.9 -1964 -508.1
3.4 -801.2 -635.6 -879.8 -683.9 -830.5 -742.6 -908.6 -1192 -254 -322.4 -439.7 -781.6 117.2 -576.5 615.5 146.6 -752.3 -644.8 -1749 -254
3.405 -459.2 -635.6 -361.5 -635.6 -342 -420.1 -547.6 -1016 -254 -381 -87.93 -508.1 166.1 -351.7 537.4 136.8 -410.4 -420.1 -1329 9.77
3.41 -224.7 -644.8 -244.3 -537.4 -175.9 -127 -449.4 -938 -400.6 -655.1 -283.3 -683.9 -263.8 -361.5 68.39 -127 -146.6 -332.2 -850 254
3.415 361.5 -293.1 517.8 48.85 1163 791.4 840.3 -39.08 224.7 -97.7 -273.6 -254 -254 205.2 429.9 234.5 635.1 527.6 420.1 439.7
3.42 205.2 -361.5 156.3 0 -19.54 664.4 48.85 -78.16 -29.31 -429.9 400.6 -185.6 -78.16 29.31 127 -273.6 469 293.1 654.6 537.4
3.425 508.1 185.6 556.9 654.6 928.2 1466 879.3 752.3 488.5 9.77 127 293.1 127 302.9 214.9 -117.2 1006 1016 1641 576.5
3.43 566.7 449.4 469 810.9 312.7 1583 459.2 957.5 283.3 -87.93 732.8 400.6 859.8 205.2 136.8 -371.3 918.4 1202 1661 263.8
3.435 791.4 664.4 1036 1006 1094 1847 898.9 1221 439.7 -58.62 947.7 537.4 752.3 400.6 -224.7 -390.8 1348 1563 2071 342
3.44 791.4 664.4 840.3 1065 977 1661 918.4 1026 390.8 -302.9 781.6 644.8 449.4 283.3 68.39 -429.9 1309 1524 2032 302.9
3.445 781.6 693.7 1192 1124 1348 1729 1407 1143 488.5 -107.5 938 605.8 117.2 381 -195.4 -342 1446 1749 2169 254
3.45 566.7 586.2 859.8 908.6 879.3 1065 586.2 527.6 39.08 -469 674.2 429.9 517.8 -19.54 0 -508.1 1075 1231 1387 175.9
3.455 449.4 381 527.6 556.9 683.9 586.2 781.6 361.5 273.6 -58.62 566.7 146.6 107.5 -166.1 87.93 -342 918.4 1045 1319 166.1
3.46 390.8 263.8 254 273.6 283.3 -29.31 263.8 -39.08 48.85 -127 214.9 -136.8 273.6 -469 273.6 -312.7 654.6 517.8 713.2 146.6
3.465 361.5 127 459.2 322.4 762.1 -146.6 381 -19.54 312.7 332.2 48.85 -19.54 156.3 -342 596 166.1 654.6 400.6 556.9 195.4
3.47 58.62 -195.4 -185.6 -254 58.62 -517.8 78.16 -332.2 322.4 283.3 -381 -547.6 136.8 -400.6 605.8 185.6 156.3 -117.2 29.31 146.6
3.475 48.85 -342 156.3 -361.5 332.2 -498.3 293.1 -361.5 527.6 371.3 -312.7 -459.2 -58.62 -361.5 898.9 361.5 29.31 -254 -127 234.5
3.48 -547.6 -625.3 -527.6 -732.8 -459.2 -605.8 -263.8 -576.5 244.3 166.1 -469 -723 156.3 -469 703.5 361.5 -459.2 -644.8 -664.4 175.9
3.485 -459.2 -566.7 -713.2 -850 -987.3 -488.5 -566.7 -635.6 9.77 -19.54 -117.2 -1055 97.7 -527.6 654.6 361.5 -625.3 -781.6 -918.4 97.7
3.49 -312.7 -302.9 -322.4 -625.3 -439.7 -351.7 -449.4 -537.4 -78.16 -58.62 -146.6 -674.6 -97.7 -410.4 732.8 469 -469 -625.3 -967.8 19.54
3.495 -420.1 -283.3 -517.8 -615.5 -781.6 -107.5 -713.2 -371.3 -420.1 -156.3 -459.2 -918.4 371.3 -156.3 146.6 547.1 -586.2 -576.5 -1240 -205.2
3.5 -351.7 -429.9 -146.6 -517.8 -390.8 -214.9 -127 -420.1 -195.4 -185.6 -146.6 -537.4 -615.5 39.08 351.7 527.6 -244.3 -390.8 -820.7 -29.31
3.505 -136.8 -29.31 -224.7 -371.3 -469 -146.6 -517.8 -244.3 -371.3 -127 -381 -469 469 19.54 381 459.2 -254 -302.9 -947.7 -205.2
3.51 -175.9 -351.7 -78.16 -136.8 -625.3 136.8 -78.16 68.39 -9.77 185.6 -127 -302.9 -127 78.16 459.2 508.1 -39.08 117.2 -283.3 -205.2
3.515 263.8 146.6 224.7 263.8 -39.08 263.8 576.5 381 410.4 420.1 -29.31 -166.1 -39.08 156.3 420.1 351.7 342 322.4 322.4 39.08
3.52 371.3 683.9 87.93 713.2 -429.9 547.1 -136.8 576.5 87.93 596 29.31 254 469 390.8 254 302.9 332.2 703.5 322.4 -322.4
3.525 390.8 488.5 556.9 918.4 146.6 771.9 654.6 869.6 429.9 703.5 195.4 527.6 97.7 410.4 -361.5 87.93 664.4 1114 879.3 -224.7
3.53 928.2 1251 762.1 1290 381 625.3 556.9 674.2 293.1 429.9 58.62 683.9 9.77 400.6 19.54 -283.3 1026 1202 996.6 -195.4
3.535 840.3 1212 674.2 1348 156.3 508.1 410.4 527.6 19.54 234.5 547.1 810.9 97.7 224.7 -410.4 -527.6 967.3 1192 869.6 -332.2
3.54 1143 1329 986.8 1495 576.5 420.1 644.8 439.7 87.93 -58.62 312.7 693.7 -29.31 68.39 -156.3 -801.2 1251 1182 1026 -156.3
3.545 1085 1153 762.1 1055 312.7 -68.39 429.9 283.3 -107.5 -195.4 469 371.3 -19.54 -185.6 -205.2 -879.8 928.2 762.1 781.6 -136.8
3.55 703.5 810.9 644.8 791.4 312.7 0 244.3 342 -273.6 -224.7 596 254 -205.2 -146.6 -254 -791.4 762.1 625.3 654.6 -68.39
3.555 478.7 449.4 156.3 420.1 117.2 127 29.31 390.8 -410.4 -107.5 302.9 146.6 -420.1 -107.5 -332.2 -478.7 420.1 263.8 410.4 58.62
3.56 -9.77 -48.85 39.08 -78.16 -469 39.08 -586.2 293.1 -723 -68.39 166.1 -302.9 39.08 -117.2 -263.8 -214.9 -146.6 -185.6 -185.6 -48.85
3.565 -478.7 -273.6 -635.6 -410.4 -713.2 -127 -723 136.8 -771.9 -9.77 -244.3 -273.6 -361.5 -48.85 -166.1 39.08 -655.1 -488.5 -635.6 -185.6
3.57 -830.5 -469 -1055 -742.6 -1270 -410.4 -996.6 -107.5 -781.6 9.77 -537.4 -625.3 -254 -273.6 -146.6 97.7 -1182 -957.5 -1260 -224.7
3.575 -977.5 -586.2 -957.5 -1143 -1211 -987.3 -1114 -478.7 -683.9 -19.54 -625.3 -625.3 -361.5 -9.77 -29.31 214.9 -1426 -1124 -1622 -342
3.58 -987.3 -762.1 -1221 -1299 -977.5 -1250 -820.7 -810.9 -439.7 -224.7 -1006 -771.9 -351.7 -283.3 48.85 -39.08 -1602 -1426 -1837 -127
3.585 -918.4 -850 -987.3 -1221 -869.6 -1260 -498.3 -869.6 -302.9 -342 -635.6 -693.7 -508.1 -244.3 78.16 97.7 -1406 -1426 -1866 0
3.59 -1153 -889.1 -1329 -1221 -1240 -1339 -947.7 -1085 -625.3 -537.4 -840.3 -889.1 -390.8 -361.5 478.7 -117.2 -1563 -1661 -2218 -97.7
3.595 -928.2 -771.9 -1055 -1036 -1221 -1085 -683.9 -947.7 -547.6 -576.5 -566.7 -655.1 -244.3 -293.1 400.6 29.31 -1211 -1466 -1925 39.08
3.6 -1025 -732.8 -1104 -928.2 -908.6 -1006 -596 -810.9 -586.2 -488.5 -449.4 -693.7 -987.3 -332.2 -48.85 -166.1 -1094 -1240 -1681 -29.31
3.605 -655.1 -655.1 -586.2 -840.3 -1172 -987.3 -977.5 -752.3 -605.8 -517.8 -459.2 -664.4 39.08 -429.9 78.16 -195.4 -889.1 -1231 -1475 78.16
3.61 -410.4 -547.6 -351.7 -508.1 -488.5 -830.5 97.7 -400.6 29.31 -244.3 -97.7 -664.4 -449.4 -312.7 -97.7 -263.8 -381 -830.5 -429.9 312.7
3.615 -420.1 -498.3 -400.6 -342 -762.1 -625.3 -185.6 -107.5 68.39 -58.62 -175.9 -459.2 48.85 -342 -214.9 -263.8 -371.3 -615.5 -127 146.6
3.62 -342 -312.7 -224.7 -244.3 -469 -635.6 19.54 48.85 234.5 -19.54 -48.85 -498.3 195.4 -293.1 -58.62 -283.3 -146.6 -498.3 469 342
3.625 -244.3 -244.3 175.9 39.08 -39.08 29.31 332.2 498.3 361.5 107.5 293.1 -127 136.8 68.39 -293.1 -136.8 214.9 -9.77 869.6 283.3
3.63 -78.16 -48.85 263.8 146.6 410.4 400.6 683.9 908.6 508.1 224.7 205.2 175.9 68.39 469 -234.5 -19.54 439.7 332.2 1339 263.8
3.635 107.5 -146.6 547.1 175.9 332.2 312.7 683.9 566.7 371.3 -117.2 410.4 400.6 78.16 195.4 -146.6 -342 693.7 283.3 1319 381
3.64 361.5 87.93 781.6 683.9 683.9 859.8 879.3 947.7 459.2 146.6 439.7 713.2 156.3 527.6 -254 -87.93 898.9 615.5 1534 273.6
3.645 498.3 29.31 820.7 498.3 625.3 683.9 752.3 801.2 361.5 166.1 508.1 537.4 87.93 342 -469 -107.5 918.4 556.9 1446 273.6
3.65 488.5 -9.77 1192 683.9 1407 889.1 1192 967.3 566.7 469 410.4 449.4 -381 596 -361.5 214.9 1192 830.5 1690 410.4
3.655 332.2 -19.54 947.7 439.7 752.3 771.9 850 869.6 390.8 498.3 556.9 224.7 469 478.7 -381 322.4 762.1 449.4 1124 293.1
3.66 48.85 -234.5 820.7 263.8 1231 547.1 898.9 771.9 224.7 449.4 127 68.39 -175.9 351.7 -127 371.3 810.9 361.5 938 361.5
3.665 -351.7 -322.4 312.7 156.3 312.7 420.1 302.9 517.8 -263.8 175.9 244.3 -97.7 146.6 214.9 -39.08 312.7 234.5 -19.54 -68.39 -68.39
3.67 -771.9 -547.6 -195.4 -263.8 -312.7 -273.6 -263.8 -58.62 -771.9 -175.9 -9.77 -254 410.4 -195.4 -146.6 78.16 -273.6 -508.1 -898.9 -224.7
3.675 -781.6 -683.9 -244.3 -312.7 -19.54 -312.7 224.7 -185.6 -655.1 -322.4 -205.2 -508.1 -263.8 -214.9 469 58.62 -390.8 -615.5 -1085 -205.2
3.68 -1240 -898.9 -781.6 -605.8 -1143 -967.8 -869.6 -810.9 -1192 -605.8 -332.2 -615.5 87.93 -400.6 -58.62 -87.93 -996.6 -1094 -1925 -478.7
3.685 -1211 -1016 -820.7 -713.2 -1006 -1280 -723 -1064 -957.5 -820.7 -390.8 -615.5 87.93 -478.7 381 -244.3 -1064 -1231 -1925 -293.1
3.69 -1377 -1055 -810.9 -947.7 -977.5 -1563 -947.7 -1163 -771.9 -742.6 -469 -879.8 185.6 -478.7 547.1 -234.5 -1319 -1387 -1954 -381
3.695 -1339 -1045 -1036 -820.7 -1055 -1446 -781.6 -967.8 -429.9 -674.6 -615.5 -723 -87.93 -547.6 439.7 -293.1 -1260 -1319 -1524 -283.3
3.7 -1270 -928.2 -488.5 -840.3 -195.4 -918.4 39.08 -146.6 312.7 -58.62 -469 -586.2 -156.3 -273.6 625.3 78.16 -1075 -781.6 -576.5 -312.7
3.705 -1221 -830.5 -820.7 -644.8 -244.3 -576.5 605.8 117.2 801.2 87.93 -742.6 -78.16 -615.5 -117.2 244.3 29.31 -1094 -605.8 78.16 -312.7
3.71 -1260 -987.3 -429.9 -547.6 -420.1 68.39 410.4 664.4 889.1 254 -322.4 0 68.39 -48.85 547.1 127 -810.9 -293.1 635.1 -156.3
3.715 -810.9 -762.1 -322.4 -371.3 29.31 400.6 683.9 830.5 898.9 185.6 -332.2 283.3 224.7 -39.08 -214.9 -136.8 -508.1 -19.54 1104 -48.85
3.72 -635.6 -850 -175.9 -127 -234.5 683.9 478.7 1006 771.9 87.93 -117.2 342 508.1 87.93 429.9 -19.54 -166.1 136.8 1348 156.3
3.725 -87.93 -596 205.2 48.85 410.4 1016 801.2 1182 752.3 39.08 97.7 127 332.2 117.2 9.77 -351.7 449.4 429.9 1720 478.7
3.73 87.93 -244.3 293.1 263.8 508.1 1055 830.5 1368 596 224.7 263.8 508.1 117.2 302.9 -48.85 78.16 674.2 654.6 1720 410.4
3.735 322.4 0 674.2 625.3 732.8 1251 986.8 1436 488.5 332.2 537.4 674.2 156.3 410.4 -127 -39.08 967.3 762.1 1690 469
3.74 625.3 87.93 1212 781.6 2003 1212 1710 1466 537.4 449.4 68.39 615.5 -791.4 478.7 -342 136.8 1456 1124 1866 654.6
3.745 234.5 263.8 781.6 723 527.6 859.8 117.2 1036 -596 136.8 156.3 703.5 97.7 283.3 -742.6 29.31 996.6 674.2 781.6 332.2
3.75 713.2 156.3 1407 908.6 1446 771.9 390.8 879.3 -771.9 19.54 68.39 605.8 -19.54 195.4 -625.3 48.85 1358 810.9 615.5 469
3.755 615.5 302.9 723 566.7 205.2 166.1 -781.6 195.4 -1729 -410.4 312.7 302.9 459.2 -166.1 -840.3 -117.2 908.6 283.3 -410.4 283.3
3.76 498.3 175.9 762.1 420.1 234.5 -390.8 -820.7 -234.5 -1749 -586.2 214.9 254 283.3 -283.3 -605.8 -166.1 791.4 19.54 -859.8 312.7
3.765 469 156.3 459.2 381 -29.31 -683.9 -820.7 -586.2 -1553 -723 175.9 19.54 166.1 -459.2 -459.2 -195.4 488.5 -175.9 -1299 205.2
3.77 68.39 -136.8 -29.31 -156.3 -214.9 -1240 -732.8 -850 -1045 -605.8 -156.3 -68.39 -146.6 -527.6 -517.8 -127 -68.39 -469 -1505 39.08
3.775 -136.8 -420.1 224.7 -459.2 78.16 -1133 214.9 -625.3 107.5 -371.3 -39.08 -410.4 -224.7 -488.5 410.4 68.39 -205.2 -488.5 -1085 214.9
3.78 -605.8 -742.6 -938 -1016 -987.3 -1348 -537.4 -703.5 146.6 -156.3 -625.3 -400.6 322.4 -293.1 263.8 156.3 -1104 -898.9 -1406 -175.9
3.785 -771.9 -781.6 -762.1 -1085 -478.7 -810.9 254 -205.2 850 205.2 -537.4 -459.2 -244.3 -146.6 644.8 342 -1085 -644.8 -703.5 -117.2
3.79 -791.4 -723 -967.8 -879.8 -605.8 -381 302.9 -19.54 1270 469 -771.9 -185.6 234.5 68.39 1212 429.9 -1006 -508.1 -254 -136.8
3.795 -1016 -674.6 -1104 -810.9 -566.7 -127 175.9 -39.08 1143 244.3 -723 -195.4 156.3 29.31 1006 87.93 -1114 -449.4 -263.8 -322.4
3.8 -664.4 -390.8 -918.4 -371.3 -478.7 273.6 273.6 87.93 1182 107.5 -693.7 175.9 29.31 39.08 918.4 -156.3 -742.6 -185.6 29.31 -283.3
3.805 -459.2 -254 -58.62 19.54 302.9 723 654.6 488.5 1339 381 -576.5 371.3 322.4 263.8 889.1 -78.16 -381 293.1 449.4 -420.1
3.81 -254 -29.31 -566.7 117.2 -361.5 586.2 517.8 351.7 1065 58.62 -19.54 410.4 -342 78.16 381 -400.6 -254 214.9 508.1 -293.1
3.815 273.6 420.1 48.85 635.1 -39.08 889.1 117.2 683.9 869.6 254 -39.08 762.1 371.3 322.4 469 -9.77 224.7 488.5 644.8 -205.2
3.82 342 429.9 68.39 693.7 39.08 810.9 400.6 732.8 791.4 322.4 234.5 644.8 195.4 156.3 254 -48.85 342 527.6 762.1 -175.9
3.825 1251 1172 654.6 898.9 615.5 547.1 107.5 488.5 439.7 0 224.7 830.5 156.3 127 185.6 58.62 898.9 478.7 683.9 127
3.83 1358 1182 654.6 986.8 322.4 293.1 -214.9 293.1 -29.31 136.8 664.4 889.1 508.1 127 -478.7 -244.3 820.7 605.8 439.7 -127
3.835 1573 1085 1085 957.5 1426 39.08 322.4 244.3 -58.62 136.8 381 781.6 -224.7 -19.54 -508.1 -48.85 1192 762.1 605.8 97.7
3.84 1847 1407 1153 1036 996.6 -351.7 214.9 -117.2 -439.7 39.08 1026 830.5 -146.6 0 -762.1 -136.8 1290 703.5 420.1 185.6
3.845 1641 1172 1065 996.6 762.1 -185.6 -576.5 -19.54 -1025 127 850 547.1 68.39 9.77 -566.7 87.93 1143 752.3 78.16 87.93
3.85 1778 1251 1661 1055 1485 244.3 39.08 234.5 -859.8 293.1 1309 771.9 127 283.3 -478.7 547.1 1583 986.8 498.3 429.9
3.855 1768 1358 1260 801.2 537.4 390.8 -1064 195.4 -1602 -78.16 840.3 517.8 342 117.2 -938 508.1 1065 625.3 -224.7 224.7
3.86 1876 1006 1436 517.8 1212 400.6 -527.6 117.2 -1211 -19.54 732.8 664.4 400.6 429.9 -635.6 635.1 1114 654.6 48.85 420.1
3.865 1436 683.9 1006 185.6 771.9 371.3 -410.4 78.16 -987.3 -175.9 889.1 469 429.9 205.2 -928.2 576.5 742.6 390.8 -19.54 429.9
3.87 1417 469 889.1 -156.3 420.1 -48.85 -293.1 -263.8 -625.3 -127 527.6 214.9 371.3 107.5 -117.2 498.3 390.8 -9.77 -19.54 449.4
3.875 889.1 508.1 -39.08 -58.62 -78.16 156.3 -273.6 -19.54 -312.7 302.9 556.9 214.9 273.6 214.9 -136.8 801.2 29.31 97.7 87.93 117.2
3.88 693.7 517.8 263.8 156.3 78.16 390.8 136.8 273.6 205.2 596 371.3 371.3 156.3 332.2 478.7 889.1 48.85 234.5 429.9 0
3.885 713.2 390.8 -234.5 -224.7 -214.9 58.62 97.7 68.39 429.9 508.1 68.39 -254 48.85 58.62 596 605.8 -254 -97.7 459.2 9.77
3.89 781.6 547.1 9.77 166.1 429.9 263.8 986.8 361.5 1114 635.1 97.7 175.9 -429.9 273.6 1016 547.1 9.77 293.1 928.2 -58.62
3.895 283.3 97.7 -293.1 -29.31 -78.16 166.1 566.7 263.8 1231 498.3 -146.6 -9.77 -58.62 19.54 1026 195.4 -351.7 68.39 810.9 -166.1
3.9 371.3 -234.5 -166.1 -390.8 244.3 -214.9 781.6 0 1436 224.7 -48.85 -459.2 136.8 -244.3 1065 -234.5 -410.4 -87.93 830.5 -48.85
3.905 381 175.9 -87.93 -39.08 185.6 58.62 517.8 117.2 1378 283.3 78.16 -9.77 39.08 -48.85 1133 -332.2 -312.7 205.2 830.5 -234.5
3.91 644.8 195.4 244.3 9.77 107.5 -127 273.6 -39.08 1163 146.6 644.8 -166.1 654.6 -166.1 996.6 -566.7 -78.16 244.3 810.9 -234.5
3.915 859.8 683.9 332.2 263.8 918.4 -48.85 537.4 29.31 947.7 78.16 107.5 -117.2 -166.1 78.16 801.2 -547.6 273.6 635.1 947.7 -195.4
3.92 752.3 605.8 48.85 283.3 -78.16 -29.31 -224.7 -127 322.4 -263.8 302.9 -9.77 302.9 87.93 371.3 -664.4 9.77 469 449.4 -420.1
3.925 810.9 791.4 302.9 361.5 547.1 175.9 224.7 -29.31 322.4 -361.5 332.2 -87.93 185.6 48.85 273.6 -537.4 273.6 576.5 644.8 -97.7
3.93 361.5 302.9 -283.3 234.5 -263.8 556.9 -449.4 -87.93 -322.4 -429.9 87.93 -185.6 117.2 78.16 -302.9 -420.1 -244.3 449.4 87.93 -342
3.935 488.5 263.8 -39.08 -29.31 -87.93 586.2 -517.8 -127 -508.1 -547.6 351.7 -175.9 136.8 29.31 -410.4 -351.7 -107.5 312.7 39.08 -9.77
3.94 342 205.2 -205.2 107.5 -175.9 938 -977.5 29.31 -1143 -263.8 244.3 29.31 -293.1 68.39 -1075 68.39 -195.4 410.4 -273.6 -214.9
3.945 771.9 175.9 381 68.39 781.6 918.4 -957.5 -97.7 -1446 -371.3 48.85 136.8 -449.4 302.9 -1211 351.7 234.5 400.6 -263.8 97.7
3.95 537.4 273.6 312.7 87.93 -9.77 801.2 -1416 -185.6 -2003 -273.6 244.3 244.3 -127 361.5 -1446 205.2 127 205.2 -605.8 9.77
3.955 1075 381 957.5 254 889.1 615.5 -1055 -332.2 -1846 -302.9 517.8 244.3 -87.93 439.7 -1114 469 498.3 205.2 -449.4 302.9
3.96 957.5 332.2 810.9 342 635.1 674.2 -429.9 -214.9 -1319 -156.3 762.1 68.39 -234.5 273.6 -1075 332.2 644.8 293.1 -97.7 449.4
3.965 644.8 244.3 820.7 400.6 693.7 654.6 -273.6 -78.16 -898.9 -29.31 469 19.54 -224.7 185.6 -840.3 332.2 566.7 498.3 -39.08 205.2
3.97 146.6 117.2 156.3 214.9 156.3 351.7 -283.3 -166.1 -293.1 156.3 156.3 -146.6 97.7 -39.08 -390.8 302.9 39.08 214.9 -224.7 -39.08
3.975 78.16 127 322.4 273.6 586.2 214.9 420.1 -58.62 576.5 596 0 -127 19.54 -39.08 293.1 547.1 107.5 351.7 48.85 -156.3
3.98 -214.9 87.93 -87.93 175.9 19.54 -78.16 87.93 -293.1 723 351.7 156.3 146.6 420.1 -87.93 664.4 214.9 -302.9 39.08 -234.5 -400.6
3.985 -469 -39.08 -625.3 -19.54 -517.8 -342 332.2 -254 1231 820.7 -185.6 -351.7 537.4 -205.2 1006 508.1 -615.5 -97.7 -68.39 -449.4
3.99 -556.9 -185.6 -635.6 -127 -293.1 -273.6 742.6 -136.8 1583 713.2 -312.7 -175.9 107.5 -48.85 977 390.8 -683.9 -87.93 234.5 -332.2
3.995 -928.2 -293.1 -957.5 -127 -625.3 107.5 654.6 185.6 1534 928.2 -527.6 -351.7 -19.54 146.6 312.7 566.7 -1016 97.7 302.9 -635.6
4 -977.5 -664.4 -693.7 -478.7 244.3 166.1 1329 273.6 2081 869.6 -869.6 -655.1 136.8 -254 928.2 342 -879.8 0 781.6 -107.5
4.005 -1075 -332.2 -830.5 -273.6 -312.7 537.4 1016 390.8 1729 801.2 -644.8 -371.3 -136.8 332.2 547.1 273.6 -928.2 293.1 732.8 -420.1
4.01 -762.1 -439.7 -390.8 -254 244.3 703.5 1172 312.7 1778 478.7 -488.5 -273.6 -9.77 68.39 830.5 -117.2 -508.1 273.6 947.7 -68.39
4.015 -576.5 -244.3 -390.8 -58.62 -58.62 703.5 850 107.5 1436 107.5 -302.9 -127 312.7 117.2 527.6 -469 -293.1 244.3 723 -87.93
4.02 -342 136.8 -39.08 302.9 205.2 1016 644.8 195.4 986.8 -205.2 -29.31 58.62 136.8 117.2 214.9 -449.4 58.62 615.5 556.9 -156.3
4.025 -146.6 -48.85 68.39 400.6 586.2 938 654.6 -29.31 732.8 -605.8 -156.3 -195.4 -293.1 -244.3 -78.16 -1036 371.3 566.7 547.1 146.6
4.03 39.08 273.6 576.5 635.1 850 1026 654.6 146.6 449.4 -527.6 136.8 -78.16 -127 -78.16 -293.1 -713.2 566.7 781.6 449.4 39.08
4.035 156.3 107.5 537.4 556.9 967.3 771.9 469 -9.77 175.9 -615.5 -68.39 -39.08 -244.3 -117.2 -244.3 -830.5 625.3 605.8 400.6 234.5
4.04 322.4 205.2 879.3 693.7 1456 850 781.6 302.9 127 -117.2 263.8 78.16 -205.2 127 -322.4 -283.3 908.6 869.6 576.5 254
4.045 9.77 0 283.3 488.5 410.4 195.4 -625.3 -19.54 -850 -205.2 234.5 -87.93 -195.4 9.77 -918.4 -175.9 508.1 420.1 -97.7 127
4.05 302.9 224.7 625.3 869.6 478.7 351.7 -742.6 175.9 -1114 107.5 498.3 185.6 78.16 263.8 -1006 273.6 889.1 635.1 -29.31 127
4.055 -19.54 -48.85 342 605.8 -205.2 48.85 -1319 127 -1759 185.6 449.4 -156.3 234.5 234.5 -1778 410.4 488.5 429.9 -439.7 -107.5
4.06 156.3 -19.54 635.1 674.2 205.2 185.6 -879.8 293.1 -1387 371.3 283.3 68.39 185.6 332.2 -742.6 556.9 850 488.5 19.54 205.2
4.065 -146.6 -332.2 527.6 166.1 361.5 224.7 -449.4 527.6 -1016 674.2 293.1 -361.5 175.9 293.1 -810.9 801.2 498.3 371.3 175.9 127
4.07 -322.4 -449.4 439.7 117.2 977 478.7 420.1 830.5 -136.8 1065 48.85 136.8 -449.4 635.1 -29.31 1055 459.2 488.5 703.5 146.6
4.075 -1045 -918.4 -234.5 -615.5 -48.85 -9.77 283.3 576.5 302.9 967.3 -312.7 -644.8 0 136.8 332.2 898.9 -302.9 -175.9 449.4 185.6
4.08 -1045 -820.7 -107.5 -566.7 566.7 -48.85 1065 576.5 1016 1104 -420.1 -312.7 29.31 302.9 840.3 889.1 -244.3 -87.93 693.7 127
4.085 -1153 -957.5 -166.1 -810.9 195.4 -293.1 1417 293.1 1690 967.3 -381 -635.6 68.39 29.31 967.3 654.6 -400.6 -371.3 713.2 224.7
4.09 -1475 -1104 -566.7 -908.6 -459.2 -361.5 566.7 68.39 1505 713.2 -224.7 -615.5 586.2 29.31 1104 400.6 -762.1 -615.5 214.9 -29.31
4.095 -1446 -1172 -664.4 -1016 -586.2 -596 732.8 -117.2 1573 508.1 -263.8 -596 342 -117.2 791.4 224.7 -996.6 -791.4 9.77 -117.2
4.1 -1866 -1319 -1221 -1143 -1192 -655.1 9.77 -361.5 1231 166.1 -410.4 -576.5 302.9 -107.5 537.4 29.31 -1260 -1006 -400.6 -195.4
4.105 -1837 -1406 -898.9 -1163 -928.2 -869.6 -39.08 -683.9 1006 -293.1 -429.9 -547.6 166.1 -185.6 537.4 -342 -1182 -977.5 -566.7 -19.54
4.11 -1495 -1153 -683.9 -810.9 -478.7 -576.5 156.3 -615.5 908.6 -469 -478.7 -254 -205.2 -146.6 605.8 -547.6 -859.8 -644.8 -410.4 107.5
4.115 -1319 -898.9 -195.4 -390.8 29.31 -332.2 234.5 -508.1 723 -615.5 -547.6 -205.2 -48.85 -127 469 -635.6 -439.7 -302.9 -351.7 68.39
4.12 -683.9 -410.4 78.16 136.8 498.3 -58.62 527.6 -429.9 537.4 -840.3 -136.8 78.16 -410.4 -48.85 185.6 -1036 87.93 117.2 -87.93 146.6
4.125 -859.8 -312.7 -97.7 185.6 -234.5 -273.6 -390.8 -439.7 -175.9 -908.6 -136.8 107.5 439.7 -127 136.8 -1133 -185.6 -29.31 -635.6 -234.5
4.13 -596 107.5 -87.93 429.9 39.08 -166.1 -117.2 -166.1 -508.1 -928.2 -127 332.2 -439.7 19.54 -224.7 -1064 78.16 322.4 -439.7 -361.5
4.135 -615.5 117.2 -244.3 195.4 -615.5 -400.6 -732.8 -234.5 -1094 -1006 283.3 39.08 302.9 -97.7 -244.3 -1064 -146.6 -107.5 -762.1 -244.3
4.14 -527.6 195.4 -39.08 127 -205.2 -214.9 -723 29.31 -1426 -742.6 -175.9 429.9 39.08 97.7 -566.7 -635.6 -68.39 166.1 -664.4 -342
4.145 -302.9 127 -9.77 48.85 -175.9 -29.31 -752.3 146.6 -1534 -537.4 166.1 273.6 39.08 156.3 -625.3 -322.4 117.2 -58.62 -390.8 146.6
4.15 -214.9 -78.16 39.08 -214.9 -68.39 48.85 -655.1 234.5 -1593 -224.7 410.4 195.4 -68.39 302.9 -674.6 68.39 136.8 -97.7 -117.2 371.3
4.155 -302.9 -166.1 97.7 -283.3 107.5 68.39 -263.8 332.2 -1367 175.9 -127 332.2 -371.3 459.2 -947.7 469 254 -156.3 371.3 664.4
4.16 -136.8 -254 302.9 -400.6 586.2 29.31 -361.5 342 -1299 390.8 48.85 166.1 -146.6 449.4 -1172 713.2 224.7 -351.7 459.2 781.6
4.165 -283.3 -400.6 -48.85 -635.6 263.8 -234.5 -361.5 166.1 -1309 429.9 -107.5 -195.4 -420.1 185.6 -1651 810.9 -146.6 -527.6 263.8 625.3
4.17 -97.7 -166.1 39.08 -547.6 175.9 -224.7 -273.6 146.6 -859.8 586.2 166.1 -68.39 -97.7 175.9 -723 1016 -195.4 -674.6 117.2 547.1
4.175 -351.7 -273.6 -517.8 -576.5 -459.2 -410.4 -381 29.31 -556.9 625.3 127 -273.6 283.3 175.9 -390.8 1036 -537.4 -762.1 -361.5 127
4.18 -234.5 -224.7 -693.7 -605.8 -605.8 -371.3 -87.93 48.85 97.7 527.6 -234.5 -342 -87.93 58.62 283.3 1212 -615.5 -859.8 -469 29.31
4.185 -48.85 -136.8 -420.1 -742.6 -390.8 -742.6 439.7 -312.7 801.2 547.1 -127 -469 156.3 -127 752.3 566.7 -576.5 -1025 -488.5 87.93
4.19 -117.2 -312.7 -517.8 -635.6 -449.4 -420.1 1045 127 1426 957.5 -371.3 -439.7 -39.08 68.39 1055 918.4 -586.2 -850 -234.5 -87.93
4.195 -107.5 -87.93 -928.2 -1045 -1064 -1397 78.16 -810.9 879.3 332.2 -302.9 -605.8 -498.3 -332.2 420.1 9.77 -1114 -1495 -1055 -254
4.2 -312.7 -400.6 -947.7 -1075 -967.8 -1456 420.1 -723 1182 361.5 -351.7 -840.3 -537.4 -478.7 820.7 107.5 -977.5 -1319 -801.2 -175.9
4.205 -655.1 -332.2 -1514 -1114 -1397 -1807 -312.7 -1133 596 -136.8 -576.5 -703.5 381 -244.3 156.3 -312.7 -1387 -1466 -1485 -469
4.21 -175.9 -97.7 -1094 -996.6 -830.5 -1651 351.7 -1094 977 -381 -390.8 -723 -410.4 -488.5 938 -508.1 -820.7 -1075 -938 0
4.215 -185.6 -58.62 -644.8 -771.9 -410.4 -1114 234.5 -674.6 830.5 -185.6 -459.2 -459.2 390.8 -166.1 508.1 -400.6 -674.6 -547.6 -820.7 -185.6
4.22 -146.6 -58.62 -771.9 -527.6 -791.4 -498.3 390.8 -361.5 693.7 -214.9 97.7 -361.5 117.2 -185.6 586.2 -615.5 -517.8 -332.2 -498.3 -48.85
4.225 420.1 439.7 29.31 -78.16 58.62 185.6 283.3 107.5 351.7 -136.8 -224.7 -39.08 -48.85 -58.62 439.7 -498.3 -39.08 244.3 -302.9 -166.1
4.23 254 332.2 224.7 166.1 234.5 635.1 185.6 361.5 48.85 -244.3 0 -39.08 322.4 -117.2 283.3 -537.4 185.6 576.5 -107.5 -214.9
4.235 654.6 517.8 205.2 283.3 117.2 635.1 29.31 205.2 -224.7 -547.6 127 9.77 87.93 -175.9 -195.4 -830.5 469 556.9 19.54 -29.31
4.24 1182 840.3 693.7 420.1 801.2 683.9 332.2 254 -312.7 -713.2 342 195.4 -39.08 -254 -293.1 -713.2 820.7 752.3 322.4 195.4
4.245 1593 1280 693.7 742.6 117.2 938 -263.8 381 -742.6 -576.5 1075 478.7 342 48.85 -1085 -576.5 957.5 879.3 214.9 0
4.25 1563 1378 869.6 928.2 703.5 986.8 -68.39 547.1 -869.6 -449.4 928.2 674.2 -58.62 205.2 -713.2 -439.7 1153 1163 498.3 29.31
4.255 1768 1798 1075 1319 742.6 1133 -390.8 820.7 -1329 -136.8 1036 781.6 -29.31 302.9 -1397 -136.8 1241 1514 312.7 -410.4
4.26 1329 1759 1006 1827 517.8 1573 -322.4 1299 -1153 488.5 791.4 947.7 234.5 635.1 -938 439.7 1309 1876 596 -644.8
4.265 1182 1798 1006 1749 1270 1241 439.7 1368 -713.2 908.6 342 898.9 -1085 556.9 -928.2 840.3 1407 1915 928.2 -605.8
4.27 938 1798 488.5 1729 -29.31 1124 -576.5 1212 -957.5 1006 312.7 928.2 586.2 556.9 -635.6 1094 820.7 1475 244.3 -1006
4.275 1202 1446 586.2 947.7 556.9 -78.16 547.1 400.6 -224.7 605.8 68.39 605.8 -625.3 263.8 -351.7 723 850 683.9 439.7 -195.4
4.28 781.6 850 254 302.9 -166.1 -664.4 -469 -117.2 -459.2 273.6 -107.5 254 429.9 -166.1 136.8 537.4 234.5 -29.31 -214.9 -166.1
4.285 508.1 381 -410.4 -469 -1036 -1514 -547.6 -908.6 -146.6 -283.3 -39.08 -234.5 97.7 -469 136.8 127 -410.4 -977.5 -586.2 175.9
4.29 263.8 127 -136.8 -517.8 -420.1 -1094 -117.2 -644.8 488.5 -39.08 -527.6 -185.6 263.8 -351.7 918.4 322.4 -371.3 -889.1 -322.4 351.7
4.295 48.85 -87.93 -283.3 -830.5 -293.1 -1064 195.4 -547.6 869.6 87.93 -273.6 -371.3 58.62 -332.2 713.2 342 -635.6 -928.2 -410.4 185.6
4.3 -244.3 -127 -586.2 -683.9 -596 -508.1 410.4 -224.7 1163 342 -693.7 -214.9 -127 -78.16 996.6 517.8 -723 -732.8 -322.4 58.62
4.305 -234.5 -127 -566.7 -556.9 -214.9 -381 703.5 -156.3 1378 312.7 -840.3 -332.2 -371.3 -68.39 1055 390.8 -596 -556.9 -254 29.31
4.31 -117.2 97.7 -390.8 -566.7 -742.6 -488.5 136.8 -332.2 859.8 117.2 -605.8 -273.6 -107.5 -166.1 683.9 87.93 -752.3 -576.5 -644.8 -244.3
4.315 48.85 68.39 -713.2 -449.4 -830.5 -234.5 -19.54 -400.6 537.4 -195.4 -371.3 -234.5 -254 -185.6 136.8 -283.3 -615.5 -400.6 -664.4 -244.3
4.32 410.4 234.5 -205.2 -400.6 -625.3 -283.3 -166.1 -605.8 322.4 -625.3 -195.4 -273.6 29.31 -469 351.7 -703.5 -254 -322.4 -576.5 -107.5
4.325 420.1 400.6 -156.3 9.77 -459.2 127 -381 -478.7 -244.3 -898.9 -19.54 -29.31 -166.1 -390.8 -224.7 -810.9 78.16 19.54 -537.4 -166.1
4.33 762.1 801.2 273.6 713.2 58.62 771.9 -195.4 -195.4 -390.8 -977.5 185.6 478.7 254 -166.1 -68.39 -957.5 654.6 498.3 -185.6 -136.8
4.335 1045 1172 586.2 1016 302.9 791.4 9.77 -156.3 -556.9 -1153 175.9 850 -547.6 -107.5 -469 -967.8 1055 635.1 97.7 146.6
4.34 1045 1212 752.3 1241 566.7 898.9 -322.4 -107.5 -1104 -1172 527.6 1026 195.4 -9.77 -449.4 -928.2 1192 732.8 78.16 127
4.345 1358 1231 781.6 1124 195.4 625.3 -381 -293.1 -1475 -1299 586.2 928.2 -771.9 -146.6 -1025 -1006 1319 586.2 234.5 371.3
4.35 1339 1280 889.1 1153 263.8 478.7 -957.5 -117.2 -1846 -987.3 830.5 889.1 429.9 -107.5 -674.6 -517.8 1339 615.5 195.4 224.7
4.355 1495 1241 1036 928.2 195.4 -48.85 -889.1 -439.7 -1915 -957.5 723 713.2 68.39 -58.62 -908.6 -459.2 1456 263.8 371.3 566.7
4.36 1436 1143 1417 986.8 732.8 156.3 -439.7 146.6 -1270 -97.7 977 674.2 205.2 205.2 -693.7 273.6 1573 537.4 957.5 498.3
4.365 1358 840.3 1280 439.7 625.3 -302.9 -351.7 29.31 -771.9 48.85 449.4 410.4 302.9 0 -1143 332.2 1172 58.62 1094 654.6
4.37 732.8 136.8 1124 127 928.2 19.54 537.4 576.5 449.4 781.6 0 224.7 -420.1 195.4 -195.4 820.7 859.8 166.1 1759 732.8
4.375 625.3 97.7 801.2 -29.31 625.3 332.2 674.2 713.2 957.5 879.3 -146.6 195.4 166.1 146.6 -156.3 898.9 420.1 -9.77 1612 605.8
4.38 48.85 -195.4 351.7 -156.3 410.4 527.6 801.2 859.8 1358 1114 -586.2 107.5 9.77 224.7 478.7 1055 -117.2 -224.7 1456 439.7
4.385 -371.3 -449.4 -420.1 -586.2 -596 78.16 439.7 390.8 1387 967.3 -674.6 -214.9 -117.2 -9.77 820.7 840.3 -683.9 -830.5 820.7 322.4
4.39 -615.5 -625.3 -283.3 -537.4 -293.1 48.85 381 234.5 1407 781.6 -566.7 -185.6 -9.77 -117.2 957.5 664.4 -830.5 -947.7 498.3 224.7
4.395 -898.9 -674.6 -1075 -1045 -1319 -488.5 254 -205.2 1339 674.2 -469 -488.5 -508.1 -283.3 723 429.9 -1329 -1387 0 107.5
4.4 -791.4 -517.8 -723 -840.3 -810.9 -332.2 -195.4 -254 1114 517.8 -302.9 -195.4 9.77 -156.3 810.9 322.4 -1211 -1182 -322.4 -107.5
4.405 -898.9 -527.6 -1172 -977.5 -1143 -752.3 -68.39 -723 1094 39.08 -596 -381 -332.2 -400.6 635.1 -107.5 -1143 -1270 -381 117.2
4.41 -928.2 -127 -1036 -390.8 -1201 -283.3 -723 -674.6 410.4 -175.9 -508.1 78.16 -9.77 -205.2 19.54 -312.7 -1075 -898.9 -869.6 -302.9
4.415 -381 58.62 -429.9 -322.4 -361.5 -615.5 -48.85 -1064 469 -723 -605.8 68.39 -967.8 -342 332.2 -879.8 -381 -713.2 -586.2 214.9
4.42 -361.5 263.8 -302.9 166.1 -469 -390.8 -830.5 -1211 -332.2 -1192 -556.9 371.3 -127 -342 0 -1192 -234.5 -381 -1094 -68.39
4.425 -117.2 283.3 195.4 166.1 -195.4 -771.9 -791.4 -1544 -781.6 -1787 -283.3 302.9 -635.6 -674.6 117.2 -1700 78.16 -224.7 -1221 9.77
4.43 449.4 742.6 361.5 537.4 224.7 -635.6 -967.8 -1436 -1104 -1915 -156.3 683.9 58.62 -517.8 127 -1778 478.7 9.77 -1240 -19.54
4.435 97.7 625.3 87.93 615.5 -498.3 -410.4 -1221 -1036 -1475 -1720 -9.77 459.2 -19.54 -400.6 -48.85 -1475 263.8 127 -1192 -234.5
4.44 410.4 713.2 527.6 752.3 48.85 -107.5 -850 -615.5 -1250 -1270 224.7 859.8 312.7 -107.5 -390.8 -1094 713.2 361.5 -508.1 -29.31
4.445 214.9 654.6 410.4 693.7 136.8 410.4 -381 78.16 -996.6 -644.8 185.6 469 9.77 39.08 -576.5 -566.7 742.6 469 195.4 107.5
4.45 205.2 322.4 449.4 556.9 9.77 742.6 -498.3 508.1 -1172 -97.7 439.7 625.3 156.3 302.9 -1387 -39.08 615.5 537.4 537.4 19.54
4.455 488.5 273.6 869.6 498.3 977 752.3 263.8 771.9 -547.6 371.3 351.7 449.4 -390.8 605.8 -655.1 322.4 1085 654.6 1417 517.8
4.46 -29.31 -400.6 390.8 214.9 429.9 693.7 625.3 957.5 -283.3 869.6 254 312.7 -332.2 605.8 -898.9 683.9 664.4 449.4 1583 469
4.465 185.6 -136.8 224.7 0 371.3 254 29.31 605.8 -400.6 830.5 146.6 107.5 -342 527.6 -410.4 664.4 351.7 78.16 1143 390.8
4.47 -78.16 -390.8 234.5 -224.7 254 58.62 488.5 547.1 312.7 1026 9.77 205.2 -283.3 488.5 -9.77 850 244.3 -107.5 1163 469
4.475 -664.4 -586.2 -517.8 -517.8 -576.5 -390.8 -97.7 136.8 263.8 869.6 -361.5 -107.5 -351.7 263.8 68.39 664.4 -566.7 -635.6 390.8 136.8
4.48 -771.9 -615.5 -664.4 -674.6 -664.4 -644.8 166.1 -175.9 674.2 703.5 -625.3 -136.8 -9.77 166.1 224.7 537.4 -635.6 -840.3 234.5 224.7
4.485 -947.7 -879.8 -1075 -918.4 -908.6 -898.9 68.39 -527.6 635.1 527.6 -586.2 -273.6 214.9 9.77 469 351.7 -987.3 -967.8 -273.6 -9.77
4.49 -1045 -664.4 -723 -655.1 -332.2 -820.7 586.2 -625.3 1026 469 -820.7 29.31 -293.1 0 801.2 302.9 -586.2 -723 -195.4 97.7
4.495 -1250 -762.1 -1495 -771.9 -1446 -1201 -332.2 -1240 410.4 -244.3 -576.5 -166.1 498.3 -254 625.3 -117.2 -996.6 -1172 -1192 -146.6
4.5 -752.3 -107.5 -1025 -439.7 -1163 -1143 -596 -1406 156.3 -498.3 -683.9 107.5 -205.2 -400.6 752.3 -283.3 -752.3 -1055 -1593 -273.6
4.505 -869.6 -146.6 -1172 -146.6 -1192 -908.6 -576.5 -1358 48.85 -801.2 -703.5 195.4 48.85 -302.9 615.5 -429.9 -723 -1025 -1690 -234.5
4.51 -1055 -146.6 -1544 -351.7 -1632 -1163 -889.1 -1495 -332.2 -1085 -859.8 19.54 -234.5 -635.6 439.7 -723 -1006 -1182 -1954 -371.3
4.515 -644.8 0 -1075 -117.2 -1124 -713.2 -400.6 -1153 -136.8 -996.6 -547.6 166.1 -478.7 -214.9 371.3 -732.8 -683.9 -810.9 -1426 -205.2
4.52 -977.5 -439.7 -830.5 -459.2 -703.5 -342 -390.8 -840.3 -293.1 -918.4 -830.5 29.31 29.31 -293.1 -39.08 -830.5 -732.8 -625.3 -996.6 -224.7
4.525 -742.6 -517.8 -655.1 -273.6 -400.6 78.16 195.4 -517.8 19.54 -810.9 -351.7 107.5 -166.1 -107.5 449.4 -869.6 -312.7 -156.3 -312.7 -58.62
4.53 -214.9 19.54 -68.39 19.54 175.9 400.6 107.5 -351.7 -312.7 -918.4 -371.3 371.3 29.31 -205.2 107.5 -1094 39.08 166.1 48.85 -39.08
4.535 -224.7 -87.93 -48.85 322.4 342 830.5 58.62 127 -429.9 -566.7 -390.8 244.3 175.9 9.77 263.8 -859.8 205.2 576.5 449.4 -136.8
4.54 78.16 429.9 244.3 928.2 596 1290 185.6 556.9 -566.7 -342 -302.9 615.5 273.6 107.5 -19.54 -556.9 517.8 928.2 771.9 -78.16
4.545 312.7 410.4 459.2 683.9 625.3 967.3 -127 605.8 -996.6 -195.4 -127 537.4 -78.16 58.62 -977.5 -449.4 547.1 918.4 742.6 -97.7
4.55 175.9 263.8 322.4 879.3 478.7 1407 -19.54 1153 -732.8 429.9 195.4 732.8 -156.3 498.3 -869.6 322.4 654.6 1192 1153 -78.16
4.555 586.2 195.4 947.7 586.2 1241 1045 527.6 1036 -517.8 498.3 615.5 625.3 -166.1 283.3 -830.5 205.2 1055 1075 1456 361.5
4.56 302.9 293.1 410.4 654.6 556.9 879.3 -9.77 957.5 -537.4 840.3 302.9 586.2 -146.6 351.7 -762.1 459.2 635.1 830.5 1055 9.77
4.565 205.2 -9.77 752.3 420.1 889.1 605.8 459.2 742.6 -9.77 869.6 371.3 371.3 -117.2 371.3 -175.9 469 683.9 625.3 1192 293.1
4.57 -224.7 -146.6 361.5 146.6 400.6 -9.77 234.5 342 117.2 840.3 -78.16 19.54 371.3 58.62 97.7 439.7 146.6 156.3 635.1 58.62
4.575 -449.4 -351.7 -175.9 -214.9 -214.9 -762.1 127 -205.2 449.4 586.2 -263.8 -302.9 -136.8 -136.8 185.6 312.7 -332.2 -439.7 195.4 107.5
4.58 -655.1 -547.6 -527.6 -674.6 -351.7 -1280 29.31 -586.2 469 361.5 -371.3 -615.5 39.08 -293.1 -342 224.7 -810.9 -850 -371.3 -48.85
4.585 -918.4 -1124 -703.5 -752.3 -332.2 -1172 205.2 -566.7 889.1 371.3 -586.2 -683.9 -361.5 -254 556.9 420.1 -938 -1016 -293.1 117.2
4.59 -1436 -1348 -1299 -1290 -1104 -1602 -400.6 -1085 605.8 -39.08 -732.8 -742.6 -117.2 -478.7 214.9 78.16 -1593 -1729 -1045 78.16
4.595 -1671 -1582 -1787 -1466 -1681 -1426 -879.8 -1192 410.4 -224.7 -947.7 -810.9 -136.8 -400.6 429.9 58.62 -1974 -1983 -1426 0
4.6 -1983 -2062 -1817 -1593 -1456 -1299 -615.5 -1221 596 -263.8 -1133 -918.4 -68.39 -361.5 674.2 -9.77 -2003 -1935 -1339 185.6
4.605 -1778 -1729 -2051 -1563 -1690 -1406 -957.5 -1553 78.16 -820.7 -1045 -771.9 -517.8 -469 224.7 -469 -2042 -2032 -1710 156.3
4.61 -1319 -1309 -1495 -850 -655.1 -527.6 -429.9 -938 97.7 -527.6 -957.5 -576.5 -879.8 -185.6 361.5 -175.9 -1358 -1104 -1143 -9.77
4.615 -1495 -1260 -1406 -635.6 -977.5 -175.9 -732.8 -683.9 -254 -635.6 -850 -322.4 -205.2 -9.77 254 -302.9 -1104 -869.6 -1163 -68.39
4.62 -1025 -898.9 -840.3 -214.9 -263.8 107.5 -517.8 -498.3 -429.9 -576.5 -742.6 -58.62 -342 48.85 87.93 -302.9 -605.8 -332.2 -918.4 -166.1
4.625 -820.7 -801.2 -439.7 -39.08 117.2 381 -78.16 -185.6 -342 -537.4 -361.5 29.31 -449.4 156.3 -214.9 -312.7 -58.62 39.08 -283.3 48.85
4.63 -850 -1006 -351.7 -127 420.1 195.4 -244.3 -156.3 -420.1 -332.2 -879.8 127 -322.4 78.16 -342 -166.1 29.31 107.5 -9.77 156.3
4.635 -205.2 -556.9 234.5 361.5 879.3 517.8 752.3 175.9 68.39 -195.4 39.08 214.9 -127 166.1 -342 -136.8 508.1 429.9 703.5 400.6
4.64 -351.7 -449.4 78.16 361.5 703.5 459.2 214.9 244.3 -185.6 -9.77 -576.5 175.9 -136.8 -19.54 -576.5 -19.54 508.1 439.7 938 459.2
4.645 136.8 -175.9 664.4 547.1 986.8 420.1 410.4 371.3 -58.62 78.16 68.39 175.9 381 -39.08 -556.9 48.85 801.2 527.6 1231 576.5
4.65 19.54 -146.6 459.2 478.7 293.1 97.7 -117.2 244.3 -293.1 0 -78.16 -19.54 205.2 -146.6 -459.2 -58.62 732.8 439.7 1133 478.7
4.655 244.3 -302.9 635.1 283.3 635.1 -195.4 195.4 302.9 -136.8 117.2 302.9 -136.8 312.7 -263.8 -381 -19.54 781.6 410.4 1280 586.2
4.66 371.3 156.3 439.7 293.1 547.1 -371.3 58.62 254 -244.3 302.9 58.62 19.54 -195.4 -117.2 -664.4 205.2 547.1 283.3 889.1 342
4.665 -48.85 -469 117.2 -78.16 195.4 -605.8 19.54 127 -273.6 254 146.6 -185.6 -117.2 -302.9 -683.9 205.2 39.08 29.31 576.5 224.7
4.67 -361.5 -547.6 -146.6 -156.3 -78.16 -263.8 29.31 214.9 -9.77 439.7 29.31 -87.93 -97.7 -39.08 -87.93 596 -214.9 -302.9 410.4 254
4.675 -527.6 -703.5 -469 -547.6 -469 -586.2 -293.1 -273.6 -156.3 -97.7 -224.7 -302.9 -224.7 -332.2 -508.1 78.16 -664.4 -771.9 -214.9 195.4
4.68 -537.4 -1025 146.6 -214.9 517.8 302.9 449.4 195.4 537.4 166.1 -224.7 175.9 -655.1 -136.8 224.7 488.5 -214.9 -390.8 263.8 527.6
4.685 -1085 -1163 -771.9 -996.6 -664.4 -527.6 -400.6 -605.8 136.8 -469 -898.9 -547.6 -342 -175.9 136.8 -127 -918.4 -1075 -703.5 332.2
4.69 -517.8 -840.3 -449.4 -908.6 -58.62 -293.1 312.7 -586.2 429.9 -586.2 -693.7 -185.6 -605.8 -224.7 293.1 -146.6 -683.9 -947.7 -693.7 410.4
4.695 -977.5 -898.9 -1075 -1104 -644.8 -517.8 -527.6 -908.6 -156.3 -879.8 -947.7 -527.6 -449.4 -244.3 9.77 -410.4 -1124 -967.8 -1319 68.39
4.7 -655.1 -791.4 -713.2 -977.5 -605.8 -478.7 -244.3 -850 78.16 -810.9 -195.4 -400.6 439.7 -195.4 850 -371.3 -987.3 -810.9 -1270 9.77
4.705 -859.8 -683.9 -957.5 -664.4 -644.8 -117.2 -478.7 -664.4 -273.6 -762.1 -185.6 -166.1 146.6 -185.6 175.9 -469 -1016 -410.4 -1201 -214.9
4.71 -547.6 -527.6 -146.6 -263.8 175.9 87.93 -78.16 -420.1 -29.31 -674.6 -156.3 -39.08 205.2 -244.3 537.4 -449.4 -400.6 39.08 -596 -58.62
4.715 -527.6 -127 -224.7 224.7 166.1 244.3 -156.3 -254 -254 -527.6 19.54 234.5 332.2 -185.6 254 -390.8 -195.4 390.8 -420.1 -205.2
4.72 97.7 68.39 273.6 371.3 488.5 175.9 48.85 -224.7 -371.3 -586.2 351.7 254 -107.5 -293.1 19.54 -527.6 332.2 615.5 -39.08 -39.08
4.725 244.3 293.1 586.2 615.5 820.7 273.6 146.6 58.62 -400.6 -273.6 381 195.4 420.1 -146.6 -97.7 -342 586.2 996.6 312.7 -87.93
4.73 410.4 322.4 967.3 566.7 1280 19.54 136.8 97.7 -556.9 -127 371.3 293.1 351.7 -136.8 -214.9 -273.6 664.4 1104 449.4 -48.85
4.735 596 351.7 830.5 400.6 918.4 -224.7 -78.16 166.1 -771.9 48.85 615.5 78.16 625.3 -68.39 -791.4 -175.9 547.1 1026 566.7 -78.16
4.74 429.9 -68.39 752.3 156.3 1309 -214.9 156.3 351.7 -625.3 273.6 322.4 -97.7 156.3 -185.6 -449.4 48.85 498.3 879.3 918.4 117.2
4.745 351.7 97.7 332.2 195.4 361.5 -39.08 -244.3 508.1 -869.6 361.5 654.6 -156.3 342 -48.85 -762.1 136.8 127 654.6 713.2 -117.2
4.75 576.5 -9.77 635.1 146.6 859.8 166.1 576.5 762.1 -254 517.8 683.9 -361.5 -68.39 -39.08 -400.6 302.9 351.7 810.9 1143 19.54
4.755 351.7 39.08 449.4 166.1 371.3 351.7 127 840.3 -244.3 615.5 762.1 -263.8 -127 -48.85 -136.8 390.8 166.1 791.4 850 -185.6
4.76 439.7 293.1 752.3 508.1 527.6 771.9 449.4 1153 273.6 938 644.8 68.39 664.4 29.31 48.85 644.8 283.3 928.2 703.5 -312.7
4.765 478.7 -19.54 703.5 205.2 859.8 420.1 869.6 791.4 615.5 615.5 713.2 -107.5 -175.9 107.5 185.6 517.8 322.4 752.3 635.1 -58.62
4.77 -48.85 -19.54 127 136.8 -58.62 400.6 -29.31 654.6 420.1 615.5 420.1 -361.5 820.7 0 351.7 312.7 -48.85 517.8 -166.1 -449.4
4.775 -127 -195.4 -9.77 -87.93 -107.5 175.9 273.6 351.7 410.4 283.3 381 -556.9 283.3 19.54 -234.5 312.7 -254 214.9 -566.7 -381
4.78 68.39 -68.39 97.7 -322.4 -420.1 -224.7 -78.16 -48.85 312.7 39.08 547.1 -771.9 410.4 -68.39 214.9 -78.16 -390.8 -19.54 -1016 -478.7
4.785 224.7 -146.6 283.3 -68.39 166.1 78.16 78.16 -29.31 332.2 -9.77 674.2 -752.3 -58.62 9.77 127 -39.08 -127 244.3 -1055 -449.4
4.79 469 -68.39 576.5 -263.8 342 -400.6 107.5 -400.6 263.8 -283.3 683.9 -664.4 381 -166.1 381 -302.9 -97.7 107.5 -1270 -400.6
4.795 517.8 -136.8 478.7 58.62 566.7 -146.6 175.9 -302.9 224.7 -302.9 410.4 -586.2 -68.39 -205.2 342 -351.7 87.93 322.4 -1114 -332.2
4.8 342 -234.5 459.2 9.77 195.4 -263.8 -29.31 -302.9 0 -293.1 596 -635.6 517.8 -273.6 107.5 -351.7 87.93 342 -1114 -459.2
4.805 576.5 166.1 596 312.7 214.9 -107.5 68.39 -19.54 -19.54 -117.2 547.1 -400.6 263.8 -68.39 68.39 -205.2 351.7 615.5 -820.7 -439.7
4.81 635.1 342 674.2 420.1 234.5 19.54 -78.16 322.4 9.77 224.7 410.4 -224.7 429.9 146.6 166.1 127 439.7 810.9 -459.2 -469
4.815 879.3 263.8 1104 214.9 1075 -107.5 361.5 605.8 195.4 371.3 459.2 -596 87.93 68.39 302.9 166.1 703.5 840.3 224.7 -175.9
4.82 810.9 400.6 820.7 263.8 644.8 263.8 166.1 1251 175.9 1055 644.8 -508.1 244.3 244.3 156.3 781.6 478.7 1026 508.1 -498.3
4.825 635.1 -68.39 420.1 19.54 703.5 302.9 234.5 1348 175.9 1182 420.1 -400.6 -342 537.4 68.39 791.4 371.3 928.2 869.6 -302.9
4.83 566.7 48.85 185.6 -87.93 0 244.3 234.5 1368 146.6 1299 810.9 -390.8 449.4 312.7 -498.3 859.8 117.2 752.3 723 -478.7
4.835 840.3 156.3 332.2 19.54 78.16 351.7 185.6 1231 273.6 1202 1114 -273.6 -39.08 381 -19.54 713.2 332.2 674.2 908.6 -224.7
4.84 762.1 244.3 371.3 97.7 -224.7 302.9 68.39 1026 166.1 1026 879.3 -283.3 234.5 469 -390.8 576.5 381 586.2 801.2 -205.2
4.845 898.9 400.6 615.5 332.2 117.2 605.8 146.6 1124 361.5 1016 889.1 -166.1 644.8 508.1 166.1 635.1 596 742.6 879.3 -175.9
4.85 986.8 508.1 723 469 400.6 810.9 469 1182 469 1026 1026 -205.2 39.08 488.5 214.9 644.8 869.6 996.6 1036 -127
4.855 625.3 517.8 293.1 713.2 263.8 1182 537.4 1358 400.6 1202 625.3 390.8 459.2 683.9 19.54 810.9 625.3 1153 820.7 -527.6
4.86 957.5 449.4 742.6 371.3 840.3 781.6 1182 977 693.7 928.2 537.4 -214.9 -146.6 312.7 0 517.8 840.3 1124 977 -332.2
4.865 556.9 302.9 517.8 410.4 361.5 762.1 410.4 732.8 273.6 713.2 693.7 -146.6 605.8 234.5 87.93 302.9 420.1 908.6 283.3 -625.3
4.87 644.8 371.3 586.2 312.7 146.6 361.5 488.5 410.4 351.7 361.5 771.9 -342 390.8 -68.39 29.31 9.77 400.6 791.4 9.77 -693.7
4.875 547.1 214.9 508.1 293.1 195.4 371.3 195.4 175.9 166.1 -68.39 859.8 -429.9 342 -166.1 195.4 -342 517.8 713.2 -273.6 -625.3
4.88 488.5 556.9 175.9 566.7 -439.7 127 -244.3 -87.93 -107.5 -371.3 1085 -19.54 420.1 -97.7 254 -283.3 351.7 664.4 -791.4 -947.7
4.885 625.3 605.8 97.7 449.4 -410.4 -244.3 -429.9 -605.8 -508.1 -791.4 781.6 -136.8 244.3 -381 -517.8 -830.5 254 420.1 -1319 -957.5
4.89 615.5 664.4 322.4 664.4 -312.7 -97.7 -166.1 -351.7 -224.7 -400.6 859.8 117.2 58.62 -48.85 224.7 -332.2 390.8 605.8 -1094 -1006
4.895 469 644.8 459.2 703.5 732.8 0 390.8 -107.5 -29.31 -166.1 195.4 39.08 -283.3 29.31 -78.16 -117.2 488.5 820.7 -683.9 -781.6
4.9 439.7 556.9 381 390.8 -117.2 -78.16 -410.4 146.6 -498.3 136.8 605.8 -29.31 195.4 68.39 283.3 254 68.39 527.6 -977.5 -889.1
4.905 625.3 596 586.2 322.4 693.7 459.2 302.9 859.8 -146.6 596 361.5 -205.2 -48.85 234.5 342 791.4 381 840.3 -166.1 -556.9
4.91 420.1 254 283.3 -9.77 -48.85 273.6 -410.4 850 -469 693.7 527.6 -244.3 488.5 537.4 156.3 986.8 156.3 449.4 -185.6 -410.4
4.915 459.2 97.7 390.8 -39.08 -283.3 527.6 -429.9 1241 -361.5 1016 977 -312.7 439.7 615.5 166.1 1260 322.4 469 351.7 -205.2
4.92 429.9 19.54 185.6 146.6 -400.6 635.1 -381 1202 -234.5 1153 654.6 -117.2 459.2 723 -127 1329 439.7 332.2 713.2 0
4.925 302.9 -87.93 498.3 361.5 97.7 1153 127 1466 78.16 1290 693.7 -78.16 9.77 850 -78.16 1417 635.1 566.7 1085 9.77
4.93 322.4 97.7 283.3 146.6 -175.9 771.9 -322.4 1202 -273.6 1221 596 -97.7 244.3 596 -351.7 1319 420.1 312.7 762.1 -273.6
4.935 517.8 195.4 351.7 175.9 0 791.4 -195.4 869.6 -283.3 801.2 752.3 -254 312.7 449.4 -29.31 918.4 342 185.6 527.6 -273.6
4.94 312.7 48.85 -58.62 -224.7 -381 293.1 -488.5 488.5 -381 654.6 644.8 -410.4 322.4 293.1 -234.5 703.5 -19.54 -58.62 136.8 -449.4
4.945 527.6 322.4 351.7 -48.85 283.3 175.9 117.2 263.8 -29.31 459.2 850 -234.5 224.7 185.6 156.3 351.7 302.9 78.16 332.2 -312.7
4.95 263.8 205.2 19.54 -117.2 117.2 -78.16 312.7 0 166.1 244.3 752.3 -420.1 166.1 -195.4 9.77 -29.31 78.16 -68.39 78.16 -312.7
4.955 361.5 332.2 87.93 185.6 234.5 -29.31 488.5 -87.93 214.9 29.31 713.2 -136.8 -39.08 -214.9 -39.08 -293.1 156.3 146.6 -136.8 -498.3
4.96 478.7 410.4 332.2 351.7 605.8 -127 635.1 -342 224.7 -244.3 547.1 -146.6 127 -469 234.5 -723 234.5 214.9 -478.7 -449.4
4.965 556.9 508.1 478.7 420.1 -185.6 -214.9 29.31 -508.1 -146.6 -547.6 898.9 9.77 127 -400.6 205.2 -889.1 0 175.9 -1163 -771.9
4.97 977 605.8 1133 810.9 1368 234.5 1114 -205.2 371.3 -478.7 644.8 283.3 -293.1 -156.3 674.2 -723 654.6 586.2 -771.9 -459.2
4.975 635.1 683.9 566.7 537.4 -429.9 -322.4 -556.9 -752.3 -576.5 -1055 967.3 107.5 273.6 -322.4 97.7 -1016 -29.31 -68.39 -1787 -723
4.98 683.9 605.8 869.6 498.3 830.5 68.39 214.9 -263.8 -48.85 -762.1 429.9 244.3 -136.8 -175.9 683.9 -537.4 351.7 185.6 -1124 -439.7
4.985 361.5 312.7 234.5 166.1 -205.2 -58.62 -488.5 -293.1 -478.7 -879.8 459.2 29.31 361.5 -48.85 351.7 -381 -185.6 -254 -1495 -410.4
4.99 390.8 214.9 517.8 -29.31 156.3 78.16 -508.1 -166.1 -478.7 -683.9 459.2 214.9 302.9 322.4 625.3 -39.08 -107.5 -185.6 -1133 -156.3
4.995 195.4 29.31 29.31 -166.1 -58.62 302.9 -459.2 97.7 -449.4 -488.5 400.6 -97.7 224.7 400.6 361.5 293.1 -234.5 -459.2 -762.1 175.9
5 0 -195.4 48.85 -390.8 -234.5 234.5 -850 156.3 -615.5 -224.7 410.4 -117.2 332.2 429.9 283.3 527.6 -254 -723 -527.6 420.1
5.005 -9.77 -254 -107.5 -283.3 -234.5 498.3 -752.3 469 -478.7 127 -29.31 -234.5 -39.08 547.1 127 791.4 -156.3 -771.9 9.77 596
5.01 29.31 -224.7 -39.08 -459.2 87.93 283.3 -439.7 596 -166.1 439.7 -156.3 -351.7 -87.93 410.4 39.08 781.6 -136.8 -810.9 508.1 693.7
5.015 29.31 -322.4 -146.6 -390.8 -166.1 517.8 -429.9 869.6 -127 713.2 -478.7 -58.62 -361.5 390.8 -381 840.3 -234.5 -488.5 635.1 332.2
5.02 39.08 -478.7 -224.7 -342 -9.77 537.4 -9.77 986.8 312.7 986.8 -87.93 -68.39 -117.2 361.5 -175.9 781.6 -273.6 -234.5 889.1 244.3
5.025 -48.85 -332.2 -146.6 -273.6 -263.8 351.7 -19.54 840.3 273.6 957.5 -263.8 293.1 -185.6 234.5 -283.3 556.9 -361.5 -146.6 791.4 78.16
5.03 -244.3 -263.8 -195.4 68.39 -146.6 469 293.1 908.6 566.7 1094 136.8 214.9 -78.16 254 19.54 596 -214.9 117.2 918.4 19.54
5.035 -205.2 -39.08 0 205.2 -29.31 410.4 537.4 752.3 742.6 986.8 0 146.6 -156.3 136.8 175.9 390.8 -58.62 19.54 869.6 107.5
5.04 -107.5 224.7 78.16 283.3 732.8 117.2 850 527.6 850 801.2 -263.8 68.39 -791.4 48.85 39.08 185.6 175.9 127 810.9 107.5
5.045 156.3 312.7 195.4 234.5 508.1 -29.31 1251 293.1 938 508.1 39.08 127 -400.6 -195.4 107.5 -205.2 244.3 -87.93 625.3 224.7
5.05 136.8 361.5 78.16 273.6 576.5 -107.5 488.5 68.39 488.5 117.2 -48.85 214.9 48.85 -87.93 342 -439.7 273.6 19.54 293.1 127
5.055 -107.5 302.9 -214.9 254 166.1 -117.2 58.62 -205.2 39.08 -244.3 -322.4 381 -78.16 -97.7 48.85 -713.2 19.54 -97.7 -205.2 -19.54
5.06 -29.31 469 -459.2 293.1 -635.6 -136.8 -1045 -605.8 -762.1 -830.5 -78.16 371.3 830.5 -87.93 -205.2 -1025 -390.8 -312.7 -1045 -312.7
5.065 -107.5 410.4 -381 254 -429.9 234.5 -859.8 -508.1 -635.6 -996.6 -68.39 429.9 263.8 -39.08 -117.2 -938 -283.3 -117.2 -1016 -214.9
5.07 0 263.8 -136.8 156.3 -19.54 205.2 -537.4 -820.7 -469 -1290 -322.4 293.1 117.2 136.8 -205.2 -1055 -68.39 -78.16 -889.1 107.5
5.075 78.16 420.1 -488.5 224.7 -29.31 556.9 -361.5 -596 -390.8 -1231 -195.4 166.1 -175.9 166.1 -48.85 -703.5 -39.08 68.39 -810.9 117.2
5.08 -136.8 0 -302.9 -39.08 39.08 449.4 -390.8 -742.6 -322.4 -1280 -371.3 0 -146.6 185.6 -19.54 -655.1 -68.39 -87.93 -625.3 342
5.085 -205.2 -234.5 -586.2 -254 -156.3 283.3 -527.6 -801.2 -439.7 -1231 -361.5 -146.6 -146.6 19.54 -136.8 -420.1 -205.2 -293.1 -674.6 390.8
5.09 -254 -263.8 -723 -420.1 -498.3 127 -742.6 -723 -596 -1036 -283.3 -29.31 -263.8 78.16 -332.2 -195.4 -488.5 -429.9 -703.5 185.6
5.095 -283.3 -527.6 -683.9 -605.8 -723 -127 -869.6 -859.8 -742.6 -987.3 -127 -234.5 39.08 -136.8 -625.3 -87.93 -586.2 -683.9 -713.2 263.8
5.1 -117.2 -302.9 -136.8 -214.9 312.7 68.39 293.1 -263.8 29.31 -234.5 -283.3 146.6 -488.5 205.2 19.54 488.5 -87.93 -156.3 195.4 283.3
5.105 -283.3 -254 -117.2 -312.7 -58.62 -146.6 -293.1 -390.8 -146.6 -97.7 -195.4 -488.5 39.08 68.39 48.85 361.5 -244.3 -371.3 127 254
5.11 -498.3 -244.3 -127 -205.2 332.2 -87.93 449.4 -107.5 361.5 488.5 -508.1 -185.6 -429.9 185.6 390.8 586.2 -107.5 -78.16 693.7 273.6
5.115 -254 -244.3 39.08 -205.2 674.2 -195.4 547.1 68.39 576.5 791.4 -224.7 -429.9 244.3 9.77 635.1 723 -97.7 0 820.7 117.2
5.12 -674.6 -1133 -107.5 -859.8 -68.39 -703.5 244.3 -146.6 742.6 859.8 -429.9 -791.4 58.62 -166.1 556.9 537.4 -390.8 -400.6 830.5 332.2
5.125 -547.6 -762.1 -703.5 -674.6 -107.5 -605.8 537.4 185.6 957.5 1016 -263.8 -537.4 254 -175.9 488.5 654.6 -527.6 -322.4 947.7 127
5.13 -791.4 -898.9 -596 -732.8 -185.6 -351.7 898.9 625.3 1280 1544 -400.6 -596 283.3 58.62 517.8 859.8 -693.7 -117.2 1251 -39.08
5.135 -869.6 -655.1 -967.8 -859.8 -322.4 -293.1 1182 693.7 1407 1387 -410.4 -478.7 -263.8 107.5 205.2 644.8 -820.7 -254 1358 48.85
5.14 -957.5 -87.93 -1055 -410.4 -429.9 263.8 723 957.5 1006 1456 -439.7 29.31 439.7 283.3 195.4 713.2 -898.9 78.16 1026 -293.1
5.145 -810.9 -87.93 -615.5 -97.7 195.4 957.5 1329 1153 1153 1260 -537.4 -166.1 87.93 381 508.1 605.8 -615.5 478.7 1124 -214.9
5.15 -664.4 136.8 -635.6 -371.3 -332.2 136.8 273.6 127 332.2 342 -449.4 361.5 263.8 234.5 312.7 19.54 -625.3 -48.85 166.1 -107.5
5.155 -576.5 117.2 -635.6 -263.8 -381 273.6 -214.9 -175.9 -127 -175.9 -644.8 205.2 39.08 58.62 283.3 -302.9 -644.8 -58.62 -361.5 -166.1
5.16 -469 29.31 -283.3 -381 -293.1 -273.6 -322.4 -869.6 -322.4 -762.1 -381 420.1 -146.6 -87.93 127 -723 -371.3 -332.2 -586.2 195.4
5.165 -234.5 312.7 -635.6 -429.9 -869.6 -547.6 -1163 -1612 -1114 -1671 -508.1 449.4 -322.4 -390.8 -869.6 -1397 -410.4 -752.3 -1290 263.8
5.17 136.8 586.2 -146.6 244.3 -469 39.08 -615.5 -1358 -850 -1651 -449.4 850 -928.2 -195.4 -791.4 -1387 156.3 -214.9 -947.7 351.7
5.175 166.1 556.9 -78.16 205.2 -381 -58.62 -1387 -1593 -1387 -2120 -469 586.2 -146.6 -381 -850 -1749 234.5 -429.9 -1299 459.2
5.18 693.7 957.5 342 644.8 -78.16 127 -977.5 -1456 -1290 -2129 -205.2 986.8 -703.5 -214.9 -713.2 -1602 693.7 -166.1 -1025 527.6
5.185 400.6 488.5 136.8 273.6 -175.9 -205.2 -1143 -1485 -1348 -2090 -78.16 488.5 -19.54 -312.7 -420.1 -1485 547.1 -361.5 -957.5 556.9
5.19 537.4 683.9 -166.1 234.5 -527.6 -371.3 -1064 -1280 -1143 -1749 127 469 68.39 -224.7 -234.5 -1036 459.2 -410.4 -732.8 449.4
5.195 283.3 263.8 -361.5 -146.6 -254 -830.5 -566.7 -1192 -771.9 -1387 -469 107.5 -547.6 -439.7 -224.7 -752.3 214.9 -693.7 -244.3 664.4
5.2 156.3 214.9 -263.8 39.08 -156.3 -625.3 -195.4 -655.1 -136.8 -605.8 -488.5 244.3 0 -224.7 48.85 -214.9 205.2 -439.7 342 469
5.205 -58.62 -107.5 -449.4 -498.3 97.7 -1094 361.5 -625.3 488.5 -263.8 -556.9 -263.8 -195.4 -439.7 39.08 9.77 -78.16 -762.1 859.8 723
5.21 -596 -273.6 -791.4 -683.9 -527.6 -889.1 273.6 -127 762.1 459.2 -947.7 -214.9 48.85 -283.3 -351.7 527.6 -605.8 -723 996.6 312.7
5.215 -635.6 -517.8 -810.9 -938 -195.4 -625.3 1114 205.2 1700 957.5 -723 -342 -175.9 -97.7 439.7 723 -508.1 -713.2 1739 683.9
5.22 -655.1 -351.7 -869.6 -1094 -127 -449.4 1153 302.9 1739 1114 -1240 -625.3 214.9 -322.4 351.7 791.4 -791.4 -791.4 1602 498.3
5.225 -693.7 -644.8 -1075 -996.6 -478.7 -39.08 1319 635.1 2022 1397 -674.6 -615.5 -97.7 -234.5 664.4 918.4 -674.6 -703.5 1847 615.5
5.23 -683.9 -840.3 -1006 -996.6 -263.8 -185.6 1163 283.3 1886 1251 -908.6 -556.9 -97.7 -68.39 664.4 810.9 -732.8 -840.3 1524 566.7
5.235 -576.5 -762.1 -908.6 -1064 -732.8 -332.2 1065 19.54 1778 1055 -596 -566.7 -87.93 -351.7 703.5 517.8 -644.8 -1045 1329 683.9
5.24 -674.6 -723 -1064 -1036 -1133 -625.3 87.93 -449.4 977 547.1 -547.6 -244.3 127 -244.3 381 322.4 -703.5 -1192 449.4 469
5.245 -351.7 -283.3 -420.1 -527.6 -459.2 -293.1 410.4 -410.4 791.4 420.1 -576.5 -19.54 -127 -195.4 127 244.3 -117.2 -635.6 332.2 439.7
5.25 -117.2 -19.54 -205.2 -78.16 -859.8 -117.2 -381 -723 58.62 -302.9 -332.2 254 9.77 -273.6 127 -39.08 205.2 -527.6 -322.4 410.4
5.255 97.7 410.4 -166.1 175.9 -527.6 -244.3 -771.9 -1045 -547.6 -889.1 -742.6 322.4 -537.4 -273.6 -244.3 -361.5 469 -400.6 -859.8 478.7
5.26 214.9 488.5 117.2 625.3 -889.1 -87.93 -1075 -1085 -977.5 -1221 -312.7 517.8 -146.6 -283.3 -390.8 -644.8 615.5 -58.62 -1201 175.9
5.265 361.5 1104 302.9 1085 -381 9.77 -928.2 -1143 -1201 -1485 -566.7 859.8 -693.7 -224.7 -723 -889.1 879.3 302.9 -1250 78.16
5.27 596 1505 596 1583 332.2 127 -801.2 -820.7 -1339 -1485 -703.5 1153 -29.31 -39.08 -771.9 -1045 1094 977 -1192 -439.7
5.275 596 1798 732.8 2062 185.6 615.5 -810.9 -371.3 -1495 -1329 -234.5 1348 -195.4 0 -908.6 -1064 1153 1524 -987.3 -771.9
5.28 820.7 1876 1368 2129 1114 908.6 -469 -39.08 -1524 -1367 -107.5 1505 -39.08 234.5 -908.6 -1133 1524 1817 -371.3 -644.8
5.285 810.9 1641 1124 2022 390.8 1290 -683.9 332.2 -1661 -1163 29.31 1348 283.3 342 -1231 -918.4 1319 1573 -19.54 -586.2
5.29 1006 967.3 1485 1182 879.3 938 -117.2 351.7 -1172 -996.6 293.1 986.8 107.5 185.6 -830.5 -810.9 1436 1114 869.6 263.8
