    T[sec] Fp1 Fp2 F3  F4  C3  C4  P3  P4  O1  O2  F7  F8  T3  T4  T5  T6  Fz  Cz  Pz  A2 
30 1000 1000 1000 1000 1000 1000 1000 1000 1000 1000 1000 1000 1000 1000 1000 1000 1000 1000 1000 1000
0.625 -332.2 -156.3 -58.62 39.08 39.08 97.7 9.77 -29.31 19.54 -29.31 -87.93 214.9 -136.8 -293.1 -68.39 -97.7 -87.93 29.31 -29.31 0
0.63 -361.5 -244.3 97.7 48.85 185.6 136.8 68.39 9.77 0 -48.85 263.8 224.7 371.3 -420.1 0 -127 -48.85 166.1 58.62 0
0.635 -655.1 -488.5 -263.8 -205.2 -48.85 -39.08 -117.2 -136.8 -156.3 -78.16 -342 156.3 97.7 -371.3 -87.93 -68.39 -322.4 -78.16 -136.8 0
0.64 -390.8 -527.6 -224.7 -302.9 -87.93 -175.9 -136.8 -175.9 -107.5 -78.16 -87.93 136.8 39.08 39.08 9.77 -117.2 -420.1 -205.2 -273.6 0
0.645 -596 -527.6 -459.2 -556.9 -312.7 -293.1 -273.6 -185.6 -156.3 -19.54 -312.7 -9.77 58.62 0 -29.31 -19.54 -547.6 -342 -342 0
0.65 -547.6 -615.5 -488.5 -723 -371.3 -342 -390.8 -234.5 -136.8 -48.85 -459.2 97.7 -332.2 19.54 -48.85 -263.8 -644.8 -371.3 -371.3 0
0.655 -596 -498.3 -517.8 -703.5 -420.1 -381 -469 -117.2 -107.5 107.5 -762.1 -127 -723 -117.2 -136.8 19.54 -605.8 -361.5 -322.4 0
0.66 -420.1 -263.8 -293.1 -537.4 -195.4 -175.9 -390.8 9.77 -107.5 127 -644.8 -48.85 -205.2 117.2 -166.1 -136.8 -361.5 -156.3 -205.2 0
0.665 -351.7 -136.8 -127 -449.4 -97.7 -107.5 -322.4 19.54 -19.54 136.8 -556.9 -58.62 -400.6 -117.2 -97.7 -68.39 -214.9 29.31 -68.39 0
0.67 -185.6 -39.08 0 -293.1 39.08 -68.39 -224.7 -29.31 -58.62 58.62 -205.2 -127 97.7 -214.9 -136.8 -107.5 -78.16 117.2 0 0
0.675 -244.3 -48.85 48.85 -156.3 29.31 -48.85 -146.6 -97.7 -39.08 -9.77 78.16 -273.6 -29.31 -214.9 -97.7 -156.3 -58.62 68.39 -29.31 0
0.68 -156.3 -127 -19.54 -58.62 -39.08 19.54 -107.5 -58.62 -48.85 9.77 107.5 -58.62 -107.5 -175.9 -87.93 -136.8 -29.31 9.77 -29.31 0
0.685 -166.1 -371.3 -19.54 -9.77 -78.16 -58.62 -166.1 -185.6 -156.3 -127 48.85 -351.7 0 -644.8 -283.3 -224.7 39.08 0 -97.7 0
0.69 -224.7 -381 -68.39 -19.54 -117.2 -78.16 -214.9 -117.2 -68.39 -156.3 -87.93 -156.3 -254 -195.4 -224.7 -234.5 39.08 -29.31 -107.5 0
0.695 -68.39 -214.9 19.54 78.16 -19.54 58.62 -166.1 19.54 -48.85 -68.39 58.62 -156.3 -68.39 -390.8 -429.9 -39.08 136.8 29.31 -78.16 0
0.7 -117.2 -195.4 -19.54 107.5 -68.39 156.3 -146.6 68.39 -78.16 -39.08 -97.7 -19.54 -19.54 -224.7 -342 -39.08 107.5 97.7 -9.77 0
0.705 39.08 107.5 195.4 146.6 156.3 312.7 78.16 205.2 146.6 117.2 117.2 78.16 175.9 214.9 -175.9 234.5 263.8 224.7 156.3 0
0.71 185.6 136.8 254 195.4 127 390.8 107.5 214.9 136.8 166.1 273.6 97.7 185.6 263.8 -97.7 263.8 293.1 293.1 195.4 0
0.715 68.39 87.93 156.3 156.3 -19.54 302.9 9.77 68.39 0 58.62 68.39 29.31 -664.4 -87.93 -195.4 9.77 146.6 117.2 48.85 0
0.72 -146.6 -107.5 -9.77 244.3 -185.6 312.7 -117.2 68.39 -48.85 68.39 -19.54 156.3 -703.5 527.6 -234.5 -29.31 127 68.39 48.85 0
0.725 -332.2 -302.9 -166.1 19.54 -342 0 -293.1 -254 -234.5 -146.6 -263.8 0 -1085 -68.39 -390.8 -175.9 -97.7 -214.9 -224.7 0
0.73 -214.9 -322.4 -48.85 48.85 -214.9 78.16 -234.5 -224.7 -156.3 -117.2 -566.7 195.4 -635.6 273.6 -361.5 -97.7 68.39 -87.93 -156.3 0
0.735 -381 -302.9 -48.85 -48.85 -205.2 -127 -322.4 -429.9 -342 -283.3 -429.9 -205.2 -175.9 -576.5 -400.6 -166.1 0 -224.7 -351.7 0
0.74 -254 68.39 107.5 -68.39 -136.8 -205.2 -312.7 -488.5 -302.9 -244.3 -469 -283.3 351.7 -254 -371.3 -117.2 58.62 -234.5 -390.8 0
0.745 -351.7 0 68.39 -68.39 -175.9 -224.7 -302.9 -459.2 -263.8 -283.3 -58.62 -293.1 224.7 -478.7 -234.5 -205.2 -39.08 -273.6 -429.9 0
0.75 -390.8 117.2 87.93 -39.08 -117.2 -175.9 -244.3 -371.3 -195.4 -156.3 -58.62 -342 127 -48.85 -107.5 -97.7 -48.85 -224.7 -351.7 0
0.755 -400.6 -39.08 -68.39 -78.16 -175.9 -107.5 -273.6 -244.3 -195.4 -117.2 195.4 -156.3 117.2 127 -48.85 -68.39 -185.6 -263.8 -283.3 0
0.76 -517.8 -263.8 29.31 -19.54 -58.62 0 -166.1 -107.5 -156.3 -48.85 508.1 -68.39 332.2 68.39 -175.9 9.77 -136.8 -127 -185.6 0
0.765 -322.4 -175.9 48.85 -19.54 68.39 39.08 -107.5 -117.2 -156.3 -156.3 537.4 -78.16 234.5 -273.6 -87.93 -87.93 -58.62 -39.08 -68.39 0
0.77 -478.7 -361.5 -58.62 -87.93 -48.85 29.31 -156.3 -107.5 -166.1 -136.8 459.2 97.7 68.39 -166.1 -234.5 -48.85 -117.2 -58.62 -39.08 0
0.775 -449.4 -351.7 -29.31 9.77 9.77 87.93 -87.93 -68.39 -136.8 -78.16 156.3 87.93 39.08 -87.93 -97.7 19.54 -87.93 39.08 -29.31 0
0.78 -586.2 -273.6 -205.2 -39.08 -136.8 58.62 -136.8 9.77 -9.77 78.16 -166.1 254 -312.7 234.5 39.08 234.5 -224.7 -19.54 -87.93 0
0.785 -566.7 -332.2 -263.8 39.08 -156.3 68.39 19.54 68.39 244.3 263.8 -420.1 107.5 -127 420.1 234.5 273.6 -234.5 29.31 19.54 0
0.79 -508.1 9.77 -234.5 322.4 -156.3 234.5 136.8 156.3 332.2 361.5 -420.1 332.2 -342 488.5 322.4 420.1 -9.77 107.5 156.3 0
0.795 -410.4 -68.39 -244.3 136.8 -224.7 87.93 9.77 39.08 371.3 381 -342 97.7 -146.6 -263.8 175.9 263.8 -78.16 -48.85 29.31 0
0.8 -146.6 117.2 -117.2 312.7 -146.6 214.9 87.93 87.93 283.3 332.2 -156.3 283.3 -78.16 322.4 263.8 146.6 39.08 58.62 58.62 0
0.805 127 -39.08 68.39 97.7 -29.31 -29.31 29.31 -127 146.6 234.5 136.8 107.5 273.6 -244.3 166.1 185.6 19.54 -136.8 -78.16 0
0.81 175.9 -263.8 136.8 -146.6 -68.39 -195.4 -9.77 -312.7 -107.5 0 469 -244.3 576.5 78.16 146.6 -127 -39.08 -254 -205.2 0
0.815 195.4 68.39 214.9 39.08 48.85 -166.1 19.54 -254 -127 19.54 410.4 -117.2 381 146.6 214.9 87.93 68.39 -214.9 -175.9 0
0.82 68.39 -136.8 127 -78.16 0 -214.9 39.08 -273.6 -117.2 9.77 478.7 -429.9 547.1 -136.8 156.3 78.16 0 -322.4 -185.6 0
0.825 -97.7 9.77 97.7 -127 -97.7 -283.3 9.77 -312.7 -117.2 -127 361.5 -351.7 107.5 -58.62 78.16 -68.39 -48.85 -342 -146.6 0
0.83 -175.9 29.31 -9.77 -185.6 -127 -254 -29.31 -214.9 -117.2 -58.62 166.1 -214.9 254 97.7 -87.93 29.31 -127 -302.9 -127 0
0.835 -97.7 39.08 -29.31 -254 -185.6 -283.3 -29.31 -254 -127 -87.93 -136.8 -351.7 -97.7 -107.5 -175.9 -48.85 -175.9 -342 -87.93 0
0.84 -19.54 117.2 -39.08 -205.2 -185.6 -302.9 -117.2 -283.3 -146.6 -107.5 -107.5 -420.1 -195.4 -254 -127 -58.62 -156.3 -293.1 -127 0
0.845 205.2 185.6 107.5 -58.62 -58.62 -205.2 -29.31 -224.7 -78.16 -127 48.85 -410.4 273.6 -361.5 -117.2 -78.16 29.31 -117.2 -87.93 0
0.85 205.2 224.7 127 58.62 -9.77 -136.8 -9.77 -214.9 -107.5 -107.5 19.54 -263.8 -117.2 -655.1 48.85 -58.62 146.6 -48.85 -68.39 0
0.855 146.6 107.5 244.3 0 87.93 -136.8 39.08 -195.4 -117.2 -166.1 400.6 -449.4 322.4 -205.2 19.54 -87.93 146.6 -78.16 -107.5 0
0.86 -127 -48.85 9.77 -136.8 -58.62 -166.1 -48.85 -224.7 -234.5 -175.9 146.6 -263.8 19.54 -254 -68.39 -68.39 -117.2 -166.1 -156.3 0
0.865 -293.1 -214.9 -195.4 -361.5 -224.7 -273.6 -107.5 -302.9 -263.8 -185.6 -117.2 -410.4 -371.3 78.16 -39.08 -195.4 -254 -263.8 -234.5 0
0.87 -459.2 -390.8 -449.4 -459.2 -390.8 -390.8 -273.6 -351.7 -322.4 -214.9 -283.3 -361.5 -547.6 342 -166.1 -283.3 -469 -351.7 -273.6 0
0.875 -586.2 -478.7 -625.3 -400.6 -508.1 -302.9 -244.3 -244.3 -263.8 -107.5 -429.9 -263.8 -351.7 244.3 -136.8 -107.5 -517.8 -283.3 -224.7 0
0.88 -527.6 -400.6 -713.2 -371.3 -556.9 -312.7 -302.9 -273.6 -312.7 -97.7 -381 -322.4 -127 -127 -322.4 -175.9 -586.2 -312.7 -224.7 0
0.885 -293.1 -263.8 -400.6 -175.9 -205.2 -107.5 -19.54 -97.7 -29.31 58.62 -107.5 -263.8 -48.85 127 0 48.85 -205.2 0 87.93 0
0.89 -127 -107.5 -136.8 0 68.39 0 156.3 -29.31 48.85 58.62 127 -302.9 322.4 -107.5 -29.31 58.62 58.62 117.2 166.1 0
0.895 19.54 175.9 127 136.8 175.9 205.2 156.3 39.08 9.77 39.08 185.6 -195.4 48.85 254 19.54 29.31 244.3 205.2 214.9 0
0.9 214.9 312.7 322.4 263.8 293.1 312.7 175.9 39.08 48.85 68.39 381 -166.1 205.2 -224.7 195.4 39.08 381 302.9 166.1 0
0.905 136.8 332.2 195.4 302.9 214.9 390.8 175.9 68.39 -117.2 29.31 351.7 0 322.4 283.3 117.2 97.7 351.7 273.6 156.3 0
0.91 -136.8 195.4 -48.85 107.5 -39.08 244.3 19.54 9.77 -166.1 0 87.93 -117.2 9.77 -175.9 -9.77 29.31 107.5 78.16 29.31 0
0.915 -214.9 68.39 -234.5 68.39 -136.8 234.5 68.39 78.16 -156.3 78.16 29.31 214.9 87.93 68.39 39.08 78.16 -68.39 -9.77 39.08 0
0.92 -312.7 -195.4 -400.6 -117.2 -224.7 19.54 117.2 0 -166.1 0 -166.1 0 68.39 459.2 146.6 -146.6 -244.3 -166.1 -19.54 0
0.925 -410.4 -322.4 -400.6 -293.1 -254 -234.5 78.16 -127 -87.93 -68.39 -371.3 -48.85 449.4 -19.54 117.2 -87.93 -322.4 -244.3 -29.31 0
0.93 -97.7 -273.6 -195.4 -254 -19.54 -234.5 136.8 -117.2 -9.77 -58.62 19.54 39.08 39.08 195.4 224.7 -146.6 -156.3 -127 9.77 0
0.935 0 -224.7 19.54 -175.9 195.4 -166.1 29.31 -127 -9.77 -78.16 -97.7 9.77 293.1 68.39 136.8 -48.85 -127 9.77 9.77 0
0.94 78.16 -234.5 48.85 -107.5 332.2 -58.62 58.62 -156.3 0 -29.31 97.7 68.39 -127 0 68.39 29.31 -58.62 107.5 78.16 0
0.945 29.31 -48.85 205.2 175.9 459.2 175.9 107.5 -107.5 -9.77 -39.08 156.3 420.1 -78.16 390.8 0 19.54 97.7 244.3 97.7 0
0.95 185.6 127 293.1 263.8 400.6 234.5 68.39 -156.3 -39.08 -156.3 322.4 596 -87.93 390.8 9.77 -87.93 195.4 205.2 58.62 0
0.955 9.77 127 58.62 234.5 39.08 185.6 -107.5 -263.8 -214.9 -224.7 0 605.8 -97.7 293.1 -136.8 -195.4 68.39 19.54 -146.6 0
0.96 127 293.1 -97.7 332.2 -263.8 136.8 -166.1 -312.7 -234.5 -322.4 0 635.1 -136.8 420.1 -58.62 -234.5 68.39 -87.93 -214.9 0
0.965 -48.85 58.62 -498.3 78.16 -615.5 -175.9 -371.3 -459.2 -361.5 -390.8 -469 459.2 -234.5 195.4 -234.5 -293.1 -166.1 -332.2 -342 0
0.97 -214.9 -166.1 -810.9 -48.85 -810.9 -254 -508.1 -420.1 -410.4 -312.7 -801.2 342 -224.7 68.39 -312.7 -302.9 -332.2 -390.8 -371.3 0
0.975 -254 -361.5 -830.5 -117.2 -723 -156.3 -332.2 -263.8 -381 -117.2 -644.8 234.5 -244.3 -9.77 -175.9 -97.7 -478.7 -381 -273.6 0
0.98 -576.5 -801.2 -1172 -478.7 -898.9 -302.9 -547.6 -332.2 -478.7 -283.3 -771.9 -39.08 -508.1 9.77 -390.8 -273.6 -918.4 -635.6 -459.2 0
0.985 -771.9 -1104 -1309 -703.5 -967.8 -342 -527.6 -342 -586.2 -322.4 -938 -224.7 -586.2 -9.77 -273.6 -283.3 -1201 -752.3 -488.5 0
0.99 -810.9 -1397 -1270 -967.8 -918.4 -322.4 -508.1 -410.4 -566.7 -420.1 -810.9 -263.8 -547.6 439.7 -342 -312.7 -1319 -840.3 -527.6 0
0.995 -820.7 -1348 -1221 -869.6 -898.9 -146.6 -576.5 -361.5 -576.5 -469 -947.7 -146.6 -635.6 732.8 -556.9 -371.3 -1201 -781.6 -547.6 0
1 -498.3 -1006 -820.7 -732.8 -605.8 29.31 -361.5 -283.3 -400.6 -322.4 -771.9 -39.08 -136.8 381 -283.3 -185.6 -889.1 -508.1 -371.3 0
1.005 -48.85 -771.9 -390.8 -302.9 -224.7 342 -97.7 -87.93 -175.9 -234.5 -400.6 136.8 -400.6 654.6 -185.6 -185.6 -312.7 -97.7 -127 0
1.01 254 -214.9 -29.31 48.85 -29.31 410.4 0 -29.31 -68.39 -185.6 -234.5 205.2 -605.8 478.7 -107.5 -58.62 39.08 58.62 -29.31 0
1.015 381 19.54 136.8 322.4 107.5 400.6 58.62 19.54 -78.16 -195.4 -107.5 263.8 -175.9 517.8 9.77 -58.62 254 156.3 -19.54 0
1.02 234.5 136.8 -48.85 390.8 -58.62 166.1 -29.31 -78.16 -136.8 -214.9 -459.2 263.8 -655.1 449.4 9.77 -117.2 185.6 -9.77 -156.3 0
1.025 68.39 185.6 -166.1 312.7 -117.2 -97.7 -136.8 -205.2 -185.6 -254 -439.7 332.2 -205.2 332.2 9.77 -175.9 58.62 -127 -244.3 0
1.03 19.54 117.2 -293.1 29.31 -117.2 -459.2 -39.08 -312.7 -48.85 -185.6 -517.8 312.7 29.31 -302.9 166.1 -97.7 -156.3 -244.3 -185.6 0
1.035 58.62 -78.16 -302.9 -302.9 -19.54 -683.9 0 -390.8 -48.85 -205.2 -117.2 0 -48.85 -459.2 263.8 -175.9 -400.6 -273.6 -205.2 0
1.04 58.62 -263.8 -342 -478.7 136.8 -674.6 136.8 -273.6 0 -156.3 48.85 -97.7 146.6 -390.8 361.5 -117.2 -547.6 -234.5 -68.39 0
1.045 312.7 -351.7 -205.2 -586.2 312.7 -576.5 224.7 -244.3 166.1 -127 263.8 -342 195.4 -459.2 459.2 -117.2 -566.7 -48.85 0 0
1.05 371.3 -263.8 -166.1 -429.9 332.2 -234.5 254 68.39 254 117.2 302.9 -244.3 302.9 214.9 390.8 136.8 -429.9 97.7 156.3 0
1.055 263.8 -263.8 -283.3 -361.5 97.7 -58.62 29.31 156.3 156.3 107.5 -97.7 -224.7 136.8 400.6 166.1 205.2 -410.4 78.16 87.93 0
1.06 254 146.6 -234.5 -58.62 -58.62 283.3 -107.5 381 87.93 312.7 -283.3 214.9 29.31 527.6 48.85 381 -146.6 205.2 185.6 0
1.065 302.9 302.9 -136.8 185.6 -244.3 390.8 -293.1 302.9 -146.6 136.8 -302.9 214.9 -293.1 625.3 -302.9 107.5 146.6 166.1 117.2 0
1.07 527.6 644.8 58.62 605.8 -263.8 566.7 -312.7 410.4 -117.2 283.3 -234.5 469 -517.8 -9.77 -214.9 342 547.1 293.1 234.5 0
1.075 576.5 762.1 185.6 703.5 -263.8 429.9 -371.3 254 -254 136.8 39.08 449.4 -146.6 478.7 -410.4 156.3 596 195.4 156.3 0
1.08 723 879.3 322.4 723 -136.8 293.1 -146.6 214.9 -19.54 263.8 224.7 302.9 -107.5 -224.7 -68.39 283.3 615.5 136.8 156.3 0
1.085 654.6 625.3 322.4 439.7 -58.62 -19.54 -107.5 39.08 48.85 146.6 273.6 166.1 283.3 -146.6 19.54 195.4 410.4 -9.77 117.2 0
1.09 664.4 361.5 381 273.6 166.1 -19.54 205.2 127 234.5 224.7 87.93 107.5 283.3 -547.6 293.1 205.2 361.5 58.62 283.3 0
1.095 459.2 312.7 351.7 39.08 293.1 -58.62 312.7 156.3 273.6 205.2 234.5 -302.9 185.6 -214.9 332.2 107.5 166.1 117.2 390.8 0
1.1 361.5 322.4 381 97.7 527.6 312.7 576.5 429.9 429.9 410.4 39.08 48.85 449.4 -205.2 361.5 195.4 214.9 449.4 654.6 0
1.105 420.1 332.2 537.4 97.7 830.5 498.3 791.4 566.7 576.5 459.2 351.7 29.31 312.7 58.62 351.7 166.1 322.4 732.8 859.8 0
1.11 478.7 566.7 576.5 263.8 898.9 683.9 791.4 635.1 615.5 449.4 449.4 556.9 644.8 517.8 400.6 117.2 478.7 850 908.6 0
1.115 449.4 478.7 556.9 302.9 752.3 635.1 644.8 635.1 517.8 508.1 351.7 605.8 342 214.9 254 185.6 420.1 781.6 810.9 0
1.12 576.5 547.1 635.1 469 742.6 547.1 586.2 576.5 488.5 439.7 351.7 644.8 547.1 205.2 156.3 58.62 547.1 752.3 713.2 0
1.125 791.4 625.3 635.1 400.6 576.5 312.7 469 390.8 400.6 381 185.6 390.8 566.7 68.39 244.3 87.93 556.9 615.5 566.7 0
1.13 918.4 517.8 674.2 254 547.1 0 439.7 263.8 439.7 205.2 351.7 48.85 723 -175.9 293.1 -19.54 488.5 439.7 469 0
1.135 918.4 508.1 674.2 224.7 517.8 -58.62 439.7 224.7 498.3 273.6 537.4 9.77 -87.93 -224.7 371.3 9.77 449.4 449.4 410.4 0
1.14 830.5 449.4 596 39.08 527.6 -293.1 459.2 166.1 517.8 224.7 801.2 -224.7 508.1 -693.7 439.7 -29.31 342 351.7 371.3 0
1.145 498.3 420.1 478.7 58.62 556.9 -254 459.2 185.6 527.6 156.3 371.3 127 146.6 -146.6 390.8 -146.6 273.6 342 381 0
1.15 302.9 283.3 351.7 0 586.2 -156.3 635.1 302.9 635.1 283.3 625.3 9.77 498.3 -635.6 547.1 156.3 185.6 429.9 508.1 0
1.155 -127 175.9 29.31 -175.9 263.8 -205.2 400.6 185.6 342 127 224.7 -87.93 625.3 -302.9 234.5 -29.31 -97.7 146.6 263.8 0
1.16 -254 -97.7 -175.9 -361.5 0 -214.9 224.7 136.8 224.7 127 234.5 -342 459.2 -234.5 185.6 87.93 -361.5 -48.85 107.5 0
1.165 -146.6 -107.5 -146.6 -488.5 -97.7 -195.4 97.7 68.39 78.16 9.77 517.8 -166.1 214.9 -58.62 166.1 87.93 -322.4 -156.3 -19.54 0
1.17 -127 -146.6 -48.85 -429.9 -273.6 -234.5 -48.85 29.31 107.5 9.77 420.1 -156.3 97.7 -127 29.31 117.2 -283.3 -234.5 -146.6 0
1.175 107.5 -29.31 97.7 -322.4 -273.6 -156.3 -195.4 -29.31 -48.85 -87.93 156.3 -146.6 -117.2 -127 -9.77 0 -58.62 -234.5 -205.2 0
1.18 322.4 263.8 381 9.77 -19.54 -39.08 -29.31 107.5 166.1 68.39 166.1 19.54 273.6 -166.1 29.31 107.5 322.4 9.77 -9.77 0
1.185 234.5 224.7 381 166.1 9.77 -97.7 -127 9.77 39.08 -97.7 -87.93 -175.9 -244.3 -302.9 -87.93 -78.16 410.4 29.31 9.77 0
1.19 312.7 605.8 410.4 332.2 185.6 -9.77 48.85 166.1 127 48.85 -68.39 -136.8 156.3 -195.4 -9.77 29.31 508.1 283.3 205.2 0
1.195 342 664.4 410.4 400.6 224.7 29.31 175.9 234.5 175.9 107.5 205.2 87.93 185.6 -312.7 87.93 39.08 439.7 293.1 224.7 0
1.2 214.9 566.7 234.5 166.1 175.9 0 224.7 234.5 263.8 127 244.3 -39.08 517.8 -869.6 146.6 58.62 156.3 185.6 195.4 0
1.205 117.2 234.5 136.8 -58.62 195.4 -68.39 273.6 283.3 302.9 195.4 351.7 -29.31 400.6 -332.2 156.3 166.1 -39.08 136.8 283.3 0
1.21 -78.16 -39.08 -146.6 -410.4 -107.5 -195.4 146.6 234.5 224.7 166.1 175.9 -214.9 -244.3 -537.4 97.7 78.16 -400.6 -87.93 136.8 0
1.215 48.85 -224.7 -87.93 -449.4 -39.08 -68.39 214.9 332.2 146.6 97.7 263.8 -68.39 -9.77 351.7 -58.62 -9.77 -390.8 19.54 273.6 0
1.22 58.62 -175.9 -146.6 -469 -87.93 -107.5 117.2 381 166.1 244.3 195.4 -136.8 -488.5 205.2 9.77 185.6 -390.8 19.54 302.9 0
1.225 312.7 -48.85 -58.62 -283.3 29.31 -48.85 156.3 322.4 68.39 87.93 29.31 117.2 117.2 351.7 -58.62 -39.08 -224.7 127 293.1 0
1.23 556.9 107.5 78.16 -117.2 146.6 -19.54 205.2 361.5 97.7 146.6 234.5 244.3 58.62 87.93 0 117.2 48.85 263.8 371.3 0
1.235 693.7 254 48.85 9.77 48.85 -48.85 48.85 244.3 -39.08 97.7 -127 234.5 107.5 29.31 -185.6 185.6 87.93 97.7 195.4 0
1.24 654.6 166.1 -87.93 0 -214.9 -214.9 -214.9 19.54 -136.8 -29.31 -146.6 68.39 29.31 -97.7 -312.7 -9.77 9.77 -166.1 -58.62 0
1.245 322.4 97.7 19.54 127 -185.6 -39.08 -117.2 -342 -97.7 -146.6 244.3 -166.1 244.3 -166.1 -87.93 -283.3 87.93 -342 -273.6 0
1.25 381 293.1 127 205.2 -156.3 58.62 -78.16 -273.6 -166.1 -156.3 322.4 -342 39.08 -48.85 0 -263.8 175.9 -195.4 -293.1 0
1.255 273.6 312.7 166.1 58.62 -39.08 48.85 9.77 -273.6 -117.2 -214.9 58.62 -449.4 107.5 -263.8 -39.08 -273.6 156.3 -48.85 -205.2 0
1.26 254 156.3 351.7 48.85 263.8 195.4 234.5 -68.39 87.93 -39.08 87.93 -469 332.2 -449.4 107.5 -107.5 244.3 234.5 9.77 0
1.265 400.6 68.39 390.8 -48.85 488.5 283.3 400.6 205.2 302.9 175.9 -48.85 -508.1 342 -107.5 244.3 107.5 283.3 469 244.3 0
1.27 498.3 0 371.3 -87.93 547.1 371.3 429.9 283.3 390.8 175.9 39.08 -244.3 342 -293.1 322.4 127 205.2 478.7 263.8 0
1.275 156.3 -107.5 -19.54 -136.8 166.1 175.9 107.5 107.5 87.93 19.54 -429.9 -146.6 -517.8 -87.93 39.08 -19.54 -39.08 283.3 107.5 0
1.28 185.6 68.39 -48.85 -58.62 78.16 136.8 156.3 39.08 9.77 -48.85 48.85 -166.1 -185.6 302.9 127 -29.31 -19.54 263.8 97.7 0
1.285 -68.39 195.4 -214.9 68.39 -87.93 166.1 -39.08 0 -156.3 -107.5 -214.9 -156.3 58.62 410.4 -127 -29.31 -156.3 166.1 0 0
1.29 39.08 459.2 -107.5 224.7 68.39 342 205.2 39.08 -156.3 -107.5 107.5 -48.85 400.6 381 117.2 -68.39 -78.16 322.4 117.2 0
1.295 185.6 498.3 68.39 302.9 302.9 527.6 293.1 127 9.77 -9.77 517.8 -166.1 537.4 244.3 146.6 58.62 68.39 478.7 293.1 0
1.3 439.7 625.3 312.7 342 449.4 576.5 498.3 234.5 244.3 19.54 234.5 29.31 273.6 312.7 273.6 117.2 205.2 644.8 488.5 0
1.305 254 478.7 107.5 185.6 224.7 459.2 293.1 244.3 127 68.39 87.93 -39.08 87.93 107.5 156.3 166.1 9.77 439.7 371.3 0
1.31 195.4 420.1 48.85 166.1 214.9 361.5 224.7 254 175.9 117.2 -58.62 -39.08 -166.1 234.5 146.6 244.3 -9.77 332.2 273.6 0
1.315 117.2 312.7 -9.77 29.31 136.8 156.3 146.6 166.1 87.93 97.7 -136.8 -107.5 224.7 117.2 87.93 117.2 -78.16 185.6 156.3 0
1.32 -87.93 234.5 -39.08 19.54 0 48.85 -29.31 127 -48.85 29.31 -302.9 -78.16 -205.2 283.3 -9.77 29.31 -58.62 78.16 58.62 0
1.325 -48.85 156.3 136.8 107.5 87.93 39.08 0 68.39 -97.7 -9.77 0 -39.08 195.4 302.9 39.08 -78.16 117.2 29.31 29.31 0
1.33 -78.16 146.6 224.7 293.1 175.9 195.4 78.16 117.2 -48.85 0 -97.7 -9.77 68.39 273.6 107.5 -58.62 312.7 107.5 136.8 0
1.335 -87.93 78.16 205.2 302.9 214.9 244.3 68.39 -19.54 -97.7 -185.6 -107.5 -68.39 9.77 58.62 -19.54 -166.1 371.3 39.08 58.62 0
1.34 9.77 117.2 214.9 254 195.4 195.4 97.7 -185.6 -156.3 -351.7 -175.9 -175.9 0 87.93 127 -332.2 302.9 0 48.85 0
1.345 39.08 244.3 29.31 146.6 48.85 195.4 -127 -263.8 -244.3 -449.4 -263.8 -195.4 87.93 175.9 -244.3 -410.4 146.6 -97.7 -87.93 0
1.35 19.54 195.4 -244.3 -156.3 -205.2 -48.85 -312.7 -429.9 -508.1 -537.4 -332.2 -234.5 -537.4 195.4 -322.4 -381 -146.6 -254 -351.7 0
1.355 19.54 87.93 -429.9 -244.3 -312.7 -97.7 -420.1 -381 -508.1 -547.6 -459.2 -48.85 -361.5 381 -478.7 -381 -254 -244.3 -332.2 0
1.36 -19.54 9.77 -488.5 -351.7 -371.3 -185.6 -381 -293.1 -410.4 -371.3 -478.7 -87.93 -586.2 19.54 -498.3 -127 -244.3 -214.9 -273.6 0
1.365 -371.3 -234.5 -693.7 -459.2 -488.5 -322.4 -449.4 -293.1 -400.6 -312.7 -674.6 -136.8 -527.6 -410.4 -498.3 -166.1 -390.8 -371.3 -410.4 0
1.37 -107.5 -58.62 -469 -244.3 -234.5 -156.3 -254 -48.85 -166.1 -156.3 -371.3 -29.31 -400.6 107.5 -332.2 -48.85 -214.9 -195.4 -214.9 0
1.375 39.08 -136.8 -234.5 -166.1 -78.16 -107.5 -136.8 -19.54 9.77 -146.6 -39.08 -58.62 -136.8 48.85 -68.39 -87.93 -87.93 -87.93 -127 0
1.38 342 -166.1 -48.85 -68.39 175.9 87.93 107.5 107.5 254 -87.93 107.5 58.62 68.39 556.9 146.6 -9.77 68.39 136.8 117.2 0
1.385 283.3 -244.3 -214.9 -58.62 58.62 166.1 58.62 185.6 117.2 -39.08 371.3 39.08 146.6 429.9 107.5 58.62 -58.62 136.8 68.39 0
1.39 478.7 -342 -136.8 -146.6 224.7 234.5 302.9 263.8 244.3 -19.54 537.4 -48.85 293.1 332.2 439.7 107.5 -68.39 195.4 166.1 0
1.395 166.1 -371.3 -439.7 -351.7 -97.7 39.08 87.93 136.8 87.93 -87.93 214.9 29.31 78.16 146.6 97.7 97.7 -322.4 9.77 39.08 0
1.4 107.5 -244.3 -381 -400.6 -39.08 -87.93 127 175.9 87.93 -68.39 683.9 -39.08 214.9 117.2 48.85 136.8 -302.9 -29.31 19.54 0
1.405 -107.5 -205.2 -478.7 -410.4 -195.4 -205.2 9.77 -19.54 0 -117.2 224.7 9.77 -224.7 87.93 -29.31 19.54 -312.7 -175.9 -107.5 0
1.41 -146.6 78.16 -381 -224.7 -156.3 -185.6 48.85 -29.31 -9.77 -156.3 469 39.08 302.9 -351.7 -9.77 -9.77 -273.6 -195.4 -136.8 0
1.415 -68.39 -78.16 -175.9 -185.6 -9.77 -234.5 87.93 -127 68.39 -205.2 459.2 39.08 185.6 214.9 156.3 -136.8 -175.9 -175.9 -117.2 0
1.42 -97.7 39.08 -97.7 -107.5 -9.77 -254 117.2 -234.5 107.5 -166.1 185.6 -195.4 410.4 -244.3 302.9 -78.16 -254 -214.9 -175.9 0
1.425 -234.5 -68.39 -254 -214.9 -127 -214.9 -78.16 -322.4 -87.93 -273.6 68.39 68.39 136.8 302.9 39.08 -127 -342 -371.3 -283.3 0
1.43 -322.4 -9.77 -361.5 -195.4 -205.2 -205.2 -195.4 -371.3 -166.1 -224.7 -87.93 127 361.5 273.6 -58.62 48.85 -469 -429.9 -420.1 0
1.435 -488.5 -263.8 -429.9 -332.2 -312.7 -195.4 -332.2 -478.7 -322.4 -342 9.77 156.3 166.1 254 -214.9 29.31 -498.3 -469 -537.4 0
1.44 -508.1 -156.3 -478.7 -312.7 -312.7 -156.3 -361.5 -459.2 -400.6 -361.5 195.4 342 -556.9 517.8 -175.9 -68.39 -596 -420.1 -517.8 0
1.445 -400.6 -107.5 -381 -156.3 -254 -58.62 -381 -263.8 -234.5 -146.6 400.6 283.3 -214.9 381 -175.9 224.7 -469 -263.8 -390.8 0
1.45 -342 -19.54 -420.1 -136.8 -205.2 -19.54 -224.7 -127 -156.3 -78.16 234.5 351.7 -498.3 371.3 -87.93 146.6 -527.6 -263.8 -263.8 0
1.455 -508.1 -166.1 -429.9 -234.5 -205.2 -58.62 -146.6 0 -29.31 29.31 361.5 332.2 -205.2 195.4 -39.08 322.4 -537.4 -146.6 -117.2 0
1.46 -263.8 -185.6 -175.9 -175.9 78.16 107.5 127 273.6 234.5 254 469 371.3 342 117.2 146.6 488.5 -273.6 19.54 205.2 0
1.465 -273.6 -224.7 -185.6 -97.7 48.85 156.3 146.6 273.6 97.7 97.7 537.4 410.4 263.8 254 97.7 283.3 -244.3 48.85 224.7 0
1.47 -9.77 -117.2 107.5 87.93 283.3 293.1 244.3 390.8 117.2 156.3 762.1 87.93 478.7 146.6 185.6 302.9 19.54 195.4 361.5 0
1.475 185.6 9.77 224.7 273.6 293.1 400.6 244.3 342 -9.77 19.54 615.5 410.4 674.2 -410.4 58.62 117.2 166.1 283.3 390.8 0
1.48 381 234.5 322.4 400.6 371.3 420.1 234.5 342 -39.08 19.54 566.7 322.4 390.8 146.6 234.5 195.4 244.3 361.5 381 0
1.485 361.5 224.7 302.9 410.4 273.6 390.8 97.7 302.9 -136.8 39.08 566.7 478.7 810.9 0 78.16 224.7 175.9 322.4 263.8 0
1.49 302.9 302.9 254 283.3 224.7 214.9 58.62 263.8 -175.9 -9.77 420.1 556.9 390.8 312.7 166.1 117.2 136.8 224.7 224.7 0
1.495 156.3 283.3 195.4 254 127 87.93 -9.77 117.2 -293.1 -78.16 586.2 547.1 488.5 449.4 117.2 107.5 68.39 127 205.2 0
1.5 322.4 224.7 322.4 254 117.2 -19.54 -39.08 48.85 -302.9 -97.7 801.2 390.8 429.9 263.8 39.08 29.31 166.1 78.16 205.2 0
1.505 146.6 263.8 234.5 185.6 -19.54 -107.5 -195.4 -19.54 -459.2 -156.3 703.5 312.7 0 136.8 -117.2 -19.54 156.3 -58.62 97.7 0
1.51 78.16 166.1 205.2 312.7 -9.77 -19.54 -195.4 107.5 -410.4 -58.62 693.7 175.9 -136.8 146.6 -107.5 19.54 185.6 9.77 136.8 0
1.515 -68.39 87.93 166.1 283.3 -58.62 19.54 -175.9 107.5 -302.9 -48.85 87.93 127 -127 214.9 -117.2 78.16 224.7 0 146.6 0
1.52 0 195.4 224.7 361.5 68.39 146.6 -48.85 332.2 -78.16 127 156.3 -9.77 -351.7 -166.1 39.08 205.2 322.4 146.6 244.3 0
1.525 -283.3 234.5 87.93 332.2 -19.54 224.7 -39.08 469 0 185.6 -175.9 -58.62 107.5 556.9 48.85 127 244.3 136.8 263.8 0
1.53 -117.2 166.1 127 214.9 58.62 234.5 -9.77 556.9 78.16 361.5 185.6 -127 146.6 -136.8 97.7 390.8 224.7 156.3 273.6 0
1.535 -48.85 117.2 234.5 214.9 205.2 214.9 68.39 596 127 283.3 566.7 -78.16 791.4 283.3 -97.7 283.3 283.3 205.2 322.4 0
1.54 -97.7 9.77 175.9 185.6 205.2 146.6 48.85 478.7 127 302.9 664.4 -19.54 361.5 -429.9 68.39 332.2 312.7 214.9 263.8 0
1.545 -39.08 9.77 302.9 214.9 312.7 97.7 175.9 469 214.9 293.1 810.9 136.8 478.7 -156.3 48.85 410.4 381 234.5 293.1 0
1.55 -146.6 -97.7 146.6 205.2 244.3 68.39 214.9 312.7 195.4 127 556.9 -48.85 361.5 -420.1 195.4 214.9 283.3 175.9 205.2 0
1.555 -254 48.85 68.39 175.9 117.2 87.93 214.9 254 175.9 29.31 205.2 175.9 68.39 19.54 254 156.3 244.3 234.5 214.9 0
1.56 -146.6 -136.8 -39.08 19.54 -48.85 -48.85 146.6 29.31 68.39 -97.7 146.6 107.5 -361.5 107.5 283.3 0 136.8 107.5 97.7 0
1.565 -244.3 -68.39 -9.77 -58.62 -9.77 -19.54 87.93 -39.08 9.77 -107.5 136.8 48.85 -48.85 234.5 -9.77 -117.2 78.16 136.8 78.16 0
1.57 -185.6 -68.39 29.31 -166.1 0 -48.85 87.93 -78.16 -78.16 -87.93 312.7 175.9 -78.16 175.9 58.62 -127 -9.77 136.8 9.77 0
1.575 -400.6 -322.4 -97.7 -302.9 -39.08 -136.8 68.39 -146.6 -87.93 -136.8 205.2 175.9 -234.5 254 -117.2 -224.7 -166.1 107.5 -29.31 0
1.58 -342 -322.4 -19.54 -234.5 58.62 0 107.5 -78.16 -9.77 -78.16 381 205.2 351.7 214.9 -78.16 -166.1 -156.3 244.3 87.93 0
1.585 -576.5 -488.5 -195.4 -302.9 -214.9 -156.3 -166.1 -244.3 -214.9 -214.9 -107.5 205.2 371.3 -166.1 -312.7 -263.8 -361.5 19.54 -117.2 0
1.59 -508.1 -175.9 -127 9.77 -156.3 78.16 -127 -58.62 -166.1 -127 166.1 400.6 175.9 -136.8 -68.39 -205.2 -205.2 107.5 -68.39 0
1.595 -390.8 -136.8 0 -19.54 -185.6 -48.85 -185.6 -195.4 -273.6 -234.5 -185.6 263.8 195.4 -273.6 -214.9 -302.9 -127 0 -136.8 0
1.6 -429.9 9.77 58.62 127 -136.8 -58.62 -166.1 -166.1 -234.5 -185.6 -439.7 488.5 -97.7 -635.6 -136.8 -283.3 87.93 -19.54 -127 0
1.605 -244.3 175.9 342 214.9 39.08 -48.85 -19.54 -107.5 -146.6 -97.7 -146.6 547.1 -420.1 -127 -48.85 -224.7 293.1 39.08 -78.16 0
1.61 -224.7 146.6 302.9 234.5 -9.77 -39.08 9.77 -78.16 -146.6 -68.39 -293.1 420.1 -371.3 -214.9 -117.2 -224.7 302.9 58.62 -19.54 0
1.615 -214.9 68.39 351.7 254 224.7 0 175.9 68.39 48.85 48.85 273.6 517.8 -78.16 -19.54 29.31 -78.16 410.4 244.3 127 0
1.62 156.3 195.4 439.7 390.8 420.1 273.6 420.1 302.9 283.3 254 723 644.8 -244.3 459.2 224.7 136.8 547.1 478.7 361.5 0
1.625 78.16 117.2 371.3 400.6 420.1 312.7 488.5 390.8 263.8 263.8 771.9 547.1 156.3 342 205.2 185.6 517.8 527.6 381 0
1.63 205.2 234.5 371.3 537.4 459.2 390.8 429.9 469 371.3 371.3 596 635.1 185.6 244.3 224.7 273.6 547.1 547.1 400.6 0
1.635 293.1 136.8 361.5 469 381 244.3 381 244.3 185.6 136.8 478.7 351.7 371.3 78.16 166.1 127 498.3 420.1 244.3 0
1.64 117.2 48.85 332.2 195.4 293.1 9.77 234.5 87.93 107.5 -9.77 283.3 429.9 263.8 -48.85 39.08 -29.31 293.1 244.3 146.6 0
1.645 351.7 -9.77 429.9 68.39 342 -19.54 185.6 68.39 117.2 -48.85 166.1 312.7 1026 -58.62 48.85 -19.54 224.7 156.3 78.16 0
1.65 214.9 -29.31 332.2 -68.39 273.6 -97.7 127 0 29.31 -78.16 234.5 537.4 -29.31 -87.93 107.5 -39.08 127 68.39 39.08 0
1.655 400.6 19.54 498.3 -39.08 508.1 -39.08 351.7 19.54 146.6 29.31 410.4 556.9 644.8 19.54 312.7 29.31 302.9 234.5 136.8 0
1.66 469 166.1 488.5 136.8 596 78.16 390.8 48.85 224.7 58.62 527.6 429.9 302.9 146.6 302.9 -19.54 488.5 342 244.3 0
1.665 410.4 224.7 381 254 537.4 224.7 420.1 78.16 214.9 68.39 488.5 605.8 351.7 -224.7 351.7 -117.2 459.2 420.1 254 0
1.67 234.5 273.6 175.9 273.6 361.5 185.6 342 156.3 195.4 136.8 381 576.5 400.6 -19.54 166.1 58.62 254 322.4 166.1 0
1.675 39.08 195.4 0 117.2 234.5 166.1 263.8 185.6 214.9 87.93 58.62 908.6 -97.7 -97.7 224.7 48.85 68.39 224.7 175.9 0
1.68 -19.54 107.5 -136.8 -29.31 58.62 48.85 175.9 127 166.1 117.2 -273.6 1075 -29.31 -254 263.8 146.6 -127 97.7 78.16 0
1.685 -127 -39.08 -214.9 -136.8 -48.85 -87.93 -39.08 58.62 9.77 78.16 19.54 1026 -293.1 -302.9 166.1 87.93 -254 -87.93 -107.5 0
1.69 -136.8 -166.1 -244.3 -254 -97.7 -117.2 -68.39 39.08 -29.31 107.5 -97.7 1055 -68.39 -390.8 156.3 19.54 -283.3 -156.3 -166.1 0
1.695 -78.16 -254 -127 -312.7 48.85 -97.7 0 19.54 -48.85 87.93 508.1 879.3 410.4 -175.9 175.9 39.08 -127 -19.54 -97.7 0
1.7 -127 -469 -127 -361.5 39.08 -117.2 58.62 58.62 58.62 127 342 742.6 439.7 9.77 117.2 136.8 -87.93 9.77 -9.77 0
1.705 -117.2 -527.6 39.08 -283.3 244.3 97.7 332.2 322.4 244.3 342 556.9 566.7 605.8 205.2 351.7 332.2 39.08 263.8 263.8 0
1.71 9.77 -449.4 127 -107.5 400.6 224.7 498.3 459.2 439.7 449.4 283.3 625.3 517.8 332.2 547.1 439.7 166.1 371.3 381 0
1.715 -185.6 -537.4 -97.7 -254 205.2 58.62 342 254 371.3 224.7 -58.62 527.6 381 224.7 410.4 136.8 29.31 224.7 185.6 0
1.72 -9.77 -293.1 -39.08 -312.7 224.7 -29.31 283.3 175.9 283.3 185.6 -97.7 576.5 58.62 58.62 420.1 166.1 78.16 205.2 78.16 0
1.725 117.2 -117.2 -185.6 -332.2 58.62 -166.1 78.16 -39.08 78.16 0 -361.5 429.9 0 -556.9 195.4 -68.39 68.39 0 -156.3 0
1.73 0 0 -156.3 -342 -58.62 -234.5 -97.7 -117.2 -78.16 -39.08 -351.7 195.4 -371.3 -361.5 -117.2 -117.2 58.62 -68.39 -273.6 0
1.735 234.5 0 9.77 -224.7 68.39 -127 0 -97.7 -39.08 -29.31 -302.9 -29.31 -117.2 -547.6 29.31 -97.7 224.7 19.54 -136.8 0
1.74 195.4 -29.31 87.93 -78.16 97.7 -68.39 39.08 -78.16 -19.54 -39.08 -234.5 -9.77 -58.62 -244.3 -107.5 -68.39 254 78.16 -117.2 0
1.745 48.85 68.39 -97.7 -58.62 -68.39 -175.9 -156.3 -97.7 -117.2 -87.93 -390.8 -205.2 -293.1 39.08 -127 -9.77 78.16 -97.7 -214.9 0
1.75 58.62 205.2 -97.7 185.6 48.85 -117.2 -156.3 -9.77 -78.16 -58.62 -214.9 0 -58.62 127 -48.85 -19.54 68.39 -68.39 -214.9 0
1.755 9.77 214.9 -78.16 156.3 68.39 -195.4 -234.5 -87.93 -136.8 -146.6 -254 -117.2 -87.93 58.62 -58.62 -68.39 29.31 -146.6 -254 0
1.76 19.54 224.7 29.31 146.6 146.6 -185.6 -224.7 -9.77 -127 -97.7 -185.6 19.54 68.39 -29.31 -29.31 0 58.62 -78.16 -205.2 0
1.765 205.2 156.3 146.6 39.08 195.4 -127 -117.2 -68.39 -146.6 -146.6 -107.5 -68.39 58.62 -9.77 -29.31 -166.1 68.39 -19.54 -156.3 0
1.77 332.2 9.77 234.5 -9.77 302.9 -19.54 97.7 9.77 -107.5 -39.08 117.2 58.62 166.1 97.7 263.8 -195.4 136.8 107.5 -39.08 0
1.775 381 68.39 87.93 0 175.9 19.54 175.9 117.2 58.62 68.39 -107.5 244.3 -9.77 68.39 244.3 39.08 97.7 97.7 78.16 0
1.78 439.7 -29.31 0 -19.54 78.16 -87.93 175.9 -9.77 97.7 -68.39 39.08 97.7 -107.5 -107.5 332.2 -205.2 39.08 -29.31 9.77 0
1.785 371.3 136.8 -107.5 263.8 -19.54 -39.08 146.6 107.5 175.9 78.16 -439.7 371.3 273.6 -9.77 214.9 68.39 9.77 -195.4 0 0
1.79 332.2 -48.85 -254 166.1 -175.9 -136.8 9.77 39.08 68.39 48.85 -342 -127 -234.5 -381 0 39.08 -136.8 -371.3 -166.1 0
1.795 166.1 -175.9 -332.2 48.85 -263.8 -195.4 -58.62 -29.31 -9.77 -29.31 -693.7 -234.5 97.7 -205.2 0 -68.39 -185.6 -410.4 -195.4 0
1.8 136.8 -293.1 -244.3 0 -39.08 -146.6 19.54 39.08 -29.31 9.77 -361.5 -214.9 -97.7 -224.7 -19.54 48.85 -58.62 -166.1 -87.93 0
1.805 107.5 -322.4 -185.6 -78.16 -19.54 -58.62 0 29.31 0 39.08 -381 -312.7 127 -214.9 9.77 58.62 -97.7 -48.85 -9.77 0
1.81 -166.1 -410.4 -390.8 -283.3 -166.1 -146.6 -244.3 -58.62 -234.5 -107.5 -596 -185.6 -644.8 -48.85 -166.1 -78.16 -332.2 -117.2 -146.6 0
1.815 -244.3 -469 -439.7 -302.9 -175.9 -263.8 -302.9 -224.7 -234.5 -195.4 -820.7 -136.8 -732.8 -361.5 -205.2 -136.8 -449.4 -136.8 -205.2 0
1.82 -312.7 -537.4 -459.2 -381 -283.3 -429.9 -469 -478.7 -390.8 -381 -830.5 -224.7 -869.6 -195.4 -254 -273.6 -547.6 -342 -390.8 0
1.825 -332.2 -605.8 -556.9 -478.7 -420.1 -576.5 -644.8 -703.5 -576.5 -498.3 -850 -146.6 -586.2 -400.6 -371.3 -410.4 -762.1 -605.8 -664.4 0
1.83 -322.4 -556.9 -488.5 -498.3 -361.5 -517.8 -547.6 -576.5 -517.8 -410.4 -576.5 -136.8 -478.7 -107.5 -234.5 -312.7 -664.4 -576.5 -674.6 0
1.835 -283.3 -742.6 -469 -605.8 -371.3 -556.9 -498.3 -625.3 -527.6 -478.7 -381 -127 -9.77 -107.5 -254 -390.8 -664.4 -537.4 -635.6 0
1.84 -273.6 -674.6 -410.4 -703.5 -381 -439.7 -420.1 -478.7 -381 -351.7 -351.7 -136.8 -449.4 -58.62 -293.1 -342 -586.2 -420.1 -508.1 0
1.845 -117.2 -517.8 -322.4 -488.5 -283.3 -166.1 -293.1 -244.3 -185.6 -156.3 -127 19.54 9.77 -498.3 -254 -97.7 -429.9 -214.9 -293.1 0
1.85 -68.39 -263.8 -342 -361.5 -342 -87.93 -263.8 -107.5 -58.62 -58.62 -302.9 234.5 -488.5 -87.93 -283.3 -107.5 -361.5 -205.2 -234.5 0
1.855 -127 58.62 -166.1 -48.85 -156.3 127 -78.16 117.2 224.7 244.3 -478.7 605.8 -97.7 -9.77 -117.2 146.6 -117.2 -29.31 68.39 0
1.86 -58.62 332.2 -39.08 263.8 -19.54 332.2 97.7 390.8 351.7 478.7 -556.9 1016 -547.6 410.4 19.54 361.5 127 107.5 332.2 0
1.865 107.5 390.8 195.4 302.9 156.3 381 263.8 508.1 508.1 654.6 -410.4 713.2 -420.1 488.5 175.9 449.4 302.9 234.5 478.7 0
1.87 410.4 576.5 498.3 488.5 410.4 615.5 469 625.3 556.9 703.5 -58.62 644.8 -390.8 498.3 293.1 439.7 537.4 508.1 683.9 0
1.875 801.2 390.8 644.8 342 547.1 527.6 596 498.3 576.5 556.9 156.3 127 -224.7 195.4 351.7 283.3 596 654.6 703.5 0
1.88 1065 517.8 771.9 351.7 635.1 644.8 654.6 439.7 527.6 420.1 175.9 97.7 136.8 224.7 400.6 234.5 674.2 723 752.3 0
1.885 1153 586.2 850 361.5 635.1 527.6 654.6 390.8 517.8 351.7 195.4 283.3 371.3 234.5 400.6 205.2 762.1 713.2 762.1 0
1.89 957.5 723 791.4 400.6 498.3 439.7 517.8 244.3 312.7 283.3 -68.39 254 371.3 195.4 322.4 146.6 693.7 527.6 508.1 0
1.895 810.9 537.4 810.9 390.8 469 244.3 478.7 87.93 302.9 166.1 -136.8 449.4 498.3 214.9 175.9 87.93 723 420.1 390.8 0
1.9 713.2 752.3 898.9 625.3 615.5 420.1 556.9 175.9 381 195.4 107.5 527.6 361.5 283.3 439.7 78.16 908.6 605.8 469 0
1.905 410.4 332.2 664.4 400.6 508.1 234.5 498.3 29.31 342 146.6 19.54 205.2 390.8 58.62 322.4 87.93 576.5 420.1 322.4 0
1.91 478.7 351.7 713.2 439.7 644.8 410.4 596 195.4 527.6 214.9 371.3 214.9 205.2 -293.1 351.7 156.3 674.2 556.9 420.1 0
1.915 127 -117.2 469 263.8 478.7 302.9 488.5 166.1 400.6 146.6 117.2 19.54 29.31 390.8 332.2 19.54 351.7 459.2 244.3 0
1.92 29.31 -273.6 390.8 78.16 410.4 87.93 332.2 39.08 342 146.6 68.39 -9.77 -254 -244.3 322.4 166.1 214.9 273.6 48.85 0
1.925 -9.77 -175.9 508.1 224.7 371.3 185.6 312.7 175.9 342 244.3 175.9 156.3 97.7 293.1 244.3 146.6 342 244.3 29.31 0
1.93 -87.93 -87.93 332.2 234.5 48.85 -78.16 -78.16 -19.54 19.54 87.93 -48.85 439.7 29.31 254 87.93 127 224.7 -48.85 -283.3 0
1.935 136.8 283.3 566.7 508.1 166.1 29.31 39.08 127 127 166.1 224.7 635.1 322.4 195.4 136.8 263.8 478.7 97.7 -117.2 0
1.94 234.5 361.5 586.2 654.6 127 48.85 -19.54 58.62 39.08 39.08 254 693.7 273.6 156.3 48.85 78.16 615.5 127 -9.77 0
1.945 361.5 332.2 683.9 791.4 302.9 254 127 117.2 117.2 58.62 381 1055 107.5 234.5 107.5 9.77 742.6 322.4 214.9 0
1.95 78.16 244.3 488.5 732.8 273.6 371.3 166.1 107.5 146.6 68.39 175.9 674.2 488.5 87.93 78.16 9.77 537.4 381 293.1 0
1.955 -29.31 146.6 527.6 664.4 381 449.4 302.9 107.5 205.2 58.62 -175.9 762.1 97.7 214.9 136.8 29.31 527.6 478.7 439.7 0
1.96 -322.4 39.08 254 478.7 234.5 351.7 254 -39.08 146.6 -19.54 -469 488.5 224.7 224.7 48.85 58.62 322.4 312.7 332.2 0
1.965 -332.2 58.62 117.2 439.7 87.93 244.3 195.4 -97.7 -29.31 -107.5 -449.4 214.9 -214.9 185.6 9.77 -9.77 175.9 68.39 136.8 0
1.97 -224.7 283.3 19.54 586.2 39.08 263.8 195.4 -58.62 -87.93 -87.93 -224.7 439.7 -224.7 -214.9 -48.85 19.54 214.9 -48.85 9.77 0
1.975 -166.1 224.7 -166.1 527.6 -146.6 156.3 68.39 -146.6 -244.3 -234.5 -166.1 332.2 -371.3 -273.6 19.54 -68.39 97.7 -175.9 -185.6 0
1.98 39.08 244.3 -29.31 410.4 -29.31 127 156.3 -29.31 -224.7 -136.8 156.3 429.9 -175.9 -302.9 107.5 39.08 185.6 -87.93 -146.6 0
1.985 -9.77 117.2 -39.08 254 -78.16 234.5 -29.31 97.7 -156.3 -48.85 146.6 342 -498.3 -136.8 -68.39 146.6 19.54 -48.85 -146.6 0
1.99 9.77 -19.54 -68.39 87.93 0 293.1 39.08 332.2 -48.85 78.16 -39.08 537.4 283.3 576.5 58.62 312.7 -78.16 87.93 19.54 0
1.995 127 -185.6 78.16 9.77 87.93 381 107.5 429.9 146.6 146.6 390.8 371.3 429.9 537.4 78.16 302.9 -156.3 185.6 156.3 0
2 293.1 -351.7 -29.31 -166.1 48.85 254 156.3 420.1 283.3 214.9 224.7 449.4 459.2 556.9 146.6 293.1 -263.8 107.5 254 0
2.005 293.1 -429.9 -68.39 -312.7 -78.16 58.62 117.2 302.9 224.7 87.93 224.7 195.4 312.7 214.9 273.6 195.4 -400.6 -107.5 175.9 0
2.01 205.2 -469 -39.08 -332.2 -107.5 -97.7 107.5 195.4 293.1 9.77 175.9 185.6 254 439.7 283.3 0 -429.9 -263.8 107.5 0
2.015 -9.77 -576.5 -117.2 -537.4 -254 -449.4 -9.77 -117.2 166.1 -87.93 205.2 -146.6 332.2 -78.16 195.4 0 -537.4 -459.2 -58.62 0
2.02 -361.5 -517.8 -312.7 -566.7 -410.4 -556.9 -195.4 -302.9 58.62 -195.4 -107.5 -78.16 -254 0 9.77 -68.39 -615.5 -556.9 -234.5 0
2.025 -459.2 -517.8 -429.9 -644.8 -498.3 -615.5 -351.7 -469 -39.08 -175.9 -97.7 -244.3 -107.5 -302.9 -127 -39.08 -683.9 -615.5 -361.5 0
2.03 -596 -830.5 -586.2 -791.4 -605.8 -644.8 -547.6 -556.9 -146.6 -195.4 -244.3 -459.2 -517.8 -498.3 -214.9 -78.16 -869.6 -625.3 -469 0
2.035 -400.6 -859.8 -566.7 -771.9 -517.8 -547.6 -556.9 -517.8 -127 -185.6 -205.2 -195.4 -332.2 -723 -156.3 -146.6 -742.6 -527.6 -410.4 0
2.04 -459.2 -987.3 -576.5 -850 -615.5 -596 -683.9 -655.1 -322.4 -361.5 -29.31 -322.4 -29.31 -517.8 -254 -371.3 -889.1 -674.6 -556.9 0
2.045 -586.2 -967.8 -693.7 -801.2 -703.5 -547.6 -791.4 -615.5 -400.6 -351.7 -390.8 -58.62 -371.3 -615.5 -381 -332.2 -928.2 -713.2 -644.8 0
2.05 -605.8 -830.5 -635.6 -771.9 -752.3 -635.6 -830.5 -732.8 -517.8 -478.7 -293.1 -205.2 -381 -459.2 -469 -449.4 -928.2 -820.7 -752.3 0
2.055 -674.6 -674.6 -732.8 -742.6 -742.6 -625.3 -703.5 -723 -498.3 -576.5 -439.7 -68.39 -576.5 -58.62 -361.5 -508.1 -801.2 -781.6 -713.2 0
2.06 -703.5 -537.4 -713.2 -674.6 -703.5 -596 -615.5 -693.7 -459.2 -517.8 -322.4 -263.8 -410.4 78.16 -420.1 -332.2 -693.7 -713.2 -596 0
2.065 -830.5 -664.4 -957.5 -713.2 -918.4 -752.3 -674.6 -771.9 -527.6 -635.6 -547.6 -400.6 -517.8 -254 -478.7 -381 -869.6 -908.6 -742.6 0
2.07 -820.7 -566.7 -879.8 -655.1 -869.6 -674.6 -596 -703.5 -488.5 -605.8 -556.9 -517.8 -439.7 -97.7 -527.6 -293.1 -859.8 -850 -664.4 0
2.075 -967.8 -713.2 -967.8 -674.6 -850 -703.5 -655.1 -771.9 -527.6 -655.1 -576.5 -547.6 -498.3 -263.8 -644.8 -293.1 -869.6 -889.1 -635.6 0
2.08 -742.6 -469 -644.8 -381 -547.6 -410.4 -498.3 -576.5 -469 -517.8 -302.9 -332.2 -263.8 -9.77 -459.2 -244.3 -596 -556.9 -439.7 0
2.085 -547.6 -312.7 -420.1 -224.7 -322.4 -127 -400.6 -371.3 -439.7 -469 -185.6 -175.9 -410.4 234.5 -410.4 -205.2 -332.2 -302.9 -283.3 0
2.09 -390.8 -312.7 -283.3 127 -136.8 205.2 -302.9 -136.8 -342 -263.8 -214.9 -97.7 -371.3 -146.6 -283.3 -166.1 -58.62 19.54 -127 0
2.095 -48.85 -97.7 -127 322.4 156.3 517.8 39.08 205.2 0 -68.39 -254 -87.93 -9.77 791.4 68.39 -185.6 185.6 361.5 185.6 0
2.1 -29.31 -58.62 -185.6 342 19.54 459.2 -58.62 224.7 -48.85 68.39 -605.8 -185.6 -332.2 -390.8 -166.1 9.77 205.2 332.2 136.8 0
2.105 9.77 107.5 -214.9 342 0 410.4 0 234.5 58.62 166.1 -469 -342 -127 371.3 39.08 -9.77 146.6 224.7 39.08 0
2.11 -195.4 39.08 -371.3 214.9 -224.7 68.39 -117.2 0 -39.08 156.3 -449.4 -517.8 -488.5 -48.85 -107.5 117.2 -97.7 -156.3 -254 0
2.115 -342 -127 -527.6 39.08 -547.6 -390.8 -390.8 -390.8 -205.2 -136.8 -566.7 -742.6 -732.8 39.08 -224.7 -58.62 -302.9 -556.9 -615.5 0
2.12 -244.3 -68.39 -508.1 9.77 -537.4 -508.1 -283.3 -469 -68.39 -136.8 -410.4 -820.7 -615.5 312.7 -156.3 -9.77 -205.2 -615.5 -596 0
2.125 -312.7 -175.9 -469 -48.85 -527.6 -537.4 -293.1 -488.5 -166.1 -234.5 -410.4 -732.8 -283.3 322.4 -146.6 -117.2 -322.4 -674.6 -625.3 0
2.13 -224.7 -224.7 -420.1 -117.2 -469 -488.5 -273.6 -429.9 -185.6 -234.5 -332.2 -1045 -156.3 224.7 -273.6 -146.6 -361.5 -635.6 -517.8 0
2.135 -283.3 -234.5 -293.1 -107.5 -254 -332.2 -195.4 -312.7 -97.7 -205.2 -58.62 -655.1 -205.2 254 -107.5 -78.16 -361.5 -420.1 -371.3 0
2.14 -547.6 -527.6 -342 -234.5 -293.1 -410.4 -449.4 -517.8 -390.8 -410.4 -283.3 -752.3 351.7 0 -459.2 -312.7 -547.6 -537.4 -547.6 0
2.145 -547.6 -205.2 -224.7 -48.85 -234.5 -156.3 -556.9 -429.9 -439.7 -459.2 -273.6 -390.8 -410.4 273.6 -469 -410.4 -488.5 -420.1 -566.7 0
2.15 -655.1 -175.9 -332.2 -146.6 -273.6 -312.7 -732.8 -576.5 -576.5 -478.7 -517.8 -527.6 -195.4 -175.9 -644.8 -381 -596 -508.1 -693.7 0
2.155 -820.7 -156.3 -517.8 -234.5 -390.8 -302.9 -752.3 -605.8 -556.9 -508.1 -732.8 -556.9 -810.9 -302.9 -459.2 -420.1 -674.6 -498.3 -674.6 0
2.16 -742.6 -156.3 -625.3 -508.1 -488.5 -527.6 -713.2 -576.5 -390.8 -381 -791.4 -918.4 -810.9 -674.6 -381 -234.5 -771.9 -615.5 -625.3 0
2.165 -879.8 -361.5 -918.4 -732.8 -732.8 -723 -693.7 -615.5 -322.4 -234.5 -810.9 -938 -840.3 -732.8 -224.7 -195.4 -977.5 -742.6 -576.5 0
2.17 -752.3 -527.6 -957.5 -840.3 -840.3 -820.7 -644.8 -537.4 -175.9 -127 -527.6 -1114 -390.8 -449.4 -322.4 -214.9 -1055 -850 -566.7 0
2.175 -537.4 -674.6 -850 -918.4 -713.2 -791.4 -439.7 -410.4 -29.31 19.54 -48.85 -1436 -175.9 -87.93 -97.7 -19.54 -928.2 -674.6 -361.5 0
2.18 -449.4 -752.3 -752.3 -898.9 -683.9 -762.1 -381 -420.1 -19.54 0 97.7 -1358 -166.1 -19.54 -107.5 -19.54 -801.2 -655.1 -322.4 0
2.185 -254 -762.1 -459.2 -732.8 -371.3 -508.1 -273.6 -205.2 -19.54 87.93 390.8 -1416 283.3 -127 -136.8 48.85 -556.9 -488.5 -195.4 0
2.19 9.77 -459.2 -117.2 -459.2 -87.93 -254 -48.85 -19.54 39.08 175.9 322.4 -1143 78.16 -263.8 -39.08 58.62 -254 -283.3 -78.16 0
2.195 -78.16 -322.4 -68.39 -351.7 39.08 -136.8 -68.39 97.7 -48.85 87.93 283.3 -762.1 136.8 -556.9 -127 -39.08 -185.6 -156.3 19.54 0
2.2 97.7 19.54 254 -127 283.3 136.8 29.31 469 146.6 254 146.6 -439.7 -97.7 29.31 -87.93 146.6 19.54 58.62 224.7 0
2.205 156.3 273.6 68.39 -78.16 146.6 195.4 -58.62 644.8 78.16 381 -9.77 -361.5 254 19.54 -97.7 332.2 -29.31 87.93 254 0
2.21 -29.31 48.85 -205.2 -224.7 -234.5 87.93 -302.9 596 19.54 429.9 -185.6 -478.7 -312.7 205.2 -361.5 283.3 -283.3 -234.5 39.08 0
2.215 156.3 -19.54 -312.7 -263.8 -459.2 -29.31 -351.7 517.8 175.9 488.5 -420.1 -508.1 19.54 -48.85 -371.3 400.6 -410.4 -312.7 -48.85 0
2.22 58.62 -214.9 -683.9 -469 -928.2 -400.6 -596 146.6 9.77 293.1 -498.3 -762.1 -635.6 -127 -517.8 195.4 -655.1 -644.8 -302.9 0
2.225 9.77 -273.6 -850 -635.6 -1201 -732.8 -683.9 -205.2 -78.16 97.7 -664.4 -1064 -713.2 -723 -488.5 0 -732.8 -908.6 -537.4 0
2.23 -87.93 -117.2 -898.9 -576.5 -1377 -1006 -840.3 -537.4 -283.3 -146.6 -625.3 -1201 -713.2 -605.8 -635.6 -175.9 -781.6 -1075 -713.2 0
2.235 39.08 -58.62 -771.9 -527.6 -1250 -1036 -635.6 -635.6 -166.1 -293.1 -449.4 -1172 -547.6 -263.8 -332.2 -420.1 -576.5 -957.5 -655.1 0
2.24 117.2 156.3 -655.1 -283.3 -1163 -830.5 -517.8 -517.8 -127 -244.3 -429.9 -850 -508.1 -302.9 -332.2 -195.4 -439.7 -801.2 -517.8 0
2.245 244.3 205.2 -517.8 -224.7 -987.3 -635.6 -429.9 -439.7 -117.2 -293.1 -517.8 -781.6 -879.8 -166.1 -273.6 -322.4 -429.9 -713.2 -488.5 0
2.25 420.1 410.4 -283.3 -58.62 -605.8 -273.6 -205.2 -214.9 -107.5 -117.2 -29.31 -527.6 -449.4 -342 -146.6 -87.93 -273.6 -429.9 -293.1 0
2.255 654.6 644.8 -68.39 117.2 -205.2 -19.54 29.31 -68.39 -39.08 -87.93 0 -605.8 302.9 -244.3 -117.2 -78.16 -107.5 -195.4 -19.54 0
2.26 742.6 635.1 224.7 146.6 254 156.3 254 39.08 -39.08 -39.08 449.4 -439.7 410.4 -195.4 39.08 -136.8 117.2 166.1 263.8 0
2.265 801.2 644.8 488.5 185.6 478.7 361.5 293.1 185.6 58.62 19.54 771.9 -517.8 898.9 -136.8 68.39 -48.85 283.3 420.1 429.9 0
2.27 703.5 556.9 439.7 136.8 449.4 420.1 254 293.1 58.62 48.85 429.9 -244.3 283.3 -19.54 48.85 -58.62 214.9 478.7 410.4 0
2.275 547.1 312.7 322.4 -29.31 244.3 322.4 166.1 244.3 166.1 39.08 263.8 -459.2 78.16 -556.9 39.08 19.54 146.6 400.6 390.8 0
2.28 556.9 146.6 166.1 -156.3 78.16 117.2 107.5 322.4 263.8 175.9 117.2 -439.7 58.62 -19.54 107.5 195.4 -19.54 234.5 351.7 0
2.285 381 39.08 39.08 -127 -127 -19.54 87.93 361.5 381 293.1 166.1 -655.1 342 -156.3 312.7 283.3 -156.3 19.54 244.3 0
2.29 361.5 -127 19.54 -224.7 -175.9 -195.4 205.2 361.5 517.8 381 127 -928.2 293.1 29.31 517.8 371.3 -214.9 -127 175.9 0
2.295 205.2 -87.93 29.31 -205.2 -146.6 -205.2 283.3 400.6 517.8 420.1 302.9 -625.3 322.4 263.8 644.8 429.9 -166.1 -156.3 117.2 0
2.3 234.5 -29.31 156.3 -195.4 -29.31 -78.16 410.4 361.5 527.6 381 185.6 -713.2 224.7 205.2 556.9 342 -9.77 -19.54 166.1 0
2.305 68.39 29.31 214.9 -68.39 107.5 263.8 420.1 390.8 371.3 283.3 166.1 -351.7 -87.93 -214.9 351.7 254 156.3 146.6 175.9 0
2.31 -127 97.7 273.6 117.2 244.3 586.2 449.4 488.5 293.1 302.9 29.31 -156.3 9.77 107.5 166.1 166.1 302.9 390.8 273.6 0
2.315 29.31 283.3 488.5 332.2 459.2 840.3 449.4 517.8 175.9 185.6 68.39 19.54 9.77 58.62 -117.2 -9.77 556.9 605.8 429.9 0
2.32 78.16 390.8 605.8 478.7 586.2 879.3 469 508.1 175.9 175.9 9.77 234.5 9.77 361.5 -175.9 -87.93 713.2 683.9 566.7 0
2.325 185.6 683.9 596 508.1 517.8 713.2 214.9 439.7 -48.85 127 -39.08 0 263.8 332.2 -390.8 -136.8 674.2 498.3 371.3 0
2.33 400.6 908.6 683.9 596 459.2 625.3 146.6 381 -29.31 166.1 -9.77 39.08 -136.8 -263.8 -322.4 9.77 820.7 576.5 420.1 0
2.335 332.2 879.3 547.1 547.1 302.9 439.7 -19.54 205.2 -175.9 97.7 -273.6 -117.2 -9.77 107.5 -302.9 -48.85 752.3 498.3 214.9 0
2.34 166.1 703.5 420.1 332.2 136.8 283.3 -254 97.7 -234.5 9.77 -273.6 -273.6 -312.7 -254 -361.5 9.77 674.2 420.1 87.93 0
2.345 78.16 508.1 312.7 283.3 58.62 254 -146.6 68.39 -97.7 39.08 -205.2 -175.9 136.8 185.6 -146.6 58.62 576.5 381 68.39 0
2.35 -29.31 302.9 254 87.93 -29.31 146.6 -175.9 9.77 -78.16 -29.31 -87.93 -293.1 29.31 439.7 -107.5 19.54 410.4 234.5 9.77 0
2.355 -39.08 263.8 371.3 127 39.08 244.3 58.62 127 78.16 58.62 166.1 -254 234.5 234.5 78.16 117.2 517.8 332.2 166.1 0
2.36 -19.54 293.1 410.4 273.6 39.08 322.4 195.4 117.2 87.93 0 48.85 -166.1 283.3 146.6 0 9.77 527.6 273.6 214.9 0
2.365 273.6 390.8 703.5 556.9 283.3 517.8 508.1 224.7 136.8 68.39 566.7 19.54 156.3 97.7 166.1 -29.31 791.4 488.5 390.8 0
2.37 185.6 654.6 742.6 791.4 273.6 586.2 390.8 254 48.85 0 58.62 68.39 -371.3 9.77 -19.54 -107.5 889.1 449.4 312.7 0
2.375 312.7 713.2 781.6 918.4 390.8 625.3 381 224.7 -58.62 -39.08 381 166.1 175.9 244.3 -48.85 -156.3 1026 537.4 302.9 0
2.38 400.6 791.4 840.3 889.1 517.8 517.8 283.3 214.9 -9.77 48.85 205.2 87.93 -214.9 195.4 -87.93 -117.2 1094 664.4 322.4 0
2.385 596 947.7 918.4 938 635.1 429.9 283.3 205.2 -29.31 117.2 498.3 136.8 488.5 302.9 -97.7 -58.62 1153 703.5 322.4 0
2.39 400.6 615.5 723 654.6 459.2 48.85 0 -9.77 -166.1 -39.08 469 -68.39 244.3 9.77 -214.9 -127 908.6 410.4 136.8 0
2.395 312.7 723 762.1 576.5 488.5 -48.85 19.54 9.77 -48.85 -68.39 449.4 -224.7 156.3 -175.9 -146.6 -322.4 859.8 420.1 117.2 0
2.4 0 420.1 469 322.4 166.1 -234.5 -78.16 -127 -87.93 -87.93 -107.5 87.93 78.16 -195.4 -214.9 -97.7 586.2 214.9 -19.54 0
2.405 -322.4 107.5 283.3 175.9 107.5 -97.7 -9.77 87.93 9.77 39.08 -117.2 -48.85 -136.8 39.08 -9.77 39.08 351.7 234.5 48.85 0
2.41 -517.8 -293.1 166.1 39.08 205.2 48.85 224.7 254 254 205.2 -293.1 156.3 361.5 312.7 205.2 371.3 127 224.7 117.2 0
2.415 -801.2 -586.2 9.77 -224.7 107.5 29.31 322.4 234.5 244.3 185.6 -175.9 -9.77 146.6 185.6 381 420.1 -166.1 97.7 117.2 0
2.42 -791.4 -674.6 -48.85 -342 107.5 78.16 420.1 185.6 342 195.4 0 214.9 -39.08 263.8 469 420.1 -263.8 -9.77 166.1 0
2.425 -820.7 -478.7 -97.7 -351.7 58.62 29.31 322.4 58.62 244.3 68.39 -19.54 244.3 146.6 87.93 342 146.6 -410.4 -224.7 9.77 0
2.43 -625.3 -175.9 -127 -332.2 -9.77 -39.08 283.3 48.85 224.7 58.62 -175.9 263.8 361.5 166.1 332.2 195.4 -361.5 -293.1 -29.31 0
2.435 -478.7 -78.16 -78.16 -234.5 19.54 -19.54 244.3 -9.77 175.9 -48.85 -29.31 263.8 488.5 283.3 302.9 19.54 -146.6 -185.6 -48.85 0
2.44 -273.6 39.08 0 -97.7 117.2 87.93 127 29.31 117.2 -166.1 48.85 87.93 703.5 166.1 156.3 -19.54 48.85 29.31 -78.16 0
2.445 -146.6 214.9 39.08 185.6 97.7 390.8 48.85 205.2 9.77 -68.39 156.3 293.1 449.4 166.1 136.8 97.7 263.8 390.8 -19.54 0
2.45 -146.6 185.6 58.62 263.8 -9.77 400.6 -254 39.08 -293.1 -263.8 293.1 195.4 48.85 175.9 -244.3 -127 234.5 390.8 -224.7 0
2.455 97.7 78.16 -19.54 234.5 -127 361.5 -439.7 -107.5 -439.7 -420.1 175.9 166.1 -19.54 -576.5 -351.7 -371.3 175.9 342 -342 0
2.46 39.08 39.08 19.54 224.7 -205.2 166.1 -556.9 -234.5 -586.2 -469 156.3 322.4 -166.1 117.2 -586.2 -439.7 214.9 166.1 -390.8 0
2.465 87.93 -68.39 -9.77 -127 -224.7 -224.7 -449.4 -381 -459.2 -469 156.3 -9.77 -127 -410.4 -517.8 -605.8 -39.08 -195.4 -469 0
2.47 9.77 -224.7 0 -361.5 -156.3 -488.5 -302.9 -322.4 -322.4 -322.4 332.2 0 136.8 -224.7 -410.4 -469 -136.8 -361.5 -390.8 0
2.475 -127 -302.9 -29.31 -576.5 -39.08 -674.6 29.31 -175.9 -127 -117.2 136.8 -205.2 -351.7 -97.7 -175.9 -293.1 -263.8 -332.2 -185.6 0
2.48 -224.7 -420.1 9.77 -683.9 185.6 -683.9 312.7 39.08 68.39 78.16 19.54 -429.9 205.2 -283.3 48.85 -97.7 -214.9 -166.1 107.5 0
2.485 -351.7 -488.5 -97.7 -625.3 254 -537.4 332.2 254 127 166.1 -39.08 -566.7 -351.7 -312.7 39.08 -48.85 -254 -19.54 254 0
2.49 -332.2 -439.7 -78.16 -527.6 410.4 -361.5 449.4 283.3 156.3 234.5 -136.8 -693.7 156.3 -615.5 87.93 39.08 -127 136.8 342 0
2.495 -224.7 -166.1 -58.62 -195.4 429.9 -136.8 371.3 244.3 195.4 166.1 107.5 -469 254 -674.6 97.7 -117.2 48.85 254 322.4 0
2.5 -29.31 302.9 156.3 273.6 527.6 273.6 342 351.7 302.9 254 263.8 9.77 166.1 -97.7 244.3 -68.39 469 488.5 420.1 0
2.505 273.6 498.3 302.9 596 469 410.4 283.3 283.3 224.7 205.2 449.4 78.16 185.6 -127 263.8 -58.62 596 439.7 302.9 0
2.51 459.2 967.3 400.6 830.5 498.3 635.1 224.7 332.2 185.6 127 439.7 342 390.8 185.6 439.7 -175.9 830.5 527.6 312.7 0
2.515 703.5 1143 498.3 1036 517.8 869.6 214.9 400.6 195.4 195.4 420.1 527.6 537.4 156.3 234.5 97.7 938 693.7 439.7 0
2.52 723 1212 322.4 898.9 302.9 742.6 9.77 293.1 -58.62 29.31 332.2 263.8 205.2 -19.54 185.6 97.7 810.9 605.8 312.7 0
2.525 810.9 1280 234.5 879.3 273.6 781.6 29.31 390.8 -136.8 68.39 293.1 517.8 234.5 87.93 29.31 283.3 732.8 635.1 342 0
2.53 723 1065 195.4 703.5 166.1 674.2 -58.62 302.9 -234.5 78.16 283.3 351.7 -351.7 -175.9 -48.85 195.4 566.7 508.1 205.2 0
2.535 703.5 742.6 39.08 508.1 78.16 488.5 -39.08 273.6 -312.7 29.31 -9.77 605.8 -195.4 713.2 -156.3 205.2 342 312.7 117.2 0
2.54 664.4 381 166.1 273.6 87.93 312.7 -19.54 302.9 -166.1 195.4 136.8 263.8 117.2 342 -97.7 322.4 263.8 254 107.5 0
2.545 527.6 -19.54 244.3 78.16 48.85 78.16 -48.85 205.2 -195.4 127 58.62 273.6 214.9 517.8 -127 254 117.2 19.54 -29.31 0
2.55 429.9 -156.3 244.3 -58.62 58.62 -39.08 -127 136.8 -234.5 156.3 -78.16 68.39 762.1 351.7 -117.2 302.9 87.93 -29.31 -58.62 0
2.555 263.8 -371.3 244.3 -136.8 117.2 -97.7 -136.8 127 -195.4 117.2 263.8 -9.77 -29.31 224.7 -48.85 254 156.3 136.8 -9.77 0
2.56 195.4 -205.2 254 -68.39 244.3 -78.16 -19.54 117.2 -97.7 127 -97.7 175.9 273.6 136.8 68.39 127 185.6 244.3 87.93 0
2.565 107.5 -97.7 224.7 107.5 361.5 127 127 273.6 156.3 342 -234.5 576.5 -429.9 273.6 254 312.7 293.1 439.7 293.1 0
2.57 195.4 78.16 293.1 312.7 517.8 293.1 283.3 429.9 469 537.4 -429.9 674.2 97.7 224.7 459.2 381 371.3 547.1 449.4 0
2.575 293.1 273.6 322.4 527.6 683.9 517.8 488.5 654.6 752.3 683.9 -322.4 879.3 -29.31 254 644.8 351.7 498.3 664.4 654.6 0
2.58 429.9 312.7 390.8 420.1 703.5 429.9 547.1 537.4 810.9 683.9 -58.62 361.5 293.1 -68.39 674.2 478.7 429.9 517.8 605.8 0
2.585 547.1 342 439.7 312.7 674.2 439.7 537.4 586.2 654.6 674.2 556.9 117.2 449.4 -107.5 576.5 390.8 390.8 439.7 566.7 0
2.59 400.6 -29.31 361.5 78.16 547.1 185.6 566.7 351.7 537.4 439.7 635.1 -400.6 97.7 -263.8 488.5 371.3 224.7 283.3 420.1 0
2.595 302.9 68.39 214.9 -48.85 410.4 48.85 547.1 244.3 439.7 342 596 -400.6 195.4 -19.54 302.9 332.2 78.16 166.1 332.2 0
2.6 302.9 68.39 214.9 -58.62 361.5 97.7 508.1 234.5 400.6 351.7 527.6 -87.93 48.85 146.6 273.6 293.1 87.93 205.2 302.9 0
2.605 332.2 390.8 127 58.62 244.3 156.3 381 263.8 234.5 302.9 156.3 146.6 -39.08 117.2 195.4 234.5 0 127 214.9 0
2.61 596 576.5 312.7 224.7 371.3 224.7 283.3 293.1 156.3 263.8 166.1 156.3 693.7 -19.54 0 263.8 185.6 205.2 263.8 0
2.615 635.1 771.9 478.7 400.6 537.4 332.2 302.9 332.2 107.5 224.7 390.8 302.9 263.8 127 185.6 175.9 420.1 342 361.5 0
2.62 762.1 879.3 723 703.5 781.6 556.9 478.7 469 195.4 263.8 273.6 312.7 742.6 224.7 195.4 205.2 674.2 654.6 547.1 0
2.625 605.8 869.6 771.9 810.9 850 703.5 547.1 556.9 214.9 234.5 654.6 185.6 508.1 342 234.5 234.5 869.6 791.4 693.7 0
2.63 693.7 1085 898.9 938 986.8 830.5 742.6 625.3 381 293.1 977 322.4 654.6 498.3 527.6 283.3 1006 977 791.4 0
2.635 625.3 1085 732.8 908.6 801.2 810.9 644.8 537.4 322.4 224.7 850 214.9 762.1 -136.8 342 205.2 869.6 810.9 693.7 0
2.64 664.4 977 586.2 664.4 576.5 654.6 547.1 400.6 293.1 205.2 957.5 312.7 332.2 244.3 410.4 263.8 723 625.3 537.4 0
2.645 654.6 1016 429.9 615.5 322.4 527.6 293.1 322.4 19.54 78.16 732.8 429.9 635.1 146.6 244.3 -19.54 459.2 234.5 273.6 0
2.65 605.8 1016 283.3 469 107.5 312.7 136.8 234.5 -29.31 107.5 224.7 351.7 -175.9 478.7 244.3 87.93 214.9 29.31 39.08 0
2.655 527.6 683.9 263.8 195.4 117.2 39.08 48.85 0 -68.39 -78.16 293.1 68.39 127 342 195.4 -19.54 87.93 -48.85 -29.31 0
2.66 566.7 723 283.3 214.9 224.7 29.31 107.5 9.77 -97.7 -58.62 48.85 -87.93 -273.6 283.3 156.3 39.08 136.8 87.93 9.77 0
2.665 693.7 556.9 302.9 146.6 420.1 107.5 273.6 58.62 107.5 97.7 322.4 -29.31 332.2 -19.54 351.7 283.3 156.3 312.7 185.6 0
2.67 605.8 429.9 410.4 185.6 635.1 263.8 498.3 117.2 166.1 166.1 488.5 39.08 605.8 -39.08 488.5 293.1 175.9 527.6 381 0
2.675 576.5 332.2 322.4 68.39 683.9 312.7 566.7 234.5 351.7 224.7 517.8 263.8 977 78.16 390.8 302.9 39.08 605.8 517.8 0
2.68 410.4 205.2 234.5 -107.5 615.5 244.3 576.5 166.1 361.5 175.9 449.4 244.3 635.1 29.31 488.5 185.6 -185.6 508.1 547.1 0
2.685 371.3 58.62 156.3 -312.7 517.8 117.2 459.2 127 332.2 166.1 283.3 68.39 879.3 -410.4 361.5 136.8 -410.4 263.8 439.7 0
2.69 205.2 87.93 107.5 -254 420.1 185.6 351.7 205.2 234.5 234.5 185.6 156.3 488.5 156.3 390.8 175.9 -429.9 195.4 351.7 0
2.695 117.2 -156.3 68.39 -390.8 429.9 97.7 332.2 127 254 117.2 205.2 -97.7 683.9 9.77 556.9 146.6 -381 166.1 381 0
2.7 146.6 -146.6 127 -302.9 371.3 68.39 263.8 97.7 205.2 68.39 244.3 -146.6 605.8 214.9 508.1 68.39 -283.3 156.3 332.2 0
2.705 -78.16 -39.08 -58.62 -283.3 195.4 78.16 97.7 87.93 97.7 68.39 146.6 -136.8 469 -400.6 400.6 78.16 -293.1 166.1 224.7 0
2.71 -48.85 -136.8 -117.2 -390.8 107.5 -58.62 117.2 -29.31 175.9 -19.54 371.3 -273.6 -117.2 -136.8 400.6 -19.54 -429.9 0 175.9 0
2.715 -68.39 9.77 -175.9 -283.3 0 -87.93 29.31 -19.54 156.3 -58.62 205.2 -48.85 -293.1 -381 322.4 9.77 -488.5 -48.85 117.2 0
2.72 39.08 -117.2 -146.6 -361.5 19.54 -205.2 -19.54 -156.3 48.85 -117.2 332.2 -205.2 -58.62 -175.9 254 -136.8 -508.1 -107.5 48.85 0
2.725 48.85 -127 -87.93 -175.9 -19.54 -87.93 -58.62 -78.16 107.5 -78.16 58.62 78.16 156.3 381 244.3 -185.6 -439.7 -117.2 9.77 0
2.73 -136.8 -195.4 -195.4 -195.4 -127 -117.2 -224.7 -146.6 -97.7 -127 -78.16 -48.85 127 254 48.85 -156.3 -410.4 -156.3 -127 0
2.735 0 -351.7 97.7 -19.54 244.3 127 87.93 68.39 205.2 39.08 127 29.31 586.2 342 195.4 19.54 -19.54 224.7 214.9 0
2.74 -146.6 -273.6 87.93 48.85 263.8 244.3 205.2 166.1 254 195.4 -68.39 351.7 97.7 244.3 293.1 234.5 146.6 322.4 351.7 0
2.745 -78.16 -429.9 78.16 -97.7 205.2 29.31 254 39.08 322.4 136.8 136.8 -78.16 29.31 -107.5 224.7 195.4 107.5 175.9 254 0
2.75 -107.5 -156.3 146.6 48.85 156.3 19.54 234.5 19.54 263.8 146.6 146.6 185.6 254 -19.54 166.1 166.1 29.31 87.93 224.7 0
2.755 -97.7 29.31 -127 -68.39 -205.2 -312.7 -136.8 -312.7 29.31 -166.1 -68.39 68.39 0 -9.77 -185.6 -136.8 -136.8 -302.9 -156.3 0
2.76 195.4 214.9 -48.85 9.77 -312.7 -381 -224.7 -449.4 -58.62 -214.9 214.9 195.4 19.54 48.85 -78.16 -166.1 -117.2 -361.5 -312.7 0
2.765 107.5 283.3 -156.3 107.5 -390.8 -312.7 -371.3 -527.6 -254 -283.3 -19.54 254 -39.08 107.5 -195.4 -214.9 -127 -449.4 -439.7 0
2.77 97.7 283.3 -68.39 195.4 -293.1 -244.3 -293.1 -517.8 -156.3 -234.5 -146.6 224.7 -254 166.1 -68.39 -214.9 -78.16 -400.6 -469 0
2.775 -136.8 68.39 -205.2 146.6 -283.3 -224.7 -254 -537.4 -58.62 -244.3 -263.8 244.3 -127 -351.7 97.7 -302.9 -146.6 -361.5 -439.7 0
2.78 -390.8 -205.2 -429.9 -97.7 -342 -361.5 -244.3 -635.6 -9.77 -234.5 -459.2 -19.54 -390.8 -29.31 146.6 -224.7 -361.5 -478.7 -469 0
2.785 -644.8 -381 -605.8 -205.2 -459.2 -429.9 -293.1 -635.6 0 -234.5 -644.8 58.62 48.85 -214.9 0 -273.6 -596 -605.8 -527.6 0
2.79 -742.6 -683.9 -771.9 -439.7 -566.7 -596 -371.3 -683.9 -117.2 -214.9 -498.3 -175.9 -127 -244.3 -58.62 -224.7 -850 -693.7 -625.3 0
2.795 -586.2 -693.7 -683.9 -361.5 -488.5 -537.4 -263.8 -615.5 -48.85 -254 -283.3 -68.39 -224.7 87.93 19.54 -195.4 -820.7 -683.9 -566.7 0
2.8 -478.7 -781.6 -547.6 -322.4 -429.9 -547.6 -244.3 -556.9 19.54 -214.9 -263.8 -420.1 -312.7 97.7 29.31 -175.9 -664.4 -605.8 -498.3 0
2.805 -322.4 -703.5 -547.6 -302.9 -469 -478.7 -254 -537.4 -29.31 -283.3 -273.6 -244.3 -146.6 68.39 87.93 -234.5 -644.8 -674.6 -508.1 0
2.81 -478.7 -674.6 -527.6 -283.3 -351.7 -420.1 -224.7 -498.3 -185.6 -312.7 -78.16 -254 -547.6 459.2 -29.31 -342 -527.6 -576.5 -576.5 0
2.815 -596 -713.2 -713.2 -410.4 -459.2 -498.3 -283.3 -605.8 -195.4 -332.2 -478.7 -234.5 -205.2 107.5 -39.08 -234.5 -596 -625.3 -586.2 0
2.82 -840.3 -781.6 -879.8 -478.7 -498.3 -488.5 -224.7 -635.6 -263.8 -371.3 -508.1 48.85 -312.7 39.08 -117.2 -381 -693.7 -586.2 -508.1 0
2.825 -898.9 -781.6 -840.3 -371.3 -469 -371.3 -205.2 -566.7 -273.6 -175.9 -566.7 97.7 -390.8 0 -185.6 -136.8 -683.9 -527.6 -527.6 0
2.83 -830.5 -635.6 -850 -351.7 -498.3 -293.1 -244.3 -498.3 -332.2 -254 -566.7 58.62 -381 -195.4 -420.1 -244.3 -635.6 -508.1 -537.4 0
2.835 -752.3 -644.8 -664.4 -136.8 -400.6 -214.9 -175.9 -488.5 -371.3 -332.2 -556.9 273.6 -488.5 -547.6 -420.1 -283.3 -390.8 -361.5 -429.9 0
2.84 -517.8 -498.3 -420.1 -39.08 -273.6 -205.2 -166.1 -586.2 -449.4 -498.3 -449.4 410.4 -390.8 -107.5 -469 -488.5 -214.9 -322.4 -449.4 0
2.845 -625.3 -537.4 -293.1 -19.54 -214.9 -117.2 -185.6 -439.7 -498.3 -459.2 -273.6 283.3 -87.93 -400.6 -459.2 -420.1 -127 -244.3 -410.4 0
2.85 -439.7 -615.5 -351.7 -19.54 -254 -156.3 -283.3 -390.8 -556.9 -488.5 -439.7 302.9 205.2 -87.93 -488.5 -400.6 -195.4 -293.1 -400.6 0
2.855 -439.7 -576.5 -420.1 -146.6 -302.9 -175.9 -302.9 -312.7 -527.6 -400.6 -351.7 127 -214.9 322.4 -322.4 -332.2 -224.7 -283.3 -361.5 0
2.86 -615.5 -655.1 -664.4 -273.6 -615.5 -302.9 -517.8 -332.2 -566.7 -361.5 -791.4 -9.77 -420.1 195.4 -429.9 -195.4 -459.2 -517.8 -488.5 0
2.865 -498.3 -596 -693.7 -439.7 -644.8 -400.6 -527.6 -410.4 -488.5 -332.2 -586.2 -214.9 -517.8 127 -302.9 -234.5 -566.7 -556.9 -488.5 0
2.87 -576.5 -478.7 -713.2 -381 -674.6 -371.3 -498.3 -371.3 -371.3 -214.9 -478.7 -127 -732.8 -9.77 -185.6 -107.5 -556.9 -566.7 -420.1 0
2.875 -674.6 -771.9 -771.9 -537.4 -664.4 -605.8 -478.7 -586.2 -410.4 -342 -429.9 -429.9 -439.7 -322.4 -293.1 -342 -713.2 -655.1 -429.9 0
2.88 -302.9 -576.5 -400.6 -371.3 -273.6 -381 -136.8 -332.2 0 -117.2 58.62 -224.7 97.7 -283.3 -39.08 -195.4 -400.6 -322.4 -156.3 0
2.885 -371.3 -655.1 -254 -254 -195.4 -263.8 -58.62 -156.3 39.08 19.54 -78.16 -97.7 -234.5 -224.7 -68.39 -136.8 -273.6 -322.4 -48.85 0
2.89 -185.6 -537.4 -195.4 -332.2 -185.6 -381 -87.93 -97.7 0 48.85 -136.8 -342 -488.5 -283.3 -127 -117.2 -283.3 -302.9 -58.62 0
2.895 -107.5 -390.8 -136.8 -146.6 -195.4 -214.9 -146.6 78.16 -78.16 48.85 -214.9 68.39 -175.9 -449.4 -175.9 -254 -146.6 -224.7 -39.08 0
2.9 -19.54 -429.9 -332.2 -254 -410.4 -420.1 -410.4 -48.85 -293.1 0 -263.8 -107.5 -342 -332.2 -410.4 -127 -175.9 -332.2 -175.9 0
2.905 127 -361.5 -283.3 -205.2 -439.7 -371.3 -459.2 -68.39 -322.4 -48.85 -97.7 175.9 -68.39 -342 -371.3 -185.6 -136.8 -390.8 -224.7 0
2.91 87.93 -381 -312.7 -78.16 -469 -351.7 -527.6 -68.39 -254 68.39 19.54 469 -19.54 -244.3 -390.8 68.39 -136.8 -371.3 -254 0
2.915 68.39 -390.8 -371.3 -214.9 -537.4 -410.4 -449.4 -175.9 -146.6 29.31 29.31 517.8 -68.39 -146.6 -332.2 0 -224.7 -449.4 -263.8 0
2.92 -263.8 -488.5 -381 -224.7 -537.4 -293.1 -390.8 -127 -78.16 58.62 48.85 703.5 -332.2 -58.62 -381 68.39 -322.4 -351.7 -166.1 0
2.925 -283.3 -410.4 -429.9 -312.7 -537.4 -273.6 -302.9 -107.5 -29.31 48.85 -39.08 654.6 -273.6 -146.6 -361.5 -19.54 -400.6 -371.3 -146.6 0
2.93 -283.3 -410.4 -283.3 -254 -410.4 -166.1 -175.9 -29.31 39.08 107.5 -136.8 625.3 -351.7 -166.1 -283.3 29.31 -302.9 -254 -78.16 0
2.935 -302.9 -429.9 -254 -234.5 -361.5 -234.5 -224.7 -9.77 68.39 87.93 -342 527.6 -361.5 -517.8 -332.2 9.77 -214.9 -185.6 -97.7 0
2.94 -48.85 -273.6 29.31 29.31 -117.2 -39.08 -48.85 185.6 146.6 195.4 -58.62 615.5 -655.1 97.7 -146.6 166.1 127 9.77 68.39 0
2.945 87.93 -371.3 -68.39 0 -214.9 -136.8 -205.2 39.08 48.85 58.62 -136.8 586.2 -410.4 -48.85 -273.6 68.39 19.54 -87.93 -39.08 0
2.95 195.4 -263.8 -78.16 87.93 -146.6 -19.54 -127 214.9 58.62 205.2 58.62 586.2 -469 263.8 -146.6 254 29.31 9.77 39.08 0
2.955 224.7 -312.7 -127 -97.7 -156.3 -39.08 -156.3 97.7 -9.77 0 -127 420.1 -166.1 -420.1 -263.8 87.93 -127 -9.77 29.31 0
2.96 244.3 -322.4 -175.9 -156.3 -156.3 -29.31 -87.93 127 58.62 58.62 -58.62 488.5 -175.9 58.62 -302.9 117.2 -175.9 29.31 97.7 0
2.965 9.77 -312.7 -205.2 -185.6 -185.6 0 -166.1 97.7 -9.77 19.54 -293.1 449.4 -586.2 -293.1 -351.7 117.2 -283.3 -68.39 29.31 0
2.97 -117.2 -322.4 -293.1 -254 -283.3 -48.85 -254 -9.77 -58.62 -58.62 -459.2 517.8 -586.2 -97.7 -381 -9.77 -273.6 -97.7 -58.62 0
2.975 -97.7 -400.6 -195.4 -302.9 -185.6 -146.6 -185.6 -156.3 -68.39 -127 -302.9 508.1 -478.7 78.16 -322.4 0 -195.4 -146.6 -127 0
2.98 -214.9 -302.9 -185.6 -156.3 -293.1 -175.9 -410.4 -224.7 -234.5 -195.4 -381 537.4 -351.7 78.16 -390.8 -58.62 -127 -127 -224.7 0
2.985 117.2 -136.8 58.62 48.85 -48.85 -68.39 -175.9 -156.3 -136.8 -97.7 87.93 449.4 78.16 9.77 -195.4 -9.77 19.54 -29.31 -175.9 0
2.99 195.4 29.31 185.6 273.6 58.62 48.85 -156.3 -87.93 -107.5 -146.6 244.3 459.2 429.9 400.6 -166.1 -214.9 185.6 9.77 -156.3 0
2.995 19.54 -224.7 127 156.3 9.77 -68.39 -68.39 -107.5 -58.62 -127 -9.77 293.1 -39.08 9.77 87.93 0 146.6 -9.77 -166.1 0
3 -127 -244.3 78.16 9.77 -58.62 -107.5 -136.8 -136.8 -68.39 -166.1 -332.2 175.9 -185.6 58.62 19.54 -156.3 39.08 -107.5 -175.9 0
3.005 -508.1 -635.6 -146.6 -302.9 -224.7 -361.5 -214.9 -205.2 -107.5 -175.9 -547.6 195.4 -254 -195.4 -9.77 -87.93 -175.9 -263.8 -254 0
3.01 -508.1 -527.6 -185.6 -342 -283.3 -312.7 -224.7 -146.6 -136.8 -127 -488.5 175.9 -175.9 -420.1 -19.54 -39.08 -185.6 -205.2 -244.3 0
3.015 -556.9 -664.4 -332.2 -342 -273.6 -312.7 -214.9 -107.5 -87.93 -107.5 -273.6 136.8 -58.62 -293.1 -39.08 -97.7 -234.5 -185.6 -127 0
3.02 -254 -234.5 -146.6 -48.85 -97.7 -127 0 -58.62 -19.54 -19.54 97.7 332.2 -9.77 -78.16 146.6 -58.62 29.31 -9.77 -19.54 0
3.025 -127 -29.31 -9.77 293.1 58.62 107.5 97.7 127 -39.08 0 273.6 488.5 273.6 400.6 117.2 -19.54 224.7 97.7 117.2 0
3.03 -156.3 175.9 117.2 390.8 117.2 195.4 107.5 175.9 9.77 48.85 332.2 605.8 -263.8 234.5 136.8 68.39 254 117.2 97.7 0
3.035 -58.62 166.1 342 381 283.3 195.4 175.9 136.8 -9.77 -29.31 185.6 771.9 117.2 664.4 19.54 0 390.8 234.5 117.2 0
3.04 -39.08 117.2 322.4 312.7 312.7 166.1 117.2 117.2 -107.5 -58.62 107.5 566.7 -39.08 205.2 39.08 -9.77 390.8 283.3 146.6 0
3.045 -19.54 117.2 400.6 263.8 381 214.9 166.1 166.1 -58.62 39.08 107.5 420.1 517.8 400.6 -29.31 48.85 469 351.7 214.9 0
3.05 136.8 175.9 283.3 322.4 361.5 283.3 87.93 97.7 -185.6 -19.54 -39.08 361.5 381 381 29.31 29.31 498.3 361.5 185.6 0
3.055 429.9 293.1 498.3 537.4 508.1 556.9 234.5 263.8 -97.7 97.7 29.31 390.8 19.54 420.1 58.62 127 791.4 654.6 332.2 0
3.06 596 273.6 381 605.8 410.4 664.4 224.7 351.7 -39.08 107.5 39.08 449.4 48.85 146.6 58.62 224.7 820.7 635.1 420.1 0
3.065 478.7 166.1 312.7 459.2 342 703.5 205.2 449.4 -68.39 127 0 390.8 -48.85 351.7 9.77 244.3 635.1 576.5 390.8 0
3.07 381 136.8 156.3 381 224.7 664.4 234.5 517.8 -58.62 254 -9.77 439.7 29.31 312.7 58.62 420.1 429.9 469 332.2 0
3.075 312.7 107.5 136.8 78.16 136.8 361.5 146.6 361.5 19.54 117.2 29.31 283.3 -322.4 302.9 107.5 127 263.8 273.6 273.6 0
3.08 234.5 78.16 156.3 -97.7 156.3 195.4 214.9 361.5 87.93 263.8 273.6 234.5 48.85 478.7 117.2 302.9 166.1 166.1 205.2 0
3.085 136.8 127 48.85 -87.93 0 48.85 78.16 205.2 68.39 175.9 29.31 420.1 -87.93 478.7 87.93 156.3 107.5 -19.54 68.39 0
3.09 244.3 127 117.2 -58.62 -19.54 29.31 78.16 185.6 127 224.7 146.6 449.4 156.3 302.9 19.54 302.9 146.6 -78.16 -9.77 0
3.095 214.9 -9.77 68.39 -48.85 -87.93 -29.31 -48.85 39.08 19.54 97.7 78.16 576.5 58.62 273.6 -97.7 244.3 127 -58.62 -97.7 0
3.1 234.5 -39.08 68.39 -58.62 -39.08 -19.54 -58.62 39.08 0 48.85 117.2 615.5 273.6 234.5 -58.62 136.8 87.93 -48.85 -117.2 0
3.105 48.85 -156.3 -58.62 -263.8 -175.9 -136.8 -146.6 -48.85 -29.31 9.77 -78.16 439.7 -175.9 175.9 -58.62 136.8 -136.8 -185.6 -175.9 0
3.11 -39.08 -97.7 -146.6 -361.5 -195.4 -214.9 -185.6 -107.5 -107.5 -29.31 -19.54 195.4 -175.9 185.6 -87.93 136.8 -273.6 -312.7 -254 0
3.115 -195.4 -293.1 -332.2 -508.1 -302.9 -361.5 -117.2 -127 58.62 78.16 -166.1 48.85 -195.4 107.5 87.93 156.3 -410.4 -429.9 -234.5 0
3.12 -400.6 -263.8 -566.7 -566.7 -517.8 -508.1 -283.3 -302.9 -87.93 -97.7 -400.6 127 -97.7 -420.1 -68.39 48.85 -537.4 -586.2 -351.7 0
3.125 -322.4 -214.9 -537.4 -449.4 -547.6 -556.9 -283.3 -381 -127 -78.16 -87.93 -205.2 -9.77 -332.2 -234.5 -9.77 -547.6 -683.9 -469 0
3.13 -390.8 -351.7 -635.6 -469 -605.8 -625.3 -322.4 -390.8 -185.6 -117.2 -312.7 -68.39 -214.9 -508.1 -185.6 -58.62 -674.6 -693.7 -576.5 0
3.135 -322.4 -205.2 -410.4 -381 -390.8 -566.7 -273.6 -371.3 -97.7 -97.7 -302.9 -224.7 29.31 -175.9 -224.7 -48.85 -517.8 -537.4 -439.7 0
3.14 -273.6 -429.9 -429.9 -488.5 -371.3 -586.2 -234.5 -381 -127 -127 -381 -381 -957.5 -97.7 -68.39 -58.62 -556.9 -449.4 -410.4 0
3.145 -234.5 -390.8 -214.9 -420.1 -87.93 -293.1 -9.77 -146.6 9.77 -19.54 -156.3 -136.8 -312.7 97.7 58.62 -175.9 -400.6 -214.9 -175.9 0
3.15 -420.1 -488.5 -342 -586.2 -302.9 -332.2 -214.9 -283.3 -97.7 -68.39 -146.6 -263.8 -664.4 -224.7 -117.2 -97.7 -517.8 -302.9 -312.7 0
3.155 -244.3 -351.7 -175.9 -351.7 -156.3 -117.2 -97.7 -78.16 -39.08 9.77 146.6 39.08 39.08 -19.54 -107.5 -58.62 -283.3 -87.93 -156.3 0
3.16 -302.9 -459.2 -156.3 -322.4 -302.9 -127 -185.6 -175.9 -78.16 -97.7 9.77 19.54 -234.5 -234.5 -283.3 -39.08 -166.1 -136.8 -224.7 0
3.165 -449.4 -400.6 -254 -185.6 -439.7 -19.54 -214.9 -9.77 -127 58.62 332.2 127 214.9 -68.39 -351.7 127 -136.8 -127 -273.6 0
3.17 -390.8 -547.6 -185.6 -87.93 -302.9 48.85 -117.2 0 -39.08 48.85 0 19.54 -19.54 -48.85 -234.5 78.16 -9.77 -48.85 -224.7 0
3.175 -312.7 -390.8 -78.16 -19.54 -166.1 68.39 0 -9.77 19.54 -39.08 332.2 58.62 -68.39 -146.6 -78.16 0 117.2 -19.54 -175.9 0
3.18 -254 -254 136.8 19.54 117.2 156.3 117.2 -97.7 117.2 -127 234.5 -107.5 224.7 -400.6 117.2 -117.2 342 185.6 -107.5 0
3.185 -127 205.2 400.6 273.6 322.4 390.8 273.6 87.93 156.3 19.54 175.9 156.3 332.2 -29.31 195.4 -9.77 547.1 371.3 68.39 0
3.19 -185.6 273.6 400.6 244.3 332.2 283.3 146.6 -58.62 68.39 -166.1 263.8 -185.6 68.39 -205.2 107.5 -205.2 469 293.1 -19.54 0
3.195 -39.08 527.6 547.1 449.4 420.1 439.7 234.5 136.8 97.7 -29.31 390.8 58.62 488.5 234.5 107.5 -146.6 644.8 517.8 185.6 0
3.2 9.77 400.6 508.1 420.1 410.4 390.8 214.9 156.3 68.39 -9.77 420.1 117.2 244.3 332.2 127 -146.6 596 449.4 175.9 0
3.205 117.2 263.8 459.2 449.4 371.3 410.4 127 146.6 9.77 -19.54 390.8 146.6 48.85 -48.85 -29.31 -87.93 537.4 410.4 117.2 0
3.21 -29.31 371.3 390.8 459.2 381 527.6 136.8 205.2 -9.77 -68.39 205.2 332.2 -97.7 420.1 -39.08 -205.2 517.8 429.9 146.6 0
3.215 -29.31 322.4 469 390.8 469 488.5 136.8 117.2 -29.31 -87.93 322.4 381 586.2 185.6 -48.85 -117.2 517.8 429.9 205.2 0
3.22 136.8 762.1 683.9 556.9 683.9 664.4 361.5 322.4 205.2 39.08 205.2 547.1 156.3 498.3 185.6 -19.54 683.9 625.3 469 0
3.225 224.7 654.6 703.5 488.5 683.9 498.3 410.4 214.9 117.2 -19.54 478.7 254 957.5 293.1 107.5 -29.31 556.9 517.8 449.4 0
3.23 488.5 713.2 732.8 547.1 674.2 508.1 459.2 273.6 146.6 29.31 429.9 234.5 390.8 -556.9 312.7 87.93 635.1 576.5 420.1 0
3.235 517.8 556.9 703.5 439.7 615.5 390.8 478.7 244.3 166.1 48.85 429.9 19.54 566.7 -332.2 322.4 48.85 596 537.4 390.8 0
3.24 283.3 342 371.3 351.7 400.6 342 351.7 214.9 136.8 29.31 185.6 97.7 293.1 -293.1 332.2 117.2 488.5 469 361.5 0
3.245 19.54 283.3 214.9 195.4 254 234.5 254 166.1 214.9 107.5 97.7 -107.5 156.3 -68.39 283.3 87.93 234.5 263.8 234.5 0
3.25 -273.6 175.9 -9.77 136.8 78.16 175.9 244.3 166.1 381 234.5 -175.9 -146.6 0 293.1 332.2 205.2 48.85 87.93 195.4 0
3.255 -390.8 136.8 -195.4 58.62 -87.93 58.62 214.9 127 605.8 390.8 -195.4 -224.7 39.08 185.6 429.9 156.3 -78.16 -9.77 224.7 0
3.26 -244.3 48.85 -146.6 -29.31 -87.93 -68.39 175.9 -9.77 508.1 293.1 -78.16 -263.8 156.3 -97.7 166.1 19.54 -97.7 -58.62 136.8 0
3.265 -166.1 19.54 -39.08 -127 9.77 -146.6 117.2 -127 429.9 244.3 19.54 -576.5 527.6 -254 185.6 -68.39 -175.9 -146.6 107.5 0
3.27 78.16 -68.39 107.5 -156.3 97.7 -127 146.6 -127 342 136.8 175.9 -469 361.5 -351.7 68.39 -156.3 -97.7 -29.31 185.6 0
3.275 97.7 97.7 312.7 -107.5 361.5 -39.08 302.9 -127 224.7 58.62 400.6 -351.7 420.1 -254 205.2 -127 -19.54 107.5 273.6 0
3.28 -19.54 39.08 322.4 -175.9 410.4 -19.54 342 -136.8 97.7 -78.16 410.4 -214.9 68.39 -175.9 214.9 -127 9.77 156.3 273.6 0
3.285 -97.7 9.77 263.8 -29.31 293.1 87.93 244.3 -87.93 68.39 -185.6 390.8 29.31 -635.6 -371.3 254 -351.7 -29.31 87.93 175.9 0
3.29 -254 29.31 -29.31 -68.39 68.39 39.08 87.93 -156.3 -107.5 -127 29.31 -29.31 -371.3 -117.2 107.5 -156.3 -214.9 -58.62 -29.31 0
3.295 -87.93 -263.8 -29.31 -9.77 -29.31 29.31 9.77 -166.1 -127 -273.6 -19.54 19.54 -254 -68.39 48.85 -302.9 -205.2 -146.6 -68.39 0
3.3 -156.3 -175.9 -205.2 0 -254 -29.31 -166.1 -224.7 -224.7 -254 -166.1 -185.6 -156.3 -9.77 -19.54 -195.4 -332.2 -293.1 -244.3 0
3.305 -166.1 -48.85 -156.3 136.8 -273.6 39.08 -156.3 -127 -254 -127 -322.4 -166.1 166.1 127 -29.31 -9.77 -244.3 -254 -214.9 0
3.31 -58.62 117.2 -9.77 117.2 -205.2 107.5 -166.1 -39.08 -234.5 -127 0 -117.2 263.8 117.2 -78.16 19.54 -175.9 -195.4 -224.7 0
3.315 -48.85 205.2 68.39 68.39 -136.8 48.85 -87.93 -19.54 -156.3 -166.1 -48.85 -205.2 0 127 -68.39 0 -78.16 -117.2 -146.6 0
3.32 244.3 390.8 244.3 185.6 39.08 195.4 58.62 117.2 -29.31 -68.39 156.3 -263.8 136.8 175.9 -58.62 68.39 146.6 87.93 78.16 0
3.325 214.9 420.1 146.6 214.9 39.08 214.9 39.08 127 -97.7 -48.85 254 -342 410.4 175.9 -146.6 58.62 136.8 117.2 58.62 0
3.33 273.6 469 97.7 400.6 0 342 68.39 205.2 -9.77 48.85 214.9 -439.7 146.6 205.2 -78.16 175.9 234.5 195.4 166.1 0
3.335 156.3 429.9 136.8 488.5 97.7 400.6 166.1 146.6 9.77 0 156.3 -342 78.16 -312.7 78.16 78.16 351.7 322.4 214.9 0
3.34 146.6 527.6 293.1 547.1 136.8 429.9 195.4 175.9 48.85 -39.08 195.4 -136.8 -254 -195.4 127 68.39 517.8 371.3 273.6 0
3.345 -78.16 381 195.4 410.4 107.5 312.7 224.7 97.7 48.85 -48.85 195.4 -273.6 -488.5 -371.3 175.9 -19.54 439.7 342 273.6 0
3.35 -68.39 478.7 420.1 254 332.2 175.9 312.7 107.5 58.62 -48.85 342 -214.9 107.5 -244.3 107.5 -68.39 459.2 312.7 293.1 0
3.355 -127 224.7 234.5 -146.6 205.2 -156.3 234.5 -87.93 0 -166.1 361.5 -459.2 312.7 -205.2 214.9 -175.9 175.9 107.5 156.3 0
3.36 29.31 136.8 273.6 -312.7 283.3 -332.2 214.9 -156.3 127 -146.6 498.3 -664.4 214.9 -195.4 127 -254 87.93 9.77 127 0
3.365 9.77 117.2 205.2 -302.9 195.4 -312.7 205.2 -68.39 127 -39.08 420.1 -683.9 449.4 -322.4 175.9 -58.62 39.08 -29.31 146.6 0
3.37 -48.85 -87.93 97.7 -224.7 97.7 -195.4 117.2 -9.77 107.5 -48.85 302.9 -957.5 410.4 -283.3 58.62 -78.16 -29.31 19.54 156.3 0
3.375 -381 -136.8 -107.5 -254 -78.16 -146.6 29.31 0 -9.77 -19.54 -29.31 -1006 68.39 -127 -29.31 -87.93 -78.16 9.77 136.8 0
3.38 -517.8 -273.6 -224.7 -214.9 -117.2 -107.5 -58.62 -39.08 -127 -78.16 -195.4 -1006 410.4 -29.31 -205.2 -39.08 -146.6 39.08 127 0
3.385 -742.6 -449.4 -312.7 -420.1 -312.7 -234.5 -283.3 -205.2 -302.9 -195.4 -234.5 -1329 -293.1 -312.7 -302.9 -205.2 -371.3 -224.7 -117.2 0
3.39 -830.5 -459.2 -293.1 -390.8 -322.4 -175.9 -390.8 -234.5 -342 -283.3 -78.16 -889.1 -87.93 -19.54 -332.2 -390.8 -371.3 -322.4 -214.9 0
3.395 -596 -527.6 -293.1 -429.9 -371.3 -244.3 -459.2 -254 -390.8 -214.9 19.54 -840.3 -107.5 -664.4 -469 -234.5 -312.7 -332.2 -234.5 0
3.4 -586.2 -361.5 -263.8 -312.7 -381 -224.7 -556.9 -234.5 -449.4 -283.3 19.54 -713.2 -1006 -420.1 -390.8 -410.4 -273.6 -381 -302.9 0
3.405 -498.3 -302.9 -263.8 -254 -371.3 -195.4 -508.1 -195.4 -342 -195.4 -19.54 -547.6 -351.7 -674.6 -400.6 -205.2 -195.4 -322.4 -234.5 0
3.41 -771.9 -332.2 -517.8 -263.8 -537.4 -234.5 -615.5 -205.2 -459.2 -214.9 -478.7 -615.5 -908.6 -605.8 -566.7 -195.4 -410.4 -469 -361.5 0
3.415 -723 -361.5 -488.5 -390.8 -488.5 -371.3 -527.6 -322.4 -400.6 -332.2 -185.6 -742.6 -400.6 -175.9 -361.5 -273.6 -478.7 -439.7 -302.9 0
3.42 -771.9 -381 -635.6 -478.7 -576.5 -478.7 -605.8 -420.1 -400.6 -342 -332.2 -517.8 -342 -19.54 -508.1 -381 -635.6 -537.4 -332.2 0
3.425 -586.2 -127 -537.4 -429.9 -517.8 -439.7 -498.3 -342 -371.3 -224.7 -195.4 -361.5 -146.6 -78.16 -351.7 -195.4 -596 -478.7 -312.7 0
3.43 -537.4 29.31 -439.7 -400.6 -498.3 -429.9 -508.1 -302.9 -361.5 -195.4 -175.9 -478.7 -312.7 -58.62 -381 -214.9 -615.5 -566.7 -342 0
3.435 -390.8 117.2 -224.7 -263.8 -400.6 -371.3 -400.6 -205.2 -224.7 -48.85 -127 -410.4 29.31 19.54 -273.6 -19.54 -449.4 -459.2 -244.3 0
3.44 -351.7 -58.62 -78.16 -214.9 -342 -342 -361.5 -87.93 -234.5 39.08 -29.31 -517.8 -68.39 0 -293.1 -19.54 -429.9 -478.7 -273.6 0
3.445 -361.5 136.8 87.93 -97.7 -166.1 -166.1 -273.6 9.77 -244.3 58.62 -156.3 -283.3 166.1 224.7 -195.4 58.62 -312.7 -390.8 -195.4 0
3.45 -302.9 -39.08 58.62 -244.3 -156.3 -244.3 -244.3 -127 -283.3 -78.16 -58.62 -332.2 175.9 -273.6 -205.2 -117.2 -312.7 -420.1 -244.3 0
3.455 -214.9 166.1 166.1 -195.4 39.08 -175.9 -107.5 -58.62 -254 -136.8 68.39 -19.54 29.31 -87.93 -68.39 -117.2 -175.9 -234.5 -97.7 0
3.46 -97.7 205.2 166.1 -185.6 136.8 -205.2 -29.31 -156.3 -166.1 -166.1 234.5 -97.7 -87.93 -234.5 29.31 -234.5 -78.16 -156.3 -58.62 0
3.465 127 351.7 283.3 19.54 273.6 -19.54 166.1 48.85 -68.39 -19.54 596 78.16 175.9 -58.62 185.6 -68.39 117.2 48.85 107.5 0
3.47 302.9 273.6 517.8 87.93 439.7 166.1 293.1 185.6 58.62 87.93 781.6 -117.2 322.4 244.3 302.9 39.08 283.3 205.2 254 0
3.475 156.3 68.39 644.8 263.8 586.2 420.1 527.6 459.2 254 283.3 576.5 29.31 234.5 938 351.7 146.6 498.3 469 547.1 0
3.48 517.8 175.9 576.5 371.3 537.4 478.7 537.4 449.4 273.6 322.4 586.2 0 410.4 820.7 410.4 254 527.6 478.7 508.1 0
3.485 214.9 -107.5 469 293.1 517.8 508.1 498.3 478.7 351.7 351.7 332.2 29.31 293.1 810.9 361.5 156.3 351.7 390.8 556.9 0
3.49 283.3 107.5 87.93 254 185.6 332.2 293.1 283.3 254 283.3 136.8 146.6 244.3 498.3 166.1 195.4 156.3 146.6 312.7 0
3.495 263.8 175.9 -97.7 195.4 48.85 127 205.2 117.2 166.1 185.6 -19.54 127 39.08 361.5 146.6 195.4 68.39 107.5 224.7 0
3.5 185.6 117.2 -175.9 19.54 -19.54 48.85 166.1 -19.54 97.7 87.93 -166.1 -312.7 322.4 68.39 136.8 68.39 -58.62 39.08 156.3 0
3.505 156.3 273.6 -175.9 156.3 29.31 117.2 156.3 97.7 -9.77 146.6 -78.16 -195.4 205.2 205.2 48.85 195.4 48.85 127 166.1 0
3.51 322.4 410.4 9.77 175.9 195.4 195.4 244.3 146.6 9.77 156.3 -39.08 -371.3 244.3 185.6 234.5 156.3 185.6 185.6 156.3 0
3.515 420.1 390.8 107.5 97.7 361.5 146.6 381 146.6 185.6 127 127 -322.4 351.7 136.8 312.7 68.39 234.5 293.1 273.6 0
3.52 781.6 693.7 283.3 283.3 488.5 234.5 449.4 175.9 244.3 136.8 273.6 -48.85 517.8 166.1 420.1 48.85 517.8 361.5 322.4 0
3.525 693.7 625.3 244.3 342 400.6 205.2 322.4 107.5 156.3 107.5 117.2 9.77 156.3 -39.08 371.3 87.93 498.3 312.7 263.8 0
3.53 625.3 732.8 146.6 469 175.9 146.6 146.6 9.77 58.62 87.93 39.08 87.93 -19.54 9.77 156.3 29.31 429.9 156.3 58.62 0
3.535 449.4 683.9 166.1 547.1 146.6 107.5 97.7 -19.54 9.77 29.31 -263.8 107.5 87.93 -107.5 68.39 58.62 498.3 195.4 68.39 0
3.54 478.7 644.8 195.4 596 166.1 146.6 78.16 29.31 58.62 97.7 -146.6 48.85 -302.9 58.62 -19.54 136.8 527.6 234.5 146.6 0
3.545 498.3 537.4 254 517.8 283.3 224.7 185.6 175.9 117.2 205.2 -156.3 39.08 371.3 410.4 175.9 234.5 517.8 342 244.3 0
3.55 469 351.7 273.6 381 312.7 302.9 283.3 283.3 254 312.7 -68.39 -58.62 19.54 498.3 0 302.9 478.7 439.7 361.5 0
3.555 498.3 322.4 214.9 302.9 332.2 381 332.2 361.5 254 312.7 -224.7 -156.3 273.6 498.3 127 273.6 410.4 547.1 410.4 0
3.56 332.2 205.2 48.85 244.3 244.3 293.1 234.5 302.9 234.5 234.5 -224.7 -390.8 48.85 361.5 0 205.2 254 449.4 342 0
3.565 185.6 332.2 -68.39 254 58.62 263.8 107.5 244.3 156.3 166.1 -420.1 -175.9 -117.2 351.7 -29.31 117.2 68.39 273.6 214.9 0
3.57 39.08 302.9 -166.1 273.6 -58.62 166.1 -39.08 117.2 58.62 9.77 -693.7 -410.4 -68.39 58.62 -58.62 -19.54 -39.08 97.7 29.31 0
3.575 107.5 381 -127 361.5 -19.54 205.2 -48.85 117.2 107.5 39.08 -547.6 -127 -117.2 117.2 9.77 78.16 78.16 146.6 48.85 0
3.58 29.31 244.3 -58.62 136.8 -87.93 68.39 -127 19.54 48.85 -19.54 -674.6 -127 -605.8 -39.08 9.77 -9.77 -29.31 9.77 -87.93 0
3.585 254 420.1 68.39 293.1 58.62 195.4 -29.31 127 107.5 68.39 -429.9 166.1 -156.3 263.8 48.85 107.5 127 166.1 -39.08 0
3.59 449.4 322.4 146.6 127 146.6 97.7 39.08 78.16 87.93 97.7 -87.93 29.31 -342 0 58.62 78.16 87.93 146.6 9.77 0
3.595 429.9 19.54 166.1 0 175.9 -29.31 146.6 58.62 136.8 78.16 39.08 -19.54 0 -117.2 166.1 39.08 58.62 117.2 9.77 0
3.6 410.4 -68.39 78.16 -195.4 117.2 -175.9 127 -58.62 87.93 -9.77 117.2 -68.39 58.62 -185.6 87.93 9.77 48.85 87.93 39.08 0
3.605 166.1 -9.77 -107.5 -234.5 -87.93 -244.3 78.16 -107.5 -19.54 -107.5 -254 -234.5 9.77 127 0 -146.6 -87.93 -19.54 -9.77 0
3.61 68.39 -58.62 -29.31 -254 -78.16 -254 166.1 -136.8 117.2 -87.93 -244.3 -381 39.08 166.1 -19.54 -39.08 -58.62 -97.7 29.31 0
3.615 9.77 146.6 -166.1 -185.6 -175.9 -214.9 19.54 -175.9 0 -195.4 -302.9 -146.6 29.31 293.1 -185.6 -185.6 -39.08 -78.16 19.54 0
3.62 273.6 0 -29.31 -244.3 -87.93 -293.1 -19.54 -254 -9.77 -175.9 -263.8 -332.2 -97.7 -48.85 -205.2 -97.7 -9.77 -87.93 0 0
3.625 449.4 0 39.08 -263.8 -58.62 -273.6 -68.39 -224.7 -68.39 -107.5 -254 -283.3 -224.7 -166.1 -263.8 -87.93 9.77 -39.08 29.31 0
3.63 537.4 -9.77 68.39 -254 -39.08 -234.5 -156.3 -48.85 -87.93 19.54 -244.3 -293.1 -332.2 -283.3 -342 -58.62 19.54 0 78.16 0
3.635 615.5 19.54 156.3 -214.9 175.9 -78.16 68.39 156.3 78.16 156.3 -234.5 -214.9 -263.8 -136.8 -97.7 97.7 127 263.8 361.5 0
3.64 615.5 97.7 244.3 -273.6 244.3 -87.93 117.2 156.3 156.3 117.2 -185.6 -410.4 -615.5 -273.6 -19.54 0 156.3 302.9 508.1 0
3.645 615.5 195.4 195.4 -68.39 195.4 58.62 205.2 361.5 273.6 263.8 -175.9 -224.7 -283.3 -156.3 87.93 146.6 146.6 420.1 625.3 0
3.65 752.3 244.3 371.3 -48.85 293.1 78.16 254 390.8 302.9 293.1 29.31 -283.3 -429.9 -605.8 175.9 107.5 205.2 488.5 644.8 0
3.655 605.8 283.3 127 -87.93 29.31 -29.31 48.85 302.9 136.8 185.6 -293.1 -156.3 -244.3 -293.1 29.31 78.16 9.77 263.8 469 0
3.66 537.4 166.1 78.16 -136.8 -58.62 -87.93 -48.85 302.9 78.16 224.7 -39.08 -244.3 -58.62 -488.5 -19.54 107.5 -48.85 117.2 302.9 0
3.665 625.3 175.9 -97.7 -136.8 -263.8 -29.31 -195.4 283.3 -9.77 205.2 78.16 -185.6 -87.93 -283.3 -127 136.8 -175.9 -39.08 117.2 0
3.67 322.4 97.7 -205.2 -205.2 -410.4 -68.39 -302.9 302.9 -127 244.3 -39.08 -166.1 -68.39 19.54 -195.4 244.3 -390.8 -166.1 -39.08 0
3.675 420.1 -9.77 -136.8 -117.2 -283.3 -29.31 -254 283.3 -9.77 254 0 -29.31 48.85 29.31 -117.2 263.8 -234.5 -97.7 -9.77 0
3.68 283.3 -48.85 -117.2 -127 -175.9 -29.31 -146.6 342 9.77 195.4 -136.8 214.9 -9.77 -107.5 -244.3 97.7 -195.4 -68.39 -9.77 0
3.685 254 0 -9.77 -78.16 -48.85 -107.5 -9.77 371.3 58.62 342 -224.7 -107.5 39.08 -117.2 68.39 400.6 -166.1 -107.5 -19.54 0
3.69 195.4 0 -214.9 -58.62 -166.1 -156.3 -78.16 312.7 117.2 283.3 -420.1 58.62 -302.9 -39.08 0 205.2 -146.6 -254 -175.9 0
3.695 166.1 29.31 -283.3 -87.93 -244.3 -224.7 -107.5 224.7 107.5 254 -390.8 214.9 -293.1 -78.16 205.2 302.9 -175.9 -302.9 -263.8 0
3.7 175.9 -214.9 -312.7 -78.16 -449.4 -263.8 -254 107.5 127 136.8 -381 244.3 -596 39.08 136.8 342 -136.8 -400.6 -361.5 0
3.705 263.8 107.5 -254 68.39 -449.4 -117.2 -302.9 87.93 48.85 87.93 -205.2 527.6 -127 97.7 107.5 214.9 -39.08 -342 -410.4 0
3.71 254 9.77 -156.3 39.08 -361.5 -39.08 -361.5 29.31 0 -39.08 -68.39 429.9 -48.85 -263.8 -19.54 78.16 -29.31 -283.3 -449.4 0
3.715 302.9 -9.77 9.77 78.16 -156.3 9.77 -185.6 58.62 29.31 -19.54 -58.62 302.9 -127 -58.62 19.54 107.5 68.39 -107.5 -273.6 0
3.72 175.9 -107.5 19.54 -9.77 58.62 48.85 -48.85 19.54 -29.31 -136.8 78.16 156.3 254 -302.9 0 -48.85 19.54 39.08 -156.3 0
3.725 78.16 -224.7 -58.62 87.93 166.1 205.2 97.7 175.9 39.08 -29.31 -175.9 78.16 -175.9 -39.08 29.31 97.7 58.62 166.1 29.31 0
3.73 -39.08 -234.5 -9.77 87.93 283.3 205.2 254 136.8 39.08 -68.39 0 0 39.08 254 19.54 87.93 58.62 244.3 97.7 0
3.735 156.3 -78.16 39.08 263.8 342 351.7 293.1 214.9 78.16 -9.77 39.08 78.16 234.5 429.9 78.16 136.8 214.9 371.3 166.1 0
3.74 381 9.77 166.1 263.8 244.3 283.3 195.4 107.5 0 -48.85 -87.93 117.2 -410.4 400.6 9.77 107.5 263.8 342 97.7 0
3.745 605.8 29.31 312.7 283.3 244.3 263.8 156.3 29.31 -78.16 0 146.6 136.8 136.8 420.1 9.77 166.1 322.4 342 39.08 0
3.75 547.1 87.93 224.7 195.4 166.1 175.9 29.31 -107.5 -234.5 -127 39.08 214.9 -127 214.9 0 -19.54 224.7 224.7 -107.5 0
3.755 381 48.85 293.1 185.6 302.9 234.5 107.5 -58.62 -136.8 -78.16 224.7 390.8 136.8 293.1 195.4 68.39 263.8 302.9 -48.85 0
3.76 48.85 39.08 107.5 117.2 195.4 166.1 39.08 -87.93 -78.16 -97.7 175.9 429.9 205.2 195.4 58.62 19.54 9.77 185.6 -68.39 0
3.765 -312.7 107.5 -117.2 175.9 39.08 214.9 -68.39 -39.08 -146.6 -87.93 0 527.6 117.2 -312.7 -29.31 39.08 -97.7 78.16 -146.6 0
3.77 -361.5 -19.54 -332.2 48.85 -156.3 156.3 -166.1 -48.85 -97.7 -78.16 -244.3 478.7 -449.4 254 -166.1 -9.77 -332.2 -78.16 -205.2 0
3.775 -283.3 -48.85 -371.3 48.85 -166.1 175.9 -127 0 -29.31 -29.31 -586.2 0 -361.5 -214.9 -97.7 29.31 -322.4 -29.31 -117.2 0
3.78 146.6 19.54 -195.4 -9.77 -19.54 195.4 29.31 68.39 87.93 29.31 -371.3 136.8 -254 166.1 29.31 78.16 -185.6 97.7 -9.77 0
3.785 78.16 -9.77 -312.7 -107.5 -107.5 136.8 -19.54 48.85 29.31 -39.08 -527.6 -117.2 9.77 527.6 117.2 -68.39 -351.7 -58.62 -97.7 0
3.79 -107.5 -234.5 -342 -302.9 -214.9 -68.39 -146.6 -97.7 -19.54 -68.39 -283.3 -146.6 -166.1 -48.85 107.5 58.62 -508.1 -273.6 -244.3 0
3.795 -107.5 -371.3 -371.3 -312.7 -263.8 -166.1 -195.4 -205.2 -48.85 -175.9 -244.3 0 117.2 107.5 97.7 -146.6 -566.7 -361.5 -322.4 0
3.8 -205.2 -283.3 -381 -351.7 -244.3 -293.1 -263.8 -312.7 -127 -195.4 -68.39 -107.5 127 -312.7 -9.77 -39.08 -556.9 -410.4 -400.6 0
3.805 -9.77 -351.7 -312.7 -322.4 -156.3 -371.3 -195.4 -244.3 -78.16 -185.6 29.31 -97.7 -58.62 -420.1 58.62 -68.39 -556.9 -410.4 -400.6 0
3.81 136.8 29.31 -87.93 -214.9 127 -244.3 48.85 -9.77 87.93 -29.31 146.6 -19.54 146.6 -146.6 127 58.62 -371.3 -185.6 -166.1 0
3.815 97.7 -78.16 -117.2 -420.1 68.39 -322.4 117.2 0 146.6 -68.39 117.2 -175.9 -283.3 -840.3 283.3 -29.31 -527.6 -205.2 -156.3 0
3.82 -39.08 -127 -146.6 -498.3 58.62 -342 175.9 58.62 78.16 0 175.9 -97.7 -205.2 -371.3 361.5 -9.77 -576.5 -127 -39.08 0
3.825 -205.2 -175.9 -185.6 -508.1 -97.7 -322.4 97.7 87.93 58.62 58.62 175.9 -205.2 -244.3 -517.8 146.6 19.54 -625.3 -205.2 -58.62 0
3.83 -244.3 -293.1 -175.9 -459.2 -68.39 -293.1 156.3 29.31 -9.77 58.62 29.31 -283.3 127 -185.6 156.3 -39.08 -537.4 -146.6 -97.7 0
3.835 -244.3 -342 -156.3 -469 -97.7 -390.8 -29.31 -156.3 -39.08 -87.93 -185.6 -371.3 625.3 -127 -97.7 -175.9 -488.5 -205.2 -205.2 0
3.84 -214.9 -342 9.77 -361.5 -19.54 -342 19.54 -146.6 19.54 -58.62 -410.4 -234.5 78.16 -97.7 -9.77 -185.6 -224.7 -117.2 -175.9 0
3.845 -302.9 -293.1 -19.54 -322.4 -58.62 -342 -87.93 -263.8 -39.08 -185.6 -351.7 -214.9 214.9 -214.9 -107.5 -273.6 -263.8 -185.6 -293.1 0
3.85 -351.7 -214.9 -29.31 -166.1 -97.7 -146.6 -156.3 -195.4 -78.16 -87.93 -332.2 19.54 -39.08 -156.3 39.08 -166.1 -87.93 -97.7 -195.4 0
3.855 -390.8 48.85 -58.62 -58.62 -263.8 -97.7 -195.4 -175.9 -166.1 -29.31 -381 156.3 -400.6 146.6 -263.8 39.08 136.8 -117.2 -166.1 0
3.86 -351.7 -9.77 -29.31 -68.39 -342 -185.6 -244.3 -293.1 -283.3 -263.8 146.6 302.9 -351.7 78.16 -410.4 -97.7 166.1 -185.6 -205.2 0
3.865 -156.3 39.08 136.8 58.62 -263.8 -78.16 -293.1 -224.7 -244.3 -127 469 39.08 -254 39.08 -429.9 -58.62 263.8 -87.93 -254 0
3.87 -224.7 -48.85 136.8 68.39 -254 -58.62 -322.4 -234.5 -244.3 -205.2 342 156.3 -146.6 29.31 -390.8 -68.39 302.9 -68.39 -254 0
3.875 29.31 -19.54 332.2 195.4 19.54 156.3 -48.85 -39.08 -58.62 -78.16 517.8 19.54 107.5 19.54 -146.6 9.77 459.2 127 -29.31 0
3.88 -283.3 -185.6 146.6 -19.54 78.16 39.08 39.08 -107.5 0 -175.9 146.6 39.08 351.7 -29.31 -127 -97.7 381 166.1 58.62 0
3.885 -361.5 -185.6 78.16 -19.54 78.16 117.2 107.5 -39.08 48.85 -107.5 19.54 68.39 312.7 -713.2 29.31 -39.08 283.3 254 127 0
3.89 -830.5 -469 -351.7 -283.3 -156.3 -156.3 -58.62 -254 -97.7 -283.3 -283.3 -400.6 -9.77 -566.7 -97.7 -224.7 -146.6 -48.85 -136.8 0
3.895 -967.8 -596 -410.4 -146.6 -175.9 -107.5 -146.6 -195.4 -107.5 -263.8 -332.2 -68.39 107.5 -576.5 -68.39 -175.9 -146.6 -58.62 -195.4 0
3.9 -1124 -556.9 -655.1 -312.7 -429.9 -332.2 -410.4 -322.4 -244.3 -342 -693.7 -381 -527.6 -322.4 -107.5 -117.2 -332.2 -205.2 -381 0
3.905 -1006 -683.9 -537.4 -302.9 -429.9 -342 -517.8 -361.5 -263.8 -302.9 -429.9 -410.4 -586.2 -19.54 -234.5 -136.8 -205.2 -205.2 -381 0
3.91 -820.7 -566.7 -469 -224.7 -488.5 -312.7 -576.5 -322.4 -351.7 -322.4 -556.9 -254 -771.9 263.8 -273.6 -224.7 -146.6 -205.2 -449.4 0
3.915 -547.6 -400.6 -302.9 -175.9 -322.4 -332.2 -469 -302.9 -283.3 -263.8 -156.3 -244.3 -273.6 -68.39 -234.5 -156.3 78.16 -117.2 -342 0
3.92 -283.3 -420.1 -175.9 -87.93 -234.5 -322.4 -449.4 -351.7 -322.4 -361.5 -205.2 -175.9 -429.9 -273.6 -449.4 -293.1 136.8 -117.2 -322.4 0
3.925 -371.3 -342 -302.9 -146.6 -332.2 -351.7 -439.7 -342 -302.9 -322.4 -87.93 -410.4 136.8 -273.6 -351.7 -136.8 -39.08 -205.2 -400.6 0
3.93 -381 -439.7 -420.1 -293.1 -332.2 -390.8 -469 -429.9 -410.4 -390.8 -263.8 -400.6 39.08 -615.5 -478.7 -156.3 -322.4 -381 -429.9 0
3.935 -655.1 -566.7 -732.8 -371.3 -596 -410.4 -566.7 -410.4 -351.7 -371.3 -361.5 -488.5 -214.9 -898.9 -459.2 -205.2 -556.9 -508.1 -556.9 0
3.94 -791.4 -664.4 -879.8 -517.8 -771.9 -566.7 -605.8 -488.5 -371.3 -429.9 -527.6 -556.9 -469 -381 -488.5 -175.9 -713.2 -664.4 -625.3 0
3.945 -762.1 -752.3 -840.3 -556.9 -859.8 -625.3 -635.6 -517.8 -381 -420.1 -439.7 -508.1 -527.6 -605.8 -429.9 -185.6 -723 -801.2 -683.9 0
3.95 -810.9 -810.9 -928.2 -625.3 -1016 -703.5 -664.4 -566.7 -410.4 -410.4 -605.8 -605.8 -1064 -420.1 -459.2 -195.4 -762.1 -928.2 -801.2 0
3.955 -625.3 -547.6 -635.6 -439.7 -791.4 -517.8 -527.6 -429.9 -273.6 -312.7 -381 -302.9 -752.3 39.08 -302.9 -136.8 -547.6 -732.8 -655.1 0
3.96 -615.5 -566.7 -566.7 -439.7 -693.7 -508.1 -508.1 -390.8 -283.3 -254 -566.7 -293.1 -703.5 -117.2 -302.9 -19.54 -429.9 -625.3 -566.7 0
3.965 -625.3 -498.3 -400.6 -400.6 -547.6 -390.8 -459.2 -381 -283.3 -205.2 -97.7 -254 -322.4 -68.39 -361.5 -58.62 -293.1 -439.7 -508.1 0
3.97 -644.8 -527.6 -400.6 -351.7 -498.3 -410.4 -449.4 -527.6 -361.5 -263.8 -214.9 -429.9 254 -459.2 -381 -29.31 -332.2 -469 -556.9 0
3.975 -1006 -508.1 -498.3 -439.7 -556.9 -449.4 -566.7 -605.8 -498.3 -342 -39.08 -449.4 -332.2 -312.7 -488.5 -127 -566.7 -527.6 -655.1 0
3.98 -879.8 -810.9 -556.9 -537.4 -459.2 -547.6 -390.8 -703.5 -351.7 -332.2 -107.5 -947.7 97.7 -566.7 -293.1 -205.2 -635.6 -498.3 -566.7 0
3.985 -1036 -703.5 -674.6 -664.4 -488.5 -566.7 -410.4 -693.7 -312.7 -390.8 -400.6 -371.3 -117.2 -48.85 -371.3 -420.1 -781.6 -586.2 -596 0
3.99 -840.3 -752.3 -674.6 -664.4 -469 -644.8 -322.4 -615.5 -195.4 -273.6 -302.9 -605.8 -39.08 -957.5 -224.7 -214.9 -791.4 -625.3 -596 0
3.995 -762.1 -556.9 -596 -655.1 -459.2 -605.8 -254 -488.5 -127 -234.5 -283.3 -214.9 -332.2 -263.8 -156.3 -322.4 -703.5 -644.8 -527.6 0
4 -762.1 -527.6 -732.8 -674.6 -713.2 -615.5 -342 -469 -166.1 -283.3 -644.8 -19.54 -625.3 -527.6 -185.6 -254 -742.6 -674.6 -605.8 0
4.005 -537.4 -302.9 -351.7 -615.5 -547.6 -527.6 -254 -312.7 -205.2 -166.1 -351.7 -107.5 -322.4 -312.7 -117.2 -87.93 -439.7 -469 -469 0
4.01 -508.1 -224.7 -214.9 -508.1 -547.6 -410.4 -312.7 -254 -302.9 -185.6 -312.7 -342 -596 107.5 -185.6 -175.9 -283.3 -400.6 -459.2 0
4.015 -39.08 -9.77 381 -185.6 -9.77 -156.3 68.39 -68.39 -205.2 -117.2 -117.2 -195.4 508.1 58.62 48.85 -68.39 146.6 -9.77 -107.5 0
4.02 302.9 302.9 605.8 117.2 273.6 0 205.2 0 -58.62 -97.7 166.1 -97.7 381 9.77 48.85 -97.7 400.6 224.7 87.93 0
4.025 488.5 322.4 654.6 283.3 459.2 127 390.8 166.1 39.08 -39.08 420.1 -97.7 537.4 0 146.6 48.85 478.7 361.5 205.2 0
4.03 674.2 576.5 615.5 498.3 547.1 283.3 469 254 146.6 48.85 488.5 195.4 537.4 97.7 195.4 156.3 478.7 439.7 273.6 0
4.035 293.1 273.6 107.5 195.4 234.5 78.16 254 136.8 29.31 19.54 342 -107.5 244.3 -156.3 58.62 68.39 -9.77 107.5 -9.77 0
4.04 146.6 107.5 117.2 39.08 302.9 156.3 312.7 312.7 166.1 224.7 410.4 -156.3 488.5 195.4 195.4 351.7 -39.08 205.2 136.8 0
4.045 -39.08 107.5 -58.62 -117.2 195.4 87.93 254 273.6 136.8 185.6 166.1 -87.93 -87.93 39.08 312.7 312.7 -254 146.6 48.85 0
4.05 97.7 146.6 146.6 -107.5 371.3 166.1 361.5 351.7 156.3 254 234.5 -234.5 273.6 273.6 459.2 302.9 -127 195.4 97.7 0
4.055 322.4 381 371.3 68.39 517.8 224.7 508.1 322.4 224.7 234.5 312.7 -29.31 371.3 48.85 527.6 263.8 195.4 390.8 254 0
4.06 576.5 625.3 566.7 263.8 644.8 214.9 566.7 127 205.2 19.54 332.2 107.5 410.4 175.9 459.2 -48.85 469 429.9 214.9 0
4.065 547.1 654.6 527.6 400.6 596 293.1 547.1 78.16 156.3 -9.77 263.8 302.9 322.4 0 449.4 -107.5 469 410.4 214.9 0
4.07 605.8 527.6 449.4 293.1 537.4 146.6 429.9 -39.08 9.77 -117.2 351.7 136.8 488.5 -214.9 175.9 -224.7 312.7 263.8 107.5 0
4.075 576.5 478.7 390.8 205.2 449.4 146.6 439.7 -58.62 78.16 -136.8 117.2 127 283.3 214.9 361.5 -214.9 175.9 234.5 117.2 0
4.08 527.6 263.8 117.2 -9.77 205.2 -48.85 263.8 -146.6 58.62 -68.39 68.39 -9.77 615.5 -117.2 214.9 29.31 -78.16 97.7 68.39 0
4.085 508.1 214.9 68.39 -175.9 146.6 -78.16 322.4 -107.5 117.2 -97.7 9.77 -263.8 312.7 -205.2 322.4 -39.08 -127 136.8 -9.77 0
4.09 273.6 19.54 -263.8 -156.3 -107.5 -127 156.3 -78.16 29.31 -58.62 -166.1 -175.9 -214.9 -127 87.93 9.77 -224.7 -39.08 -68.39 0
4.095 283.3 0 -214.9 -195.4 -48.85 -146.6 224.7 -78.16 117.2 -9.77 97.7 -478.7 156.3 -97.7 146.6 39.08 -283.3 -97.7 -107.5 0
4.1 195.4 -97.7 -351.7 -263.8 -224.7 -263.8 97.7 -175.9 -39.08 -117.2 -117.2 -390.8 -156.3 -29.31 58.62 -48.85 -302.9 -224.7 -136.8 0
4.105 78.16 -78.16 -381 -263.8 -195.4 -254 58.62 -68.39 29.31 -48.85 -127 -293.1 254 156.3 136.8 29.31 -371.3 -302.9 -205.2 0
4.11 -39.08 -97.7 -488.5 -273.6 -342 -205.2 -68.39 -78.16 -9.77 -29.31 -273.6 48.85 87.93 -449.4 -156.3 -19.54 -390.8 -361.5 -244.3 0
4.115 -283.3 -19.54 -537.4 -107.5 -410.4 -146.6 -175.9 19.54 127 146.6 -713.2 332.2 -576.5 58.62 -39.08 117.2 -283.3 -361.5 -244.3 0
4.12 -185.6 146.6 -429.9 156.3 -332.2 0 -97.7 146.6 234.5 342 -664.4 498.3 -615.5 -48.85 -39.08 185.6 -29.31 -185.6 -156.3 0
4.125 127 381 -156.3 342 -127 166.1 48.85 205.2 283.3 410.4 -322.4 420.1 -234.5 322.4 9.77 244.3 263.8 19.54 -87.93 0
4.13 166.1 322.4 -175.9 312.7 -205.2 97.7 -68.39 136.8 58.62 332.2 -214.9 97.7 -547.6 351.7 48.85 175.9 136.8 -78.16 -195.4 0
4.135 478.7 351.7 -87.93 68.39 -146.6 -9.77 -68.39 -19.54 0 214.9 97.7 -166.1 205.2 127 -136.8 68.39 9.77 -214.9 -283.3 0
4.14 361.5 68.39 -175.9 -234.5 -117.2 -156.3 9.77 -195.4 -48.85 -29.31 175.9 -9.77 117.2 175.9 -19.54 -195.4 -195.4 -263.8 -312.7 0
4.145 410.4 -9.77 -127 -429.9 -29.31 -244.3 146.6 -224.7 156.3 29.31 146.6 -390.8 381 -39.08 224.7 -19.54 -263.8 -234.5 -224.7 0
4.15 361.5 -107.5 -58.62 -439.7 -9.77 -185.6 156.3 -146.6 117.2 -78.16 224.7 -390.8 390.8 117.2 244.3 -136.8 -156.3 -175.9 -166.1 0
4.155 478.7 -97.7 156.3 -224.7 263.8 -19.54 351.7 48.85 293.1 117.2 566.7 -420.1 615.5 -166.1 459.2 29.31 107.5 58.62 107.5 0
4.16 469 -97.7 175.9 -29.31 302.9 107.5 371.3 254 293.1 214.9 410.4 -224.7 957.5 9.77 381 244.3 293.1 136.8 214.9 0
4.165 254 -19.54 -48.85 -68.39 97.7 -39.08 107.5 156.3 48.85 117.2 693.7 -39.08 234.5 -78.16 146.6 136.8 97.7 -19.54 48.85 0
4.17 -39.08 -68.39 -205.2 -107.5 -68.39 -58.62 -29.31 205.2 -29.31 195.4 547.1 39.08 439.7 68.39 39.08 214.9 -107.5 -146.6 -9.77 0
4.175 -127 -117.2 -439.7 -332.2 -342 -244.3 -293.1 -48.85 -214.9 -19.54 351.7 58.62 273.6 -498.3 -97.7 -19.54 -390.8 -381 -263.8 0
4.18 -87.93 -254 -361.5 -390.8 -273.6 -342 -312.7 -117.2 -214.9 -29.31 429.9 -78.16 -390.8 -234.5 -78.16 -39.08 -371.3 -351.7 -136.8 0
4.185 -68.39 -488.5 -342 -459.2 -263.8 -361.5 -342 -185.6 -273.6 -58.62 195.4 -214.9 -322.4 -655.1 -107.5 -97.7 -332.2 -293.1 -127 0
4.19 -107.5 -273.6 -312.7 -302.9 -185.6 -214.9 -293.1 -29.31 -244.3 48.85 -273.6 0 -332.2 -97.7 -371.3 -48.85 -195.4 -185.6 -19.54 0
4.195 39.08 -205.2 -146.6 -195.4 9.77 -166.1 -107.5 -9.77 -87.93 87.93 -117.2 48.85 -459.2 -107.5 -254 -19.54 0 -29.31 146.6 0
4.2 -39.08 -136.8 -263.8 -146.6 -48.85 -195.4 -117.2 -68.39 -97.7 0 -293.1 -361.5 -195.4 29.31 -351.7 -117.2 -19.54 0 156.3 0
4.205 273.6 78.16 -9.77 9.77 224.7 9.77 117.2 29.31 -9.77 -29.31 48.85 -166.1 48.85 283.3 -146.6 -78.16 117.2 185.6 302.9 0
4.21 87.93 39.08 -78.16 68.39 254 136.8 127 39.08 -107.5 -19.54 19.54 -78.16 156.3 244.3 -107.5 -9.77 -9.77 136.8 224.7 0
4.215 -39.08 -136.8 -136.8 -127 136.8 48.85 -48.85 -39.08 -244.3 -97.7 -19.54 58.62 19.54 322.4 -234.5 -19.54 -146.6 9.77 78.16 0
4.22 -224.7 -156.3 -136.8 -214.9 107.5 39.08 -107.5 -58.62 -244.3 -58.62 -58.62 439.7 244.3 185.6 -156.3 39.08 -136.8 -29.31 0 0
4.225 -381 -332.2 -234.5 -332.2 -136.8 -185.6 -381 -214.9 -322.4 -87.93 -332.2 322.4 58.62 107.5 -390.8 9.77 -244.3 -205.2 -234.5 0
4.23 -293.1 -234.5 -293.1 -361.5 -254 -351.7 -459.2 -283.3 -322.4 -78.16 -234.5 97.7 19.54 -644.8 -361.5 -78.16 -224.7 -371.3 -293.1 0
4.235 -205.2 -371.3 -234.5 -283.3 -205.2 -478.7 -410.4 -390.8 -254 -136.8 -312.7 -58.62 -87.93 -185.6 -410.4 -166.1 -283.3 -400.6 -371.3 0
4.24 -244.3 -342 -439.7 -371.3 -322.4 -625.3 -400.6 -508.1 -175.9 -234.5 -508.1 -195.4 -947.7 -586.2 -381 -244.3 -449.4 -517.8 -410.4 0
4.245 -459.2 -537.4 -498.3 -498.3 -332.2 -596 -410.4 -586.2 -224.7 -429.9 -185.6 -68.39 -586.2 29.31 -371.3 -556.9 -605.8 -556.9 -508.1 0
4.25 -713.2 -615.5 -693.7 -644.8 -498.3 -625.3 -449.4 -615.5 -273.6 -390.8 -508.1 -127 -1201 -293.1 -469 -351.7 -762.1 -664.4 -576.5 0
4.255 -869.6 -713.2 -674.6 -625.3 -547.6 -449.4 -449.4 -537.4 -342 -371.3 -586.2 87.93 -752.3 0 -371.3 -332.2 -762.1 -556.9 -556.9 0
4.26 -830.5 -713.2 -517.8 -713.2 -469 -439.7 -390.8 -576.5 -322.4 -371.3 -547.6 -185.6 -400.6 -655.1 -449.4 -224.7 -576.5 -478.7 -537.4 0
4.265 -655.1 -459.2 -420.1 -410.4 -293.1 -205.2 -371.3 -371.3 -293.1 -293.1 -488.5 -117.2 -9.77 -78.16 -459.2 -29.31 -410.4 -302.9 -469 0
4.27 -596 -302.9 -332.2 -361.5 -273.6 -185.6 -342 -332.2 -254 -234.5 -420.1 -302.9 -342 -136.8 -400.6 -87.93 -273.6 -254 -459.2 0
4.275 -596 -302.9 -185.6 -195.4 9.77 -48.85 -224.7 -175.9 -117.2 -205.2 127 -87.93 127 342 -361.5 -39.08 -136.8 -78.16 -293.1 0
4.28 -420.1 -127 -78.16 -156.3 39.08 -9.77 -195.4 -29.31 0 -68.39 19.54 29.31 39.08 293.1 -244.3 68.39 -68.39 78.16 -117.2 0
4.285 -312.7 -293.1 78.16 -195.4 234.5 58.62 -19.54 48.85 97.7 -39.08 68.39 39.08 -107.5 136.8 -29.31 9.77 -48.85 87.93 39.08 0
4.29 -381 -185.6 29.31 -156.3 48.85 156.3 -175.9 117.2 -19.54 29.31 -136.8 146.6 -390.8 -508.1 -214.9 9.77 -97.7 78.16 19.54 0
4.295 -127 -175.9 87.93 -205.2 87.93 68.39 -117.2 58.62 0 9.77 -390.8 87.93 -78.16 -527.6 -68.39 -68.39 -39.08 -39.08 58.62 0
4.3 -146.6 -254 29.31 -214.9 -107.5 29.31 -263.8 -68.39 -78.16 -78.16 -214.9 -107.5 -439.7 -469 -97.7 -214.9 0 -127 19.54 0
4.305 0 -224.7 29.31 -224.7 -146.6 -175.9 -244.3 -195.4 -68.39 -87.93 -234.5 -9.77 87.93 -273.6 -107.5 -273.6 -29.31 -263.8 -97.7 0
4.31 234.5 -29.31 185.6 -39.08 0 -175.9 -156.3 -175.9 -19.54 0 273.6 -117.2 273.6 127 87.93 -205.2 97.7 -244.3 -87.93 0
4.315 302.9 -29.31 205.2 68.39 107.5 -185.6 -87.93 -117.2 78.16 0 78.16 48.85 342 322.4 156.3 -214.9 87.93 -205.2 -68.39 0
4.32 283.3 -58.62 185.6 127 127 -48.85 29.31 -29.31 107.5 19.54 0 224.7 400.6 244.3 322.4 -234.5 117.2 -117.2 39.08 0
4.325 390.8 9.77 224.7 224.7 263.8 146.6 205.2 175.9 302.9 166.1 -19.54 390.8 29.31 185.6 351.7 -117.2 254 87.93 322.4 0
4.33 205.2 -87.93 9.77 156.3 0 107.5 68.39 166.1 156.3 97.7 -478.7 312.7 -547.6 78.16 302.9 -127 117.2 78.16 293.1 0
4.335 556.9 244.3 214.9 400.6 175.9 390.8 214.9 371.3 224.7 254 -283.3 332.2 -185.6 -439.7 254 68.39 342 283.3 488.5 0
4.34 459.2 312.7 146.6 293.1 78.16 156.3 48.85 185.6 58.62 58.62 -381 273.6 -361.5 9.77 68.39 -107.5 351.7 234.5 390.8 0
4.345 556.9 322.4 293.1 371.3 254 166.1 166.1 127 19.54 19.54 -166.1 293.1 381 19.54 68.39 -78.16 312.7 166.1 332.2 0
4.35 469 254 175.9 361.5 293.1 146.6 166.1 107.5 19.54 68.39 146.6 224.7 429.9 312.7 175.9 -19.54 293.1 156.3 234.5 0
4.355 302.9 244.3 146.6 361.5 283.3 97.7 244.3 107.5 39.08 58.62 156.3 469 293.1 596 107.5 -19.54 244.3 136.8 185.6 0
4.36 87.93 68.39 -29.31 244.3 244.3 58.62 214.9 107.5 29.31 146.6 146.6 205.2 283.3 -19.54 175.9 156.3 224.7 205.2 224.7 0
4.365 224.7 156.3 9.77 400.6 214.9 273.6 224.7 273.6 87.93 283.3 -107.5 117.2 -469 224.7 127 205.2 342 351.7 312.7 0
4.37 410.4 469 205.2 537.4 469 469 342 439.7 107.5 381 312.7 214.9 9.77 87.93 283.3 283.3 517.8 527.6 439.7 0
4.375 459.2 381 322.4 537.4 488.5 576.5 302.9 556.9 146.6 420.1 263.8 -29.31 29.31 322.4 263.8 332.2 586.2 547.1 439.7 0
4.38 566.7 664.4 478.7 517.8 674.2 625.3 390.8 605.8 244.3 459.2 410.4 498.3 127 420.1 429.9 361.5 703.5 703.5 537.4 0
4.385 410.4 293.1 381 332.2 566.7 400.6 254 381 195.4 234.5 117.2 244.3 664.4 156.3 205.2 195.4 508.1 420.1 283.3 0
4.39 449.4 713.2 390.8 635.1 556.9 488.5 332.2 517.8 351.7 381 175.9 439.7 449.4 410.4 420.1 342 615.5 449.4 332.2 0
4.395 429.9 644.8 224.7 596 390.8 361.5 293.1 420.1 342 332.2 175.9 332.2 693.7 127 381 351.7 478.7 293.1 175.9 0
4.4 342 664.4 -29.31 683.9 166.1 273.6 185.6 332.2 273.6 254 -146.6 244.3 29.31 293.1 322.4 302.9 351.7 156.3 127 0
4.405 273.6 410.4 -58.62 400.6 68.39 78.16 156.3 224.7 254 273.6 78.16 -29.31 244.3 420.1 351.7 224.7 127 9.77 48.85 0
4.41 185.6 97.7 -156.3 195.4 -117.2 -87.93 -29.31 68.39 127 97.7 -283.3 -117.2 -547.6 596 185.6 -29.31 -68.39 -156.3 -48.85 0
4.415 68.39 -205.2 -58.62 78.16 -156.3 -166.1 -9.77 -39.08 39.08 78.16 -244.3 -136.8 -517.8 146.6 166.1 58.62 -48.85 -166.1 -29.31 0
4.42 -68.39 -78.16 -9.77 68.39 -107.5 -136.8 19.54 -19.54 -19.54 0 -371.3 39.08 -498.3 273.6 146.6 -58.62 29.31 -58.62 29.31 0
4.425 97.7 0 127 254 87.93 -39.08 87.93 -9.77 87.93 19.54 -234.5 19.54 -449.4 -68.39 234.5 0 224.7 78.16 156.3 0
4.43 -78.16 185.6 -48.85 361.5 87.93 48.85 48.85 19.54 -48.85 9.77 -175.9 -68.39 224.7 -29.31 19.54 58.62 97.7 68.39 107.5 0
4.435 -19.54 146.6 -9.77 293.1 205.2 58.62 117.2 -29.31 87.93 -39.08 -78.16 -302.9 68.39 -605.8 107.5 -87.93 48.85 87.93 127 0
4.44 -97.7 29.31 -117.2 205.2 156.3 29.31 19.54 -136.8 48.85 -156.3 68.39 -283.3 254 -146.6 87.93 -166.1 -29.31 39.08 68.39 0
4.445 -39.08 -185.6 -156.3 78.16 97.7 29.31 -39.08 -205.2 0 -146.6 -166.1 -19.54 0 -342 78.16 -127 -127 -78.16 39.08 0
4.45 -146.6 -19.54 -136.8 19.54 9.77 -39.08 -146.6 -214.9 -68.39 -127 -29.31 -97.7 -312.7 -390.8 78.16 -107.5 -146.6 -117.2 -9.77 0
4.455 -166.1 -195.4 -263.8 -117.2 -175.9 -58.62 -283.3 -195.4 -136.8 -127 -136.8 214.9 -459.2 97.7 -78.16 -87.93 -195.4 -156.3 -39.08 0
4.46 -156.3 -127 -87.93 -78.16 -78.16 -29.31 -127 -127 -19.54 -58.62 -127 -78.16 -478.7 29.31 19.54 -29.31 -19.54 -9.77 87.93 0
4.465 -39.08 29.31 117.2 117.2 9.77 156.3 -48.85 9.77 -29.31 -19.54 -117.2 185.6 -244.3 449.4 -127 0 195.4 185.6 195.4 0
4.47 19.54 -58.62 254 107.5 136.8 68.39 78.16 -29.31 -48.85 -9.77 -68.39 -146.6 556.9 136.8 -29.31 -9.77 263.8 166.1 175.9 0
4.475 332.2 381 488.5 420.1 351.7 302.9 254 166.1 117.2 87.93 87.93 97.7 -39.08 224.7 87.93 48.85 420.1 400.6 342 0
4.48 283.3 234.5 420.1 166.1 381 146.6 254 9.77 156.3 48.85 48.85 -78.16 283.3 -68.39 127 -68.39 293.1 361.5 312.7 0
4.485 195.4 107.5 205.2 -117.2 166.1 -9.77 58.62 -136.8 58.62 -97.7 146.6 -332.2 -254 -429.9 117.2 -224.7 19.54 166.1 146.6 0
4.49 -166.1 19.54 -48.85 -234.5 -9.77 -78.16 -117.2 -146.6 -9.77 -136.8 -185.6 -127 68.39 -625.3 -9.77 -312.7 -175.9 -9.77 -39.08 0
4.495 -283.3 -78.16 -175.9 -517.8 -224.7 -283.3 -263.8 -283.3 -156.3 -273.6 -342 -254 -322.4 -586.2 -68.39 -449.4 -302.9 -175.9 -195.4 0
4.5 -234.5 -39.08 -78.16 -488.5 -107.5 -342 -205.2 -254 -68.39 -214.9 -283.3 -234.5 293.1 -469 9.77 -449.4 -195.4 -78.16 -175.9 0
4.505 -107.5 -58.62 9.77 -449.4 -146.6 -381 -293.1 -332.2 -29.31 -127 -351.7 -342 -732.8 -185.6 97.7 -273.6 -205.2 -107.5 -244.3 0
4.51 263.8 -68.39 175.9 -273.6 68.39 -302.9 -136.8 -156.3 -48.85 -29.31 97.7 -410.4 87.93 -107.5 78.16 -68.39 -136.8 29.31 -166.1 0
4.515 332.2 -156.3 166.1 -166.1 87.93 -254 -156.3 -87.93 78.16 117.2 283.3 -429.9 -214.9 -273.6 283.3 107.5 -185.6 29.31 -78.16 0
4.52 312.7 -185.6 107.5 -263.8 29.31 -381 -224.7 -185.6 39.08 48.85 302.9 -508.1 234.5 -644.8 146.6 156.3 -263.8 19.54 -58.62 0
4.525 117.2 -117.2 -58.62 -293.1 -48.85 -312.7 -263.8 -68.39 29.31 97.7 263.8 -429.9 498.3 -371.3 58.62 146.6 -429.9 -48.85 -68.39 0
4.53 -302.9 -263.8 -439.7 -537.4 -332.2 -390.8 -439.7 -146.6 -58.62 -48.85 -224.7 -635.6 -136.8 -537.4 -78.16 19.54 -703.5 -205.2 -234.5 0
4.535 -469 -195.4 -596 -547.6 -420.1 -263.8 -342 -78.16 -78.16 -19.54 -351.7 -342 -263.8 -87.93 -9.77 -19.54 -723 -224.7 -156.3 0
4.54 -566.7 -371.3 -762.1 -664.4 -478.7 -224.7 -312.7 -78.16 -97.7 -9.77 -576.5 -439.7 -214.9 -781.6 -127 48.85 -781.6 -195.4 -175.9 0
4.545 -429.9 -205.2 -596 -498.3 -439.7 -68.39 -244.3 39.08 -146.6 39.08 -390.8 -263.8 -703.5 -107.5 -29.31 39.08 -615.5 -68.39 -58.62 0
4.55 -127 -214.9 -420.1 -381 -302.9 107.5 -156.3 146.6 -68.39 195.4 -381 -19.54 -254 -302.9 -87.93 156.3 -508.1 -9.77 29.31 0
4.555 -29.31 -214.9 -244.3 -293.1 -254 87.93 -205.2 166.1 -39.08 195.4 -175.9 -166.1 -205.2 9.77 -48.85 136.8 -410.4 0 -9.77 0
4.56 322.4 -293.1 0 -224.7 -136.8 58.62 -117.2 127 39.08 136.8 117.2 -136.8 -390.8 -185.6 -29.31 58.62 -263.8 29.31 39.08 0
4.565 342 -127 68.39 -87.93 -136.8 87.93 -87.93 166.1 87.93 146.6 -58.62 -48.85 136.8 400.6 19.54 68.39 -127 -39.08 29.31 0
4.57 517.8 78.16 214.9 -68.39 -127 29.31 29.31 107.5 146.6 78.16 351.7 68.39 254 68.39 107.5 29.31 -9.77 -97.7 -97.7 0
4.575 429.9 283.3 224.7 87.93 -107.5 136.8 175.9 127 214.9 58.62 185.6 185.6 107.5 322.4 273.6 48.85 146.6 -19.54 -39.08 0
4.58 273.6 400.6 136.8 136.8 -185.6 146.6 117.2 9.77 127 -48.85 -214.9 342 224.7 195.4 -9.77 48.85 127 -68.39 -87.93 0
4.585 351.7 508.1 224.7 254 0 224.7 263.8 48.85 136.8 -9.77 117.2 107.5 166.1 117.2 263.8 58.62 185.6 87.93 -9.77 0
4.59 400.6 517.8 381 381 146.6 371.3 322.4 117.2 136.8 39.08 -58.62 302.9 312.7 -185.6 107.5 97.7 254 224.7 127 0
4.595 654.6 703.5 508.1 488.5 293.1 469 381 214.9 185.6 19.54 78.16 166.1 185.6 244.3 68.39 0 469 410.4 283.3 0
4.6 830.5 723 742.6 488.5 478.7 478.7 478.7 263.8 302.9 146.6 469 146.6 -68.39 -19.54 234.5 175.9 762.1 635.1 429.9 0
4.605 938 713.2 889.1 537.4 664.4 576.5 547.1 371.3 381 146.6 459.2 469 87.93 547.1 244.3 156.3 986.8 791.4 527.6 0
4.61 664.4 576.5 732.8 449.4 547.1 410.4 459.2 293.1 361.5 205.2 508.1 48.85 68.39 234.5 166.1 283.3 869.6 683.9 429.9 0
4.615 615.5 400.6 742.6 537.4 576.5 439.7 469 273.6 439.7 244.3 332.2 117.2 332.2 0 273.6 234.5 840.3 644.8 410.4 0
4.62 322.4 400.6 605.8 390.8 547.1 381 449.4 214.9 420.1 195.4 351.7 78.16 566.7 -127 361.5 185.6 644.8 596 371.3 0
4.625 136.8 244.3 439.7 429.9 439.7 410.4 400.6 254 400.6 205.2 293.1 9.77 527.6 0 351.7 214.9 517.8 517.8 371.3 0
4.63 -48.85 117.2 312.7 244.3 332.2 400.6 312.7 175.9 234.5 136.8 -48.85 -48.85 605.8 87.93 371.3 224.7 263.8 410.4 263.8 0
4.635 -263.8 -29.31 68.39 195.4 322.4 390.8 244.3 205.2 146.6 87.93 136.8 136.8 371.3 263.8 136.8 263.8 146.6 371.3 244.3 0
4.64 -244.3 -117.2 19.54 166.1 234.5 469 234.5 254 48.85 39.08 -19.54 146.6 117.2 -39.08 68.39 263.8 185.6 459.2 234.5 0
4.645 -283.3 -107.5 -78.16 224.7 9.77 361.5 39.08 175.9 -19.54 39.08 0 488.5 -87.93 234.5 -87.93 263.8 107.5 293.1 87.93 0
4.65 -293.1 -68.39 -175.9 224.7 -214.9 293.1 -136.8 127 -136.8 -29.31 48.85 488.5 -381 107.5 -175.9 234.5 9.77 107.5 -58.62 0
4.655 -166.1 -39.08 -117.2 273.6 -273.6 175.9 -214.9 117.2 -58.62 -9.77 87.93 322.4 -371.3 459.2 -146.6 175.9 -68.39 -97.7 -156.3 0
4.66 -205.2 -87.93 -117.2 146.6 -302.9 29.31 -214.9 48.85 -39.08 9.77 -58.62 273.6 -39.08 517.8 -214.9 97.7 -156.3 -156.3 -136.8 0
4.665 -107.5 -254 -68.39 107.5 -263.8 9.77 -166.1 29.31 0 -9.77 -166.1 97.7 -39.08 449.4 -214.9 48.85 -175.9 -185.6 -146.6 0
4.67 -156.3 -107.5 -127 97.7 -205.2 -39.08 -127 -39.08 -29.31 -58.62 48.85 127 -87.93 78.16 -166.1 -48.85 -214.9 -195.4 -224.7 0
4.675 -195.4 -156.3 -146.6 68.39 -205.2 -136.8 -87.93 -156.3 -39.08 -127 -175.9 19.54 127 -332.2 -234.5 -107.5 -195.4 -234.5 -244.3 0
4.68 -224.7 -136.8 -224.7 -68.39 -146.6 -322.4 -29.31 -332.2 -107.5 -361.5 -244.3 214.9 537.4 166.1 -146.6 -322.4 -312.7 -302.9 -312.7 0
4.685 -254 -87.93 -195.4 -205.2 -146.6 -537.4 -87.93 -469 -185.6 -361.5 136.8 -117.2 87.93 -469 -205.2 -283.3 -400.6 -439.7 -410.4 0
4.69 -342 -224.7 -283.3 -195.4 -156.3 -527.6 -117.2 -439.7 -146.6 -420.1 0 -205.2 -166.1 87.93 -107.5 -322.4 -498.3 -488.5 -449.4 0
4.695 -410.4 -312.7 -205.2 -136.8 -127 -459.2 -87.93 -390.8 -107.5 -322.4 -19.54 -19.54 -332.2 136.8 -9.77 -205.2 -390.8 -371.3 -371.3 0
4.7 -429.9 -283.3 -205.2 -117.2 -136.8 -410.4 -195.4 -410.4 -205.2 -351.7 136.8 -107.5 -488.5 -713.2 -68.39 -146.6 -361.5 -302.9 -390.8 0
4.705 -381 -273.6 -205.2 -68.39 -156.3 -273.6 -146.6 -293.1 -136.8 -244.3 -97.7 146.6 -254 -19.54 -68.39 -58.62 -254 -156.3 -312.7 0
4.71 -332.2 -234.5 -332.2 -97.7 -205.2 -175.9 -224.7 -254 -224.7 -214.9 -117.2 293.1 -68.39 -381 -205.2 -19.54 -381 -195.4 -322.4 0
4.715 -97.7 58.62 -146.6 -146.6 -58.62 -78.16 -97.7 -127 -146.6 -127 19.54 185.6 -29.31 -87.93 -205.2 -9.77 -332.2 -136.8 -214.9 0
4.72 -136.8 -78.16 -175.9 -214.9 -78.16 -146.6 -127 -87.93 -107.5 -97.7 -19.54 19.54 -9.77 39.08 -302.9 39.08 -400.6 -127 -156.3 0
4.725 29.31 0 78.16 -117.2 205.2 9.77 156.3 97.7 87.93 117.2 166.1 -107.5 312.7 146.6 -234.5 136.8 -195.4 87.93 87.93 0
4.73 -156.3 -293.1 -68.39 -224.7 117.2 -39.08 87.93 19.54 0 68.39 87.93 -547.6 439.7 -214.9 -244.3 68.39 -361.5 -29.31 0 0
4.735 -205.2 -244.3 -136.8 -127 58.62 29.31 117.2 117.2 58.62 68.39 -48.85 -449.4 371.3 175.9 -68.39 29.31 -342 -58.62 29.31 0
4.74 -214.9 -459.2 -205.2 -185.6 -19.54 -48.85 136.8 68.39 127 117.2 -175.9 -566.7 -68.39 -107.5 -39.08 39.08 -390.8 -68.39 9.77 0
4.745 -156.3 -254 -224.7 0 -39.08 58.62 117.2 97.7 78.16 117.2 -214.9 -48.85 -224.7 195.4 136.8 -19.54 -390.8 -87.93 -29.31 0
4.75 -381 -361.5 -390.8 -195.4 -322.4 -107.5 -68.39 -58.62 -87.93 19.54 -420.1 -29.31 -381 -703.5 -39.08 -87.93 -498.3 -293.1 -146.6 0
4.755 -175.9 -273.6 -205.2 -39.08 -156.3 -9.77 -48.85 39.08 -87.93 107.5 -9.77 97.7 -371.3 -293.1 -19.54 -78.16 -371.3 -185.6 -97.7 0
4.76 -361.5 -469 -371.3 -214.9 -283.3 -234.5 -214.9 -87.93 -273.6 -58.62 -322.4 185.6 -273.6 -342 -224.7 -254 -537.4 -312.7 -224.7 0
4.765 -254 -508.1 -254 -312.7 -185.6 -283.3 -224.7 0 -166.1 39.08 39.08 -185.6 -175.9 -146.6 -175.9 -136.8 -469 -263.8 -205.2 0
4.77 -302.9 -498.3 -332.2 -449.4 -273.6 -459.2 -312.7 -19.54 -175.9 58.62 -39.08 -273.6 -195.4 29.31 -312.7 -78.16 -556.9 -410.4 -293.1 0
4.775 -254 -400.6 -361.5 -576.5 -214.9 -556.9 -263.8 -48.85 -156.3 -48.85 -117.2 -322.4 205.2 146.6 -254 -127 -547.6 -517.8 -322.4 0
4.78 -254 -273.6 -371.3 -586.2 -244.3 -586.2 -312.7 -48.85 -68.39 117.2 78.16 -537.4 68.39 -302.9 -254 97.7 -498.3 -449.4 -273.6 0
4.785 -302.9 -283.3 -459.2 -566.7 -371.3 -703.5 -420.1 -185.6 -293.1 -156.3 -244.3 -420.1 -29.31 -351.7 -439.7 -146.6 -537.4 -596 -429.9 0
4.79 -273.6 -254 -381 -371.3 -459.2 -596 -527.6 -332.2 -332.2 -166.1 -439.7 -517.8 -48.85 -488.5 -478.7 -224.7 -410.4 -566.7 -478.7 0
4.795 -48.85 -97.7 -195.4 -156.3 -429.9 -400.6 -556.9 -312.7 -361.5 -214.9 -449.4 -254 -752.3 -381 -508.1 -234.5 -195.4 -469 -478.7 0
4.8 293.1 146.6 58.62 136.8 -205.2 -97.7 -371.3 -127 -273.6 -127 9.77 127 -293.1 -332.2 -361.5 -175.9 195.4 -136.8 -214.9 0
4.805 400.6 214.9 107.5 361.5 -224.7 97.7 -293.1 -58.62 -263.8 -127 -58.62 97.7 -410.4 -146.6 -156.3 -97.7 263.8 -58.62 -107.5 0
4.81 635.1 361.5 371.3 508.1 97.7 351.7 97.7 175.9 -214.9 39.08 635.1 214.9 -205.2 -39.08 0 -29.31 488.5 214.9 175.9 0
4.815 644.8 332.2 371.3 596 185.6 429.9 205.2 361.5 -78.16 146.6 576.5 68.39 224.7 -146.6 87.93 156.3 556.9 351.7 312.7 0
4.82 732.8 469 615.5 498.3 449.4 420.1 488.5 332.2 58.62 97.7 576.5 195.4 283.3 244.3 127 117.2 713.2 488.5 449.4 0
4.825 586.2 302.9 615.5 459.2 459.2 381 429.9 342 117.2 127 488.5 263.8 537.4 273.6 107.5 185.6 742.6 478.7 420.1 0
4.83 596 312.7 605.8 449.4 439.7 410.4 351.7 283.3 107.5 195.4 224.7 429.9 234.5 283.3 48.85 283.3 635.1 312.7 283.3 0
4.835 127 214.9 312.7 410.4 214.9 361.5 29.31 185.6 -78.16 -68.39 39.08 723 195.4 0 127 78.16 381 234.5 97.7 0
4.84 136.8 283.3 244.3 429.9 156.3 293.1 -9.77 185.6 19.54 39.08 263.8 429.9 107.5 -478.7 205.2 127 283.3 185.6 68.39 0
4.845 166.1 576.5 283.3 644.8 273.6 547.1 136.8 390.8 263.8 332.2 254 957.5 254 615.5 302.9 234.5 420.1 332.2 234.5 0
4.85 -175.9 283.3 -87.93 400.6 -48.85 283.3 -68.39 156.3 185.6 351.7 0 420.1 78.16 -156.3 322.4 351.7 58.62 0 0 0
4.855 -263.8 87.93 -127 361.5 -107.5 224.7 -107.5 68.39 156.3 312.7 -214.9 371.3 -469 527.6 58.62 175.9 9.77 19.54 -19.54 0
4.86 -302.9 -146.6 -146.6 166.1 -224.7 68.39 -166.1 -97.7 87.93 166.1 -87.93 175.9 19.54 302.9 -48.85 224.7 -19.54 -29.31 -78.16 0
4.865 -205.2 -136.8 -156.3 48.85 -342 58.62 -322.4 -205.2 19.54 127 -68.39 -117.2 -732.8 -234.5 -195.4 117.2 -58.62 -87.93 -166.1 0
4.87 -19.54 -254 48.85 68.39 -205.2 156.3 -146.6 -97.7 127 107.5 156.3 -68.39 29.31 -293.1 -78.16 175.9 0 -39.08 -107.5 0
4.875 117.2 -107.5 -29.31 -146.6 -166.1 78.16 -107.5 -97.7 234.5 156.3 234.5 -332.2 19.54 -293.1 9.77 205.2 -146.6 -29.31 -58.62 0
4.88 156.3 -156.3 19.54 -205.2 -19.54 48.85 127 9.77 478.7 214.9 263.8 -127 469 -918.4 322.4 263.8 -195.4 39.08 117.2 0
4.885 -48.85 -283.3 -146.6 -449.4 -58.62 -195.4 78.16 -68.39 361.5 146.6 547.1 -312.7 263.8 -371.3 205.2 175.9 -439.7 -58.62 97.7 0
4.89 -19.54 -205.2 -87.93 -420.1 39.08 -117.2 205.2 97.7 351.7 244.3 644.8 -58.62 214.9 -361.5 283.3 283.3 -429.9 0 224.7 0
4.895 -19.54 -371.3 -78.16 -459.2 -9.77 -107.5 214.9 87.93 332.2 117.2 508.1 -39.08 156.3 -68.39 332.2 117.2 -400.6 9.77 205.2 0
4.9 48.85 -381 -97.7 -390.8 -78.16 -97.7 97.7 78.16 97.7 68.39 205.2 39.08 -185.6 127 205.2 29.31 -351.7 -19.54 136.8 0
4.905 9.77 -371.3 -166.1 -381 -195.4 -127 -68.39 -9.77 -39.08 -107.5 117.2 -146.6 -166.1 214.9 68.39 -78.16 -361.5 -78.16 -39.08 0
4.91 -156.3 -429.9 -322.4 -302.9 -342 -136.8 -205.2 -87.93 -136.8 -107.5 -156.3 -254 -469 -127 39.08 0 -371.3 -205.2 -195.4 0
4.915 -361.5 -586.2 -429.9 -351.7 -586.2 -390.8 -400.6 -400.6 -263.8 -342 -517.8 -302.9 -19.54 -332.2 -302.9 -214.9 -556.9 -517.8 -449.4 0
4.92 -342 -381 -293.1 -244.3 -556.9 -273.6 -469 -400.6 -312.7 -439.7 -508.1 9.77 -117.2 469 -429.9 -732.8 -351.7 -429.9 -459.2 0
4.925 -293.1 -469 -254 -273.6 -556.9 -517.8 -410.4 -625.3 -273.6 -381 -615.5 -195.4 127 -674.6 -283.3 -39.08 -381 -576.5 -556.9 0
4.93 -117.2 -156.3 -175.9 -195.4 -556.9 -449.4 -469 -586.2 -488.5 -498.3 -302.9 -39.08 195.4 68.39 -302.9 -683.9 -351.7 -664.4 -644.8 0
4.935 39.08 -78.16 -9.77 -185.6 -371.3 -439.7 -322.4 -566.7 -273.6 -322.4 68.39 -273.6 9.77 -635.6 -156.3 -185.6 -175.9 -488.5 -508.1 0
4.94 78.16 19.54 39.08 -136.8 -302.9 -371.3 -214.9 -478.7 -234.5 -244.3 234.5 -381 19.54 -576.5 -39.08 -58.62 -117.2 -429.9 -410.4 0
4.945 -39.08 -117.2 -166.1 -224.7 -410.4 -390.8 -351.7 -547.6 -214.9 -263.8 -9.77 -361.5 -449.4 -635.6 -175.9 -87.93 -302.9 -527.6 -508.1 0
4.95 -429.9 -283.3 -371.3 -429.9 -576.5 -400.6 -488.5 -586.2 -361.5 -322.4 -400.6 -263.8 -400.6 -420.1 -351.7 -156.3 -488.5 -605.8 -596 0
4.955 -625.3 -469 -527.6 -488.5 -723 -449.4 -644.8 -596 -508.1 -381 -586.2 -263.8 -859.8 -332.2 -498.3 -214.9 -635.6 -703.5 -732.8 0
4.96 -938 -605.8 -644.8 -556.9 -850 -517.8 -781.6 -635.6 -625.3 -390.8 -752.3 -195.4 -498.3 -390.8 -586.2 -214.9 -605.8 -762.1 -752.3 0
4.965 -987.3 -576.5 -683.9 -605.8 -898.9 -556.9 -840.3 -664.4 -801.2 -469 -732.8 -254 -478.7 -29.31 -655.1 -429.9 -625.3 -810.9 -820.7 0
4.97 -771.9 -732.8 -498.3 -469 -742.6 -478.7 -762.1 -459.2 -625.3 -263.8 -683.9 -517.8 -556.9 -293.1 -566.7 -205.2 -469 -674.6 -655.1 0
4.975 -908.6 -840.3 -625.3 -644.8 -840.3 -625.3 -762.1 -537.4 -664.4 -342 -742.6 -810.9 -977.5 -224.7 -488.5 -361.5 -625.3 -674.6 -655.1 0
4.98 -781.6 -918.4 -556.9 -732.8 -615.5 -556.9 -556.9 -390.8 -449.4 -214.9 -625.3 -1055 -39.08 -693.7 -469 -166.1 -556.9 -537.4 -459.2 0
4.985 -625.3 -693.7 -469 -566.7 -410.4 -302.9 -371.3 -107.5 -205.2 19.54 -273.6 -830.5 -781.6 -478.7 -390.8 78.16 -420.1 -244.3 -166.1 0
4.99 -644.8 -723 -537.4 -596 -390.8 -293.1 -263.8 -97.7 -175.9 48.85 -342 -625.3 -244.3 -869.6 -322.4 39.08 -478.7 -254 -136.8 0
4.995 -429.9 -488.5 -420.1 -371.3 -136.8 -78.16 -29.31 156.3 9.77 205.2 -244.3 -234.5 -117.2 -390.8 -68.39 185.6 -293.1 -29.31 107.5 0
5 -615.5 -732.8 -517.8 -488.5 -254 -214.9 -156.3 -39.08 -127 29.31 -224.7 -136.8 -175.9 -449.4 -9.77 58.62 -410.4 -205.2 -39.08 0
5.005 -596 -537.4 -390.8 -429.9 -175.9 -224.7 -166.1 -48.85 -127 58.62 -185.6 -19.54 -87.93 -107.5 9.77 68.39 -322.4 -195.4 -68.39 0
5.01 -674.6 -625.3 -478.7 -449.4 -302.9 -322.4 -302.9 -146.6 -312.7 -58.62 -97.7 -332.2 -117.2 -58.62 -205.2 0 -429.9 -351.7 -214.9 0
5.015 -429.9 -273.6 -214.9 -205.2 -214.9 -166.1 -390.8 -29.31 -293.1 -234.5 195.4 -293.1 -166.1 420.1 -205.2 -214.9 -146.6 -214.9 -263.8 0
5.02 -214.9 -127 -205.2 -117.2 -361.5 -234.5 -547.6 -205.2 -371.3 -146.6 -175.9 -469 -674.6 -136.8 -420.1 -48.85 -68.39 -263.8 -342 0
5.025 -117.2 -127 -87.93 0 -312.7 -205.2 -478.7 -195.4 -293.1 -234.5 -117.2 -537.4 -293.1 -29.31 -390.8 -166.1 19.54 -263.8 -351.7 0
5.03 -205.2 -78.16 -195.4 48.85 -469 -273.6 -664.4 -371.3 -400.6 -107.5 -596 -508.1 -508.1 -928.2 -459.2 -87.93 -68.39 -371.3 -478.7 0
5.035 -166.1 -48.85 -166.1 97.7 -283.3 -234.5 -459.2 -342 -234.5 -68.39 -234.5 -361.5 312.7 -517.8 -390.8 -29.31 -29.31 -361.5 -410.4 0
5.04 -166.1 48.85 -39.08 214.9 -146.6 -195.4 -254 -283.3 -146.6 -19.54 -234.5 -195.4 -78.16 -342 -254 9.77 78.16 -224.7 -234.5 0
5.045 166.1 234.5 312.7 381 156.3 0 -9.77 -117.2 68.39 146.6 488.5 -19.54 283.3 39.08 -58.62 68.39 293.1 19.54 -87.93 0
5.05 107.5 166.1 342 439.7 166.1 -29.31 78.16 -78.16 87.93 107.5 400.6 58.62 175.9 410.4 78.16 58.62 224.7 -48.85 -78.16 0
5.055 342 342 556.9 498.3 361.5 87.93 342 39.08 263.8 244.3 820.7 -68.39 254 322.4 449.4 185.6 351.7 156.3 39.08 0
5.06 117.2 107.5 224.7 273.6 117.2 19.54 224.7 -9.77 117.2 87.93 97.7 -156.3 -136.8 342 283.3 19.54 19.54 0 -78.16 0
5.065 -175.9 97.7 -87.93 205.2 -29.31 78.16 78.16 78.16 58.62 146.6 -205.2 -136.8 -322.4 351.7 205.2 136.8 -127 -48.85 -117.2 0
5.07 -254 136.8 -185.6 224.7 9.77 166.1 136.8 166.1 29.31 195.4 -263.8 -58.62 -322.4 498.3 166.1 214.9 -136.8 39.08 -97.7 0
5.075 -420.1 -29.31 -224.7 156.3 -19.54 146.6 39.08 48.85 -58.62 -9.77 -508.1 -146.6 58.62 439.7 48.85 -58.62 -97.7 19.54 -136.8 0
5.08 -273.6 19.54 -29.31 254 107.5 175.9 117.2 78.16 -9.77 39.08 -429.9 175.9 -156.3 273.6 0 -29.31 127 166.1 -39.08 0
5.085 -361.5 117.2 97.7 273.6 107.5 175.9 127 -39.08 -78.16 -78.16 -175.9 97.7 273.6 -214.9 -78.16 -175.9 263.8 107.5 -48.85 0
5.09 -293.1 136.8 107.5 224.7 -29.31 -39.08 -78.16 -136.8 -214.9 -107.5 -478.7 -127 175.9 -312.7 -273.6 -175.9 283.3 -19.54 -205.2 0
5.095 -214.9 127 224.7 195.4 19.54 -78.16 0 -234.5 -78.16 -78.16 -87.93 -263.8 -478.7 -488.5 -146.6 -146.6 351.7 0 -97.7 0
5.1 -136.8 293.1 400.6 312.7 224.7 39.08 127 -68.39 78.16 -29.31 263.8 -381 166.1 146.6 19.54 -146.6 615.5 254 127 0
5.105 -263.8 146.6 273.6 381 224.7 146.6 205.2 39.08 214.9 156.3 48.85 -58.62 -371.3 293.1 78.16 58.62 605.8 283.3 214.9 0
5.11 -107.5 244.3 234.5 439.7 254 185.6 185.6 9.77 117.2 87.93 214.9 48.85 -195.4 371.3 136.8 78.16 576.5 302.9 127 0
5.115 -97.7 381 234.5 517.8 214.9 273.6 185.6 127 68.39 195.4 195.4 224.7 175.9 488.5 68.39 185.6 566.7 342 156.3 0
5.12 -273.6 146.6 117.2 312.7 29.31 19.54 -29.31 -87.93 -107.5 0 -107.5 185.6 -234.5 234.5 -87.93 19.54 400.6 117.2 -29.31 0
5.125 -19.54 283.3 234.5 234.5 9.77 -78.16 -39.08 -156.3 -244.3 -58.62 0 39.08 -68.39 156.3 -48.85 -136.8 351.7 58.62 -127 0
5.13 -156.3 107.5 244.3 136.8 -29.31 -97.7 -97.7 -156.3 -166.1 0 68.39 -400.6 -234.5 -234.5 -175.9 -146.6 273.6 19.54 -78.16 0
5.135 -156.3 19.54 156.3 -58.62 -9.77 -234.5 -127 -175.9 -175.9 -29.31 29.31 -576.5 -136.8 -136.8 -136.8 -175.9 127 -68.39 -127 0
5.14 -283.3 -146.6 -9.77 -185.6 -175.9 -205.2 -205.2 -214.9 -185.6 -9.77 -48.85 -732.8 -351.7 -586.2 -312.7 -97.7 -9.77 -127 -156.3 0
5.145 -302.9 -342 -48.85 -195.4 -68.39 -127 -185.6 -68.39 -68.39 156.3 -195.4 -527.6 -283.3 -400.6 -254 166.1 -68.39 -48.85 -58.62 0
5.15 -488.5 -449.4 -195.4 -293.1 -146.6 -87.93 -185.6 -117.2 -136.8 107.5 -234.5 -234.5 -78.16 -195.4 -390.8 19.54 -166.1 -78.16 -146.6 0
5.155 -371.3 -390.8 -78.16 -166.1 -48.85 -48.85 -68.39 -146.6 39.08 127 -175.9 -214.9 195.4 48.85 -58.62 97.7 -48.85 19.54 9.77 0
5.16 -517.8 -273.6 0 -205.2 0 -117.2 48.85 -156.3 107.5 -39.08 58.62 175.9 195.4 175.9 -19.54 -48.85 -29.31 0 39.08 0
5.165 -312.7 -107.5 136.8 -87.93 166.1 -117.2 166.1 -234.5 166.1 87.93 -136.8 0 263.8 -68.39 234.5 -87.93 -19.54 87.93 9.77 0
5.17 -517.8 48.85 146.6 -68.39 97.7 -127 146.6 -185.6 19.54 -68.39 97.7 156.3 175.9 39.08 156.3 -127 -87.93 9.77 0 0
5.175 -371.3 -97.7 214.9 -87.93 214.9 -127 214.9 -214.9 68.39 -19.54 87.93 9.77 234.5 117.2 342 -205.2 -9.77 58.62 -9.77 0
5.18 -381 -146.6 127 -224.7 19.54 -283.3 58.62 -283.3 -58.62 -107.5 97.7 87.93 -39.08 68.39 136.8 -283.3 -136.8 -107.5 -58.62 0
5.185 -498.3 -224.7 -29.31 -136.8 -146.6 -214.9 -127 -185.6 -166.1 -58.62 244.3 0 -322.4 146.6 127 -244.3 -156.3 -175.9 -136.8 0
5.19 -293.1 58.62 78.16 -97.7 -117.2 -136.8 -185.6 -175.9 -97.7 -87.93 302.9 29.31 68.39 -478.7 -58.62 -312.7 -58.62 -185.6 -117.2 0
5.195 -117.2 224.7 -9.77 68.39 -156.3 -68.39 -175.9 -87.93 -68.39 -9.77 293.1 224.7 97.7 -97.7 -29.31 -214.9 68.39 -97.7 -39.08 0
5.2 205.2 547.1 322.4 302.9 156.3 156.3 68.39 19.54 58.62 0 732.8 244.3 410.4 48.85 107.5 -371.3 410.4 136.8 117.2 0
5.205 166.1 449.4 263.8 283.3 136.8 117.2 107.5 58.62 146.6 117.2 537.4 175.9 449.4 -39.08 127 -78.16 351.7 185.6 107.5 0
5.21 146.6 488.5 332.2 381 224.7 214.9 107.5 136.8 39.08 107.5 547.1 332.2 293.1 400.6 39.08 -97.7 351.7 195.4 117.2 0
5.215 -87.93 78.16 254 127 205.2 39.08 127 107.5 136.8 214.9 175.9 107.5 -9.77 19.54 39.08 107.5 254 175.9 166.1 0
5.22 -234.5 -205.2 9.77 -146.6 19.54 -156.3 -9.77 -58.62 19.54 29.31 -175.9 -97.7 19.54 -175.9 -127 9.77 0 0 39.08 0
5.225 -312.7 -351.7 -48.85 -195.4 -68.39 -214.9 -117.2 -117.2 -117.2 19.54 -9.77 -127 -175.9 -342 -146.6 -136.8 -166.1 -29.31 -19.54 0
5.23 -156.3 -400.6 29.31 -185.6 9.77 -205.2 -107.5 -127 -107.5 -39.08 214.9 -29.31 -78.16 19.54 -166.1 -244.3 -205.2 -87.93 -97.7 0
5.235 -127 -234.5 68.39 -166.1 39.08 -234.5 -117.2 -205.2 -146.6 -107.5 273.6 39.08 -332.2 -166.1 -97.7 -312.7 -117.2 -78.16 -97.7 0
5.24 -185.6 -117.2 58.62 -195.4 -9.77 -332.2 -214.9 -302.9 -234.5 -234.5 97.7 87.93 68.39 -78.16 -156.3 -342 -107.5 -117.2 -195.4 0
5.245 -283.3 -342 -127 -332.2 -146.6 -400.6 -205.2 -322.4 -283.3 -214.9 -107.5 -127 78.16 -732.8 -78.16 -351.7 -283.3 -205.2 -234.5 0
5.25 -566.7 -459.2 -351.7 -410.4 -312.7 -420.1 -322.4 -254 -273.6 -127 -312.7 29.31 -48.85 -498.3 -254 -244.3 -576.5 -381 -302.9 0
5.255 -625.3 -655.1 -537.4 -478.7 -429.9 -439.7 -263.8 -205.2 -224.7 -97.7 -195.4 -97.7 19.54 -605.8 -254 -224.7 -723 -439.7 -273.6 0
5.26 -908.6 -810.9 -655.1 -459.2 -576.5 -517.8 -390.8 -185.6 -263.8 -107.5 -224.7 19.54 -224.7 29.31 -361.5 -185.6 -918.4 -547.6 -312.7 0
5.265 -840.3 -840.3 -781.6 -547.6 -713.2 -625.3 -547.6 -351.7 -312.7 -136.8 -39.08 -195.4 -214.9 283.3 -556.9 -371.3 -1045 -791.4 -488.5 0
5.27 -810.9 -732.8 -762.1 -566.7 -713.2 -635.6 -586.2 -371.3 -351.7 -117.2 117.2 -166.1 -615.5 97.7 -439.7 -293.1 -1025 -850 -547.6 0
5.275 -889.1 -781.6 -840.3 -693.7 -840.3 -693.7 -605.8 -361.5 -302.9 -117.2 -175.9 -254 -517.8 107.5 -469 -342 -1045 -908.6 -586.2 0
5.28 -635.6 -850 -655.1 -723 -683.9 -566.7 -478.7 -273.6 -195.4 -9.77 136.8 -244.3 -488.5 9.77 -410.4 -175.9 -869.6 -732.8 -429.9 0
5.285 -605.8 -625.3 -625.3 -615.5 -693.7 -449.4 -527.6 -156.3 -195.4 48.85 -195.4 -185.6 -400.6 -127 -449.4 -39.08 -762.1 -596 -390.8 0
5.29 -136.8 -615.5 -293.1 -332.2 -371.3 -234.5 -263.8 48.85 -127 107.5 107.5 -166.1 97.7 -9.77 -302.9 19.54 -459.2 -381 -214.9 0
5.295 87.93 -449.4 -234.5 -322.4 -400.6 -273.6 -293.1 -9.77 -244.3 39.08 -127 -351.7 29.31 -361.5 -381 -97.7 -332.2 -371.3 -263.8 0
5.3 117.2 -283.3 -97.7 -185.6 -283.3 -224.7 -293.1 -29.31 -224.7 -87.93 -244.3 -78.16 -19.54 -185.6 -361.5 -127 -156.3 -312.7 -224.7 0
5.305 -107.5 -429.9 -283.3 -351.7 -498.3 -439.7 -420.1 -214.9 -342 -185.6 -283.3 -312.7 48.85 -586.2 -478.7 -224.7 -361.5 -527.6 -420.1 0
5.31 -97.7 -117.2 -97.7 -166.1 -322.4 -234.5 -283.3 -175.9 -273.6 -136.8 -146.6 -107.5 -146.6 -322.4 -342 -156.3 -107.5 -371.3 -371.3 0
5.315 -97.7 -29.31 -117.2 -117.2 -342 -263.8 -302.9 -195.4 -224.7 -175.9 -195.4 9.77 -302.9 -244.3 -244.3 -127 -97.7 -351.7 -400.6 0
5.32 48.85 156.3 -68.39 78.16 -254 -107.5 -205.2 -156.3 -185.6 -146.6 -58.62 68.39 -644.8 78.16 -136.8 -87.93 19.54 -175.9 -332.2 0
5.325 449.4 263.8 -78.16 29.31 -146.6 -29.31 -87.93 -97.7 -87.93 -68.39 -166.1 -78.16 -68.39 97.7 -117.2 48.85 78.16 -58.62 -234.5 0
5.33 185.6 146.6 -283.3 -48.85 -302.9 19.54 -205.2 -127 -146.6 -146.6 -556.9 39.08 -556.9 146.6 -146.6 -68.39 -136.8 -146.6 -244.3 0
5.335 185.6 68.39 -117.2 -254 -48.85 29.31 -39.08 -97.7 -78.16 -205.2 -302.9 48.85 0 537.4 -78.16 -234.5 -195.4 -48.85 -146.6 0
5.34 -9.77 9.77 -48.85 -361.5 58.62 39.08 97.7 -68.39 -58.62 -117.2 -87.93 136.8 244.3 205.2 -9.77 -97.7 -136.8 107.5 -58.62 0
5.345 19.54 205.2 185.6 -263.8 205.2 156.3 214.9 9.77 48.85 -58.62 146.6 302.9 97.7 283.3 146.6 -224.7 -39.08 214.9 78.16 0
5.35 302.9 283.3 342 -136.8 400.6 244.3 332.2 58.62 97.7 0 596 19.54 488.5 -517.8 185.6 -48.85 136.8 381 224.7 0
5.355 400.6 254 293.1 48.85 449.4 312.7 400.6 185.6 166.1 58.62 488.5 39.08 361.5 -234.5 175.9 97.7 254 439.7 293.1 0
5.36 625.3 302.9 371.3 195.4 459.2 361.5 420.1 214.9 146.6 48.85 420.1 -87.93 166.1 -400.6 254 156.3 332.2 488.5 361.5 0
