    T[sec] Fp1 Fp2 F3  F4  C3  C4  P3  P4  O1  O2  F7  F8  T3  T4  T5  T6  Fz  Cz  Pz  A2 
30 1000 1000 1000 1000 1000 1000 1000 1000 1000 1000 1000 1000 1000 1000 1000 1000 1000 1000 1000 1000
0.625 -850 -752.3 -615.5 -781.6 -693.7 -840.3 -342 -332.2 -488.5 -478.7 -410.4 -703.5 -302.9 -547.6 146.6 -68.39 -801.2 -752.3 -830.5 -263.8
0.63 -596 -810.9 -586.2 -1064 -478.7 -781.6 -68.39 -175.9 -214.9 -400.6 -351.7 -703.5 -87.93 -459.2 175.9 -19.54 -801.2 -742.6 -400.6 -68.39
0.635 -400.6 -742.6 -449.4 -898.9 -283.3 -381 97.7 78.16 -97.7 -107.5 -97.7 -683.9 68.39 -224.7 166.1 156.3 -605.8 -439.7 -146.6 -117.2
0.64 -185.6 -713.2 -390.8 -713.2 -185.6 -87.93 224.7 332.2 107.5 117.2 -224.7 -488.5 97.7 -127 136.8 293.1 -459.2 -302.9 117.2 -146.6
0.645 -224.7 -302.9 -322.4 -732.8 -156.3 166.1 224.7 439.7 78.16 107.5 -107.5 -478.7 97.7 -214.9 -19.54 263.8 -293.1 -127 244.3 -136.8
0.65 -234.5 -214.9 -156.3 -517.8 -185.6 488.5 263.8 693.7 175.9 469 -166.1 -254 39.08 -156.3 39.08 429.9 -146.6 68.39 459.2 -205.2
0.655 -400.6 58.62 -322.4 -605.8 -361.5 498.3 166.1 693.7 107.5 410.4 -244.3 -351.7 -78.16 -302.9 -29.31 381 -185.6 175.9 390.8 -322.4
0.66 -244.3 234.5 -58.62 -478.7 -332.2 576.5 214.9 752.3 97.7 361.5 -58.62 -351.7 -39.08 -205.2 87.93 351.7 -68.39 254 429.9 -254
0.665 9.77 166.1 -29.31 -508.1 -254 527.6 205.2 644.8 195.4 390.8 107.5 -322.4 -29.31 -224.7 273.6 381 87.93 293.1 371.3 -166.1
0.67 185.6 283.3 107.5 -537.4 -156.3 244.3 107.5 449.4 117.2 302.9 224.7 -361.5 -19.54 -244.3 371.3 302.9 156.3 361.5 361.5 -97.7
0.675 214.9 273.6 68.39 -449.4 -214.9 146.6 -19.54 234.5 205.2 205.2 342 -312.7 -205.2 -312.7 390.8 234.5 146.6 283.3 185.6 -19.54
0.68 156.3 371.3 234.5 -273.6 -263.8 117.2 -156.3 78.16 87.93 224.7 361.5 -214.9 -263.8 -293.1 283.3 342 146.6 381 -9.77 -175.9
0.685 244.3 293.1 166.1 -312.7 -234.5 58.62 -156.3 -78.16 175.9 273.6 342 -205.2 -498.3 -273.6 322.4 390.8 127 312.7 -68.39 -78.16
0.69 205.2 205.2 195.4 -205.2 -283.3 -58.62 -156.3 -254 48.85 97.7 332.2 -244.3 -459.2 -254 146.6 381 127 273.6 -302.9 -136.8
0.695 371.3 -78.16 195.4 -244.3 -146.6 -156.3 -127 -254 127 136.8 117.2 -302.9 -469 -234.5 127 459.2 9.77 185.6 -342 -156.3
0.7 537.4 -127 302.9 -146.6 68.39 -175.9 78.16 -293.1 283.3 205.2 332.2 -214.9 -166.1 -234.5 146.6 478.7 97.7 58.62 -156.3 48.85
0.705 400.6 -254 332.2 -195.4 214.9 -234.5 214.9 -214.9 351.7 234.5 254 -185.6 -127 -312.7 205.2 390.8 78.16 68.39 -97.7 97.7
0.71 605.8 107.5 390.8 -127 332.2 -48.85 361.5 -48.85 410.4 390.8 429.9 -68.39 -39.08 -283.3 293.1 302.9 9.77 205.2 39.08 -39.08
0.715 19.54 146.6 302.9 -244.3 322.4 -127 469 29.31 400.6 410.4 381 -117.2 0 -390.8 283.3 195.4 -87.93 185.6 205.2 -29.31
0.72 195.4 439.7 224.7 -244.3 439.7 107.5 596 273.6 449.4 596 410.4 19.54 39.08 -322.4 254 78.16 -68.39 244.3 429.9 -9.77
0.725 -58.62 322.4 146.6 -283.3 351.7 -48.85 576.5 332.2 390.8 566.7 312.7 -29.31 48.85 -332.2 97.7 195.4 -166.1 254 596 -48.85
0.73 58.62 136.8 254 -58.62 566.7 9.77 791.4 547.1 576.5 762.1 439.7 19.54 342 -195.4 283.3 390.8 -58.62 371.3 918.4 -29.31
0.735 371.3 -19.54 429.9 -185.6 732.8 0 947.7 527.6 713.2 683.9 625.3 -19.54 635.1 -273.6 469 429.9 185.6 449.4 1221 195.4
0.74 654.6 185.6 683.9 78.16 1026 195.4 1172 644.8 1036 1026 859.8 58.62 928.2 -146.6 850 635.1 429.9 586.2 1495 273.6
0.745 918.4 127 898.9 224.7 1124 185.6 1231 615.5 1055 840.3 1045 78.16 1212 -136.8 1016 381 674.2 605.8 1632 459.2
0.75 1055 175.9 977 214.9 1251 283.3 1192 615.5 1114 859.8 1036 205.2 1299 -29.31 1036 420.1 742.6 713.2 1602 469
0.755 908.6 322.4 850 254 967.3 322.4 771.9 478.7 713.2 566.7 850 351.7 1006 -19.54 703.5 234.5 605.8 713.2 1231 224.7
0.76 967.3 166.1 938 254 1006 312.7 537.4 293.1 576.5 273.6 898.9 381 898.9 -68.39 635.1 78.16 674.2 635.1 967.3 361.5
0.765 596 302.9 752.3 283.3 732.8 361.5 78.16 0 78.16 -58.62 840.3 498.3 615.5 -185.6 420.1 -107.5 508.1 547.1 498.3 175.9
0.77 615.5 302.9 791.4 214.9 683.9 342 -127 -342 -97.7 -244.3 908.6 449.4 615.5 -254 429.9 -185.6 566.7 478.7 283.3 205.2
0.775 527.6 156.3 566.7 254 459.2 107.5 -332.2 -566.7 -322.4 -312.7 840.3 429.9 381 -332.2 273.6 -351.7 400.6 371.3 127 78.16
0.78 508.1 136.8 478.7 234.5 371.3 87.93 -439.7 -693.7 -400.6 -322.4 840.3 342 469 -361.5 302.9 -361.5 312.7 205.2 -39.08 68.39
0.785 390.8 -19.54 400.6 136.8 254 -58.62 -439.7 -781.6 -381 -244.3 752.3 351.7 351.7 -400.6 283.3 -439.7 195.4 68.39 -97.7 39.08
0.79 556.9 97.7 469 185.6 273.6 -19.54 -439.7 -713.2 -312.7 -273.6 781.6 429.9 429.9 -410.4 459.2 -556.9 244.3 68.39 -185.6 9.77
0.795 351.7 48.85 254 68.39 205.2 -117.2 -420.1 -693.7 -390.8 -351.7 644.8 195.4 332.2 -566.7 508.1 -596 195.4 0 -283.3 -29.31
0.8 322.4 156.3 195.4 87.93 185.6 19.54 -332.2 -556.9 -371.3 -381 683.9 429.9 439.7 -517.8 605.8 -625.3 205.2 -39.08 -322.4 9.77
0.805 381 254 127 136.8 205.2 87.93 -195.4 -312.7 -351.7 -234.5 644.8 342 342 -478.7 644.8 -615.5 195.4 -58.62 -263.8 9.77
0.81 439.7 185.6 175.9 87.93 312.7 175.9 78.16 -78.16 -87.93 -29.31 723 332.2 478.7 -381 723 -420.1 283.3 -29.31 29.31 175.9
0.815 312.7 -9.77 254 117.2 371.3 195.4 234.5 39.08 68.39 97.7 664.4 410.4 478.7 -322.4 664.4 -312.7 195.4 0 234.5 156.3
0.82 293.1 -127 166.1 234.5 390.8 400.6 351.7 293.1 156.3 400.6 547.1 381 312.7 -78.16 625.3 0 68.39 117.2 449.4 58.62
0.825 136.8 -166.1 68.39 244.3 410.4 322.4 410.4 361.5 39.08 273.6 371.3 429.9 254 -9.77 371.3 68.39 9.77 166.1 586.2 29.31
0.83 107.5 136.8 39.08 351.7 400.6 527.6 410.4 625.3 9.77 429.9 224.7 508.1 146.6 283.3 273.6 293.1 29.31 439.7 703.5 -185.6
0.835 146.6 234.5 29.31 273.6 429.9 527.6 517.8 644.8 -29.31 429.9 214.9 469 87.93 273.6 136.8 234.5 78.16 517.8 810.9 -136.8
0.84 400.6 195.4 166.1 283.3 508.1 469 537.4 547.1 -19.54 283.3 156.3 410.4 175.9 283.3 166.1 185.6 312.7 459.2 957.5 48.85
0.845 273.6 273.6 322.4 175.9 517.8 517.8 547.1 449.4 78.16 156.3 361.5 381 214.9 312.7 117.2 97.7 371.3 469 898.9 185.6
0.85 342 127 420.1 361.5 469 547.1 459.2 185.6 29.31 58.62 263.8 429.9 273.6 244.3 205.2 -19.54 420.1 429.9 762.1 254
0.855 273.6 -9.77 371.3 459.2 293.1 508.1 185.6 136.8 -48.85 9.77 293.1 527.6 312.7 263.8 68.39 -48.85 312.7 527.6 498.3 58.62
0.86 185.6 371.3 429.9 625.3 205.2 537.4 48.85 166.1 -48.85 117.2 254 644.8 449.4 302.9 87.93 -29.31 371.3 537.4 312.7 -68.39
0.865 390.8 263.8 459.2 664.4 195.4 439.7 -68.39 195.4 -127 117.2 312.7 723 527.6 322.4 -87.93 -19.54 449.4 556.9 322.4 -39.08
0.87 566.7 596 400.6 820.7 205.2 537.4 -87.93 342 -156.3 146.6 371.3 879.3 527.6 439.7 -214.9 97.7 596 635.1 342 -58.62
0.875 576.5 556.9 508.1 742.6 224.7 439.7 -185.6 322.4 -381 -39.08 390.8 742.6 381 400.6 -439.7 29.31 644.8 596 185.6 -97.7
0.88 508.1 674.2 332.2 654.6 156.3 371.3 -136.8 312.7 -410.4 -39.08 293.1 801.2 234.5 361.5 -566.7 127 488.5 449.4 97.7 -58.62
0.885 449.4 429.9 322.4 537.4 234.5 351.7 -87.93 214.9 -410.4 -29.31 185.6 644.8 224.7 244.3 -625.3 68.39 429.9 400.6 29.31 0
0.89 342 723 185.6 351.7 205.2 234.5 -58.62 185.6 -410.4 58.62 -9.77 664.4 127 224.7 -498.3 224.7 195.4 322.4 -175.9 -127
0.895 146.6 302.9 283.3 244.3 322.4 107.5 127 19.54 -156.3 127 -87.93 517.8 166.1 146.6 -371.3 195.4 224.7 293.1 -48.85 -29.31
0.9 136.8 166.1 78.16 214.9 302.9 -9.77 127 -68.39 -68.39 156.3 -107.5 439.7 0 205.2 -214.9 195.4 166.1 146.6 -156.3 -39.08
0.905 68.39 -97.7 224.7 175.9 302.9 -156.3 244.3 -39.08 97.7 273.6 -244.3 244.3 -87.93 136.8 -156.3 234.5 244.3 156.3 -39.08 9.77
0.91 -29.31 -166.1 -68.39 254 224.7 -68.39 224.7 68.39 127 342 -312.7 381 -342 107.5 -127 234.5 205.2 254 -78.16 -263.8
0.915 19.54 -29.31 0 -58.62 175.9 -175.9 371.3 -39.08 263.8 146.6 -508.1 293.1 -390.8 -9.77 -224.7 195.4 214.9 146.6 146.6 -58.62
0.92 68.39 117.2 39.08 0 185.6 -58.62 459.2 97.7 390.8 263.8 -459.2 390.8 -429.9 19.54 -214.9 127 205.2 166.1 332.2 -68.39
0.925 0 107.5 0 19.54 146.6 -39.08 527.6 58.62 488.5 234.5 -537.4 381 -332.2 29.31 -312.7 29.31 175.9 146.6 498.3 19.54
0.93 39.08 -68.39 127 9.77 244.3 -97.7 644.8 29.31 664.4 195.4 -439.7 302.9 -390.8 -58.62 -185.6 -97.7 234.5 107.5 654.6 146.6
0.935 146.6 -263.8 58.62 68.39 185.6 -117.2 547.1 117.2 527.6 185.6 -400.6 263.8 -312.7 -87.93 -273.6 -87.93 175.9 205.2 635.1 87.93
0.94 29.31 -342 87.93 39.08 273.6 -156.3 517.8 58.62 420.1 58.62 -351.7 263.8 -332.2 -136.8 -185.6 -127 214.9 87.93 576.5 273.6
0.945 -9.77 -488.5 97.7 -146.6 166.1 -254 302.9 -9.77 205.2 -9.77 -517.8 254 -332.2 -224.7 -293.1 -48.85 156.3 78.16 400.6 205.2
0.95 -107.5 -185.6 0 -117.2 97.7 -224.7 97.7 -107.5 -19.54 -78.16 -429.9 361.5 -273.6 -244.3 -371.3 68.39 -58.62 87.93 107.5 19.54
0.955 -175.9 -273.6 -9.77 -302.9 58.62 -429.9 29.31 -342 -39.08 -254 -420.1 302.9 -224.7 -342 -469 68.39 -107.5 -127 -9.77 166.1
0.96 -293.1 -342 -205.2 -322.4 -166.1 -439.7 -234.5 -400.6 -166.1 -332.2 -420.1 322.4 -390.8 -283.3 -469 107.5 -302.9 -214.9 -342 -9.77
0.965 -635.6 -527.6 -381 -429.9 -293.1 -635.6 -263.8 -644.8 -254 -508.1 -742.6 136.8 -547.6 -342 -566.7 68.39 -469 -488.5 -527.6 78.16
0.97 -801.2 -791.4 -576.5 -429.9 -263.8 -508.1 -283.3 -605.8 -166.1 -410.4 -683.9 156.3 -635.6 -136.8 -459.2 117.2 -596 -547.6 -605.8 39.08
0.975 -332.2 -605.8 -449.4 -400.6 -420.1 -556.9 -527.6 -859.8 -508.1 -469 -635.6 -29.31 -664.4 -273.6 -693.7 19.54 -635.6 -655.1 -957.5 -117.2
0.98 -655.1 -566.7 -635.6 -390.8 -449.4 -449.4 -635.6 -869.6 -498.3 -214.9 -674.6 -166.1 -586.2 -214.9 -655.1 39.08 -791.4 -713.2 -1064 -234.5
0.985 107.5 -332.2 -556.9 -400.6 -596 -644.8 -898.9 -1064 -762.1 -508.1 -332.2 -322.4 -488.5 -488.5 -898.9 -146.6 -693.7 -898.9 -1339 -214.9
0.99 58.62 19.54 -596 -410.4 -683.9 -664.4 -850 -967.8 -683.9 -508.1 -283.3 -342 -439.7 -371.3 -889.1 -107.5 -655.1 -879.8 -1329 -254
0.995 0 -39.08 -732.8 -478.7 -605.8 -791.4 -742.6 -987.3 -625.3 -615.5 -439.7 -498.3 -683.9 -459.2 -781.6 -254 -615.5 -947.7 -1299 -293.1
1 -175.9 97.7 -635.6 -469 -586.2 -889.1 -508.1 -1055 -429.9 -742.6 -420.1 -655.1 -683.9 -381 -693.7 -322.4 -576.5 -977.5 -1124 -117.2
1.005 -48.85 68.39 -449.4 -185.6 -381 -762.1 -224.7 -830.5 -136.8 -429.9 -449.4 -723 -859.8 -302.9 -547.6 -263.8 -469 -742.6 -869.6 -195.4
1.01 -58.62 -97.7 -361.5 -48.85 -136.8 -781.6 48.85 -703.5 68.39 -293.1 -322.4 -732.8 -664.4 -205.2 -351.7 -224.7 -400.6 -508.1 -625.3 -283.3
1.015 -58.62 -58.62 -214.9 -19.54 9.77 -615.5 234.5 -488.5 195.4 -254 -332.2 -732.8 -586.2 -136.8 -390.8 -195.4 -234.5 -195.4 -263.8 -302.9
1.02 166.1 -107.5 48.85 -68.39 302.9 -498.3 488.5 -322.4 381 -234.5 -205.2 -586.2 -332.2 -117.2 -214.9 -156.3 9.77 -127 87.93 -97.7
1.025 244.3 478.7 175.9 -29.31 439.7 -117.2 625.3 -185.6 371.3 -224.7 -195.4 -517.8 -244.3 -48.85 -263.8 -127 224.7 68.39 371.3 -58.62
1.03 342 439.7 283.3 127 556.9 185.6 644.8 -48.85 312.7 -293.1 -254 -185.6 -195.4 -48.85 -146.6 -58.62 527.6 293.1 527.6 58.62
1.035 820.7 723 791.4 39.08 625.3 166.1 693.7 -156.3 224.7 -87.93 97.7 439.7 556.9 19.54 127 -420.1 674.2 537.4 517.8 185.6
1.04 742.6 429.9 771.9 68.39 537.4 234.5 566.7 -273.6 185.6 29.31 107.5 410.4 596 78.16 263.8 -156.3 683.9 537.4 400.6 214.9
1.045 762.1 400.6 771.9 175.9 478.7 234.5 420.1 -459.2 175.9 205.2 244.3 390.8 508.1 117.2 273.6 -244.3 586.2 410.4 312.7 273.6
1.05 498.3 195.4 654.6 244.3 244.3 273.6 234.5 -371.3 244.3 478.7 127 205.2 400.6 146.6 254 9.77 537.4 312.7 185.6 263.8
1.055 449.4 156.3 566.7 9.77 78.16 -9.77 107.5 -488.5 214.9 517.8 78.16 136.8 400.6 68.39 293.1 48.85 429.9 136.8 78.16 254
1.06 429.9 -166.1 498.3 -156.3 -87.93 -185.6 -117.2 -508.1 234.5 508.1 107.5 19.54 390.8 -78.16 273.6 146.6 351.7 -87.93 -58.62 293.1
1.065 508.1 -9.77 420.1 -400.6 -185.6 -351.7 -302.9 -615.5 9.77 263.8 9.77 -87.93 400.6 -254 97.7 29.31 322.4 -185.6 -205.2 361.5
1.07 596 87.93 517.8 -361.5 -68.39 -361.5 -234.5 -625.3 -39.08 127 166.1 -234.5 517.8 -244.3 0 29.31 410.4 -166.1 -156.3 381
1.075 508.1 136.8 478.7 -263.8 -39.08 -127 -234.5 -537.4 -175.9 0 127 -283.3 498.3 -234.5 -78.16 -9.77 478.7 9.77 -117.2 293.1
1.08 713.2 302.9 693.7 -185.6 39.08 9.77 -146.6 -537.4 -234.5 -185.6 214.9 -332.2 517.8 -58.62 -156.3 -97.7 654.6 0 107.5 439.7
1.085 644.8 293.1 576.5 156.3 78.16 293.1 -58.62 -254 -361.5 -136.8 205.2 -156.3 605.8 166.1 -68.39 48.85 762.1 175.9 283.3 322.4
1.09 957.5 195.4 791.4 263.8 439.7 488.5 283.3 -97.7 -214.9 -175.9 390.8 -39.08 732.8 332.2 146.6 78.16 1036 263.8 635.1 498.3
1.095 1075 302.9 791.4 166.1 498.3 488.5 537.4 -19.54 -136.8 -263.8 429.9 0 830.5 312.7 361.5 9.77 1133 332.2 820.7 459.2
1.1 801.2 29.31 693.7 166.1 693.7 517.8 791.4 0 -39.08 -205.2 351.7 19.54 859.8 205.2 517.8 97.7 1045 312.7 918.4 527.6
1.105 840.3 0 889.1 166.1 879.3 459.2 938 -48.85 68.39 -254 351.7 -97.7 889.1 97.7 596 0 1143 293.1 1036 537.4
1.11 869.6 195.4 947.7 127 977 508.1 1036 -48.85 185.6 -293.1 429.9 -78.16 986.8 -58.62 683.9 39.08 1085 351.7 1055 586.2
1.115 810.9 322.4 967.3 214.9 1055 439.7 977 -68.39 185.6 -175.9 410.4 68.39 791.4 -39.08 566.7 39.08 1016 410.4 957.5 449.4
1.12 674.2 586.2 967.3 166.1 1026 429.9 889.1 -117.2 97.7 -332.2 478.7 127 879.3 -39.08 644.8 9.77 908.6 332.2 801.2 488.5
1.125 869.6 664.4 791.4 117.2 967.3 312.7 762.1 -205.2 87.93 -283.3 527.6 78.16 781.6 -97.7 547.1 29.31 781.6 156.3 596 547.1
1.13 742.6 488.5 762.1 234.5 859.8 273.6 566.7 -214.9 78.16 -205.2 488.5 175.9 732.8 29.31 527.6 166.1 713.2 19.54 478.7 537.4
1.135 898.9 381 605.8 312.7 703.5 224.7 410.4 -224.7 136.8 -185.6 449.4 146.6 752.3 48.85 478.7 136.8 654.6 -39.08 322.4 478.7
1.14 820.7 166.1 498.3 273.6 576.5 146.6 214.9 -185.6 78.16 -87.93 381 29.31 713.2 97.7 254 214.9 517.8 -185.6 117.2 420.1
1.145 625.3 185.6 400.6 244.3 351.7 117.2 -87.93 -156.3 -185.6 -205.2 224.7 78.16 654.6 117.2 29.31 254 351.7 -273.6 -146.6 351.7
1.15 508.1 -48.85 302.9 78.16 224.7 19.54 -254 -127 -254 -156.3 273.6 48.85 674.2 117.2 -29.31 342 263.8 -361.5 -283.3 332.2
1.155 302.9 -117.2 156.3 -87.93 117.2 107.5 -429.9 -68.39 -449.4 -39.08 146.6 175.9 547.1 146.6 -166.1 537.4 107.5 -263.8 -381 195.4
1.16 400.6 -97.7 332.2 -68.39 97.7 -68.39 -439.7 -58.62 -273.6 78.16 254 107.5 664.4 87.93 0 644.8 185.6 -351.7 -312.7 342
1.165 136.8 -127 322.4 -127 19.54 -68.39 -469 9.77 -175.9 29.31 273.6 185.6 547.1 97.7 87.93 605.8 205.2 -361.5 -244.3 400.6
1.17 146.6 244.3 293.1 127 -117.2 68.39 -449.4 107.5 58.62 87.93 371.3 146.6 556.9 78.16 146.6 605.8 195.4 -322.4 -224.7 361.5
1.175 97.7 107.5 9.77 117.2 -293.1 -107.5 -488.5 78.16 19.54 -127 87.93 205.2 361.5 29.31 166.1 429.9 87.93 -302.9 -234.5 185.6
1.18 146.6 312.7 -127 166.1 -342 -9.77 -410.4 29.31 48.85 -195.4 19.54 273.6 234.5 19.54 146.6 263.8 -39.08 -390.8 -254 166.1
1.185 322.4 205.2 -214.9 234.5 -214.9 48.85 -214.9 78.16 0 -195.4 -185.6 342 0 -29.31 156.3 117.2 -127 -263.8 -146.6 127
1.19 224.7 146.6 -175.9 185.6 97.7 48.85 127 156.3 117.2 -87.93 -185.6 322.4 39.08 -29.31 400.6 127 -68.39 -146.6 136.8 185.6
1.195 48.85 127 -97.7 322.4 234.5 205.2 293.1 185.6 29.31 -234.5 -166.1 234.5 68.39 9.77 429.9 117.2 -19.54 97.7 185.6 58.62
1.2 -29.31 -39.08 68.39 459.2 459.2 400.6 527.6 371.3 214.9 -39.08 -97.7 234.5 302.9 166.1 556.9 224.7 127 332.2 420.1 48.85
1.205 -39.08 -107.5 68.39 596 498.3 449.4 586.2 332.2 205.2 -166.1 -68.39 195.4 537.4 185.6 508.1 175.9 214.9 351.7 429.9 68.39
1.21 58.62 68.39 156.3 459.2 576.5 410.4 605.8 400.6 263.8 -107.5 156.3 234.5 732.8 214.9 527.6 87.93 214.9 478.7 390.8 -78.16
1.215 185.6 420.1 48.85 410.4 361.5 244.3 420.1 400.6 97.7 -244.3 58.62 224.7 654.6 136.8 410.4 -97.7 195.4 410.4 234.5 -166.1
1.22 175.9 498.3 -58.62 205.2 322.4 136.8 273.6 312.7 -127 -400.6 29.31 195.4 654.6 136.8 439.7 -156.3 87.93 351.7 78.16 -195.4
1.225 97.7 586.2 -117.2 48.85 175.9 -87.93 -39.08 175.9 -361.5 -615.5 -29.31 29.31 498.3 48.85 400.6 -263.8 97.7 136.8 -156.3 -107.5
1.23 97.7 586.2 -29.31 429.9 136.8 166.1 -175.9 332.2 -439.7 -332.2 -9.77 234.5 420.1 273.6 390.8 0 48.85 302.9 -185.6 -234.5
1.235 -39.08 234.5 -78.16 117.2 -19.54 -9.77 -400.6 166.1 -478.7 -459.2 195.4 68.39 342 156.3 332.2 -58.62 -29.31 205.2 -371.3 -293.1
1.24 -195.4 234.5 -214.9 302.9 -234.5 87.93 -664.4 234.5 -488.5 -234.5 175.9 0 302.9 127 293.1 -19.54 -234.5 156.3 -527.6 -439.7
1.245 -127 -107.5 -127 97.7 -351.7 9.77 -703.5 166.1 -429.9 -224.7 293.1 -97.7 342 87.93 97.7 -254 -136.8 39.08 -488.5 -263.8
1.25 -127 -97.7 -342 166.1 -635.6 0 -996.6 68.39 -478.7 -224.7 97.7 -146.6 195.4 19.54 87.93 -283.3 -263.8 -48.85 -713.2 -361.5
1.255 -244.3 -166.1 -390.8 -48.85 -723 -127 -1064 -68.39 -537.4 -273.6 -29.31 -263.8 175.9 -19.54 -19.54 -459.2 -273.6 -97.7 -674.6 -302.9
1.26 -48.85 9.77 -302.9 -48.85 -625.3 -293.1 -977.5 -127 -254 -156.3 48.85 -175.9 39.08 -107.5 107.5 -449.4 -224.7 -185.6 -596 -195.4
1.265 -127 -107.5 -400.6 -185.6 -625.3 -390.8 -908.6 -185.6 -254 -166.1 9.77 -244.3 -39.08 -254 224.7 -547.6 -371.3 -166.1 -635.6 -254
1.27 -166.1 -48.85 -195.4 -146.6 -273.6 -351.7 -469 -156.3 68.39 -127 136.8 -48.85 78.16 -283.3 429.9 -566.7 -185.6 -68.39 -390.8 -127
1.275 -312.7 -136.8 -58.62 -29.31 -78.16 -224.7 -283.3 -78.16 -9.77 -214.9 -29.31 97.7 58.62 -283.3 527.6 -615.5 -156.3 107.5 -410.4 -332.2
1.28 -322.4 -351.7 -39.08 224.7 127 -87.93 19.54 39.08 97.7 -175.9 19.54 342 224.7 -254 508.1 -615.5 -127 185.6 -342 -381
1.285 -508.1 -87.93 -136.8 283.3 48.85 87.93 -19.54 117.2 -107.5 -214.9 -224.7 488.5 117.2 -185.6 322.4 -664.4 -263.8 205.2 -439.7 -508.1
1.29 -332.2 -107.5 -273.6 107.5 -9.77 0 19.54 78.16 -156.3 -185.6 -312.7 439.7 97.7 -244.3 175.9 -586.2 -400.6 0 -439.7 -400.6
1.295 -478.7 -234.5 -566.7 -19.54 -185.6 -234.5 -146.6 -48.85 -351.7 -312.7 -332.2 469 -146.6 -273.6 -39.08 -655.1 -605.8 -146.6 -527.6 -459.2
1.3 -439.7 -29.31 -420.1 -195.4 -68.39 -214.9 39.08 9.77 -146.6 -244.3 -117.2 488.5 -136.8 -195.4 19.54 -469 -439.7 -322.4 -302.9 -117.2
1.305 -302.9 -136.8 -283.3 -254 48.85 -371.3 87.93 -68.39 -156.3 -400.6 29.31 381 -273.6 -146.6 -29.31 -508.1 -371.3 -420.1 -244.3 -68.39
1.31 -371.3 -58.62 -234.5 -254 68.39 -371.3 97.7 -78.16 -127 -361.5 224.7 410.4 -312.7 -48.85 -97.7 -381 -449.4 -517.8 -234.5 -29.31
1.315 -156.3 -156.3 -234.5 -254 0 -381 9.77 -166.1 -244.3 -351.7 166.1 293.1 -459.2 9.77 -273.6 -508.1 -439.7 -439.7 -293.1 -166.1
1.32 -127 -224.7 -410.4 -381 -156.3 -537.4 -254 -351.7 -478.7 -596 39.08 273.6 -596 48.85 -322.4 -498.3 -644.8 -625.3 -556.9 -166.1
1.325 -332.2 -136.8 -596 -410.4 -371.3 -605.8 -537.4 -439.7 -644.8 -517.8 -97.7 234.5 -556.9 87.93 -390.8 -312.7 -723 -664.4 -723 -175.9
1.33 -234.5 -214.9 -556.9 -410.4 -508.1 -655.1 -791.4 -498.3 -791.4 -498.3 -146.6 273.6 -478.7 68.39 -390.8 -332.2 -742.6 -683.9 -898.9 -136.8
1.335 -342 -195.4 -635.6 -273.6 -683.9 -655.1 -1064 -566.7 -938 -312.7 -87.93 205.2 -488.5 -9.77 -478.7 -175.9 -918.4 -615.5 -1025 -263.8
1.34 -224.7 -342 -498.3 -361.5 -762.1 -674.6 -1163 -625.3 -987.3 -322.4 -48.85 244.3 -586.2 -127 -655.1 -185.6 -762.1 -605.8 -1064 -127
1.345 -547.6 -478.7 -742.6 -302.9 -1064 -674.6 -1309 -488.5 -918.4 -19.54 -107.5 58.62 -850 -127 -889.1 -29.31 -1006 -566.7 -1201 -361.5
1.35 -644.8 -478.7 -810.9 -351.7 -1192 -762.1 -1299 -586.2 -928.2 -97.7 -332.2 87.93 -1045 -78.16 -879.8 -9.77 -987.3 -713.2 -1192 -322.4
1.355 -732.8 -488.5 -879.8 -302.9 -1153 -644.8 -1153 -420.1 -625.3 48.85 -429.9 -9.77 -1133 78.16 -938 -78.16 -1025 -508.1 -1124 -429.9
1.36 -752.3 -302.9 -859.8 -254 -967.8 -566.7 -869.6 -302.9 -400.6 273.6 -371.3 48.85 -1172 254 -752.3 39.08 -967.8 -469 -879.8 -420.1
1.365 -635.6 -381 -840.3 -302.9 -801.2 -459.2 -655.1 -312.7 -195.4 146.6 -381 -58.62 -1143 224.7 -683.9 -68.39 -869.6 -420.1 -586.2 -263.8
1.37 -556.9 -361.5 -683.9 -224.7 -469 -293.1 -205.2 39.08 68.39 342 -283.3 9.77 -1143 410.4 -469 97.7 -674.6 -146.6 -254 -361.5
1.375 -664.4 -390.8 -977.5 -322.4 -635.6 -342 -214.9 48.85 29.31 156.3 -469 -332.2 -1221 156.3 -556.9 -117.2 -928.2 -224.7 -244.3 -420.1
1.38 -605.8 -429.9 -655.1 -195.4 -429.9 -107.5 68.39 283.3 175.9 234.5 -390.8 -312.7 -987.3 254 -351.7 -39.08 -713.2 -127 0 -390.8
1.385 -635.6 -674.6 -801.2 -312.7 -527.6 -224.7 9.77 156.3 19.54 -127 -498.3 -469 -918.4 117.2 -508.1 -400.6 -771.9 -254 -97.7 -302.9
1.39 -449.4 -342 -556.9 -136.8 -283.3 78.16 136.8 273.6 195.4 -9.77 -429.9 -342 -644.8 224.7 -371.3 -361.5 -547.6 -214.9 78.16 -107.5
1.395 -342 -185.6 -312.7 39.08 -146.6 214.9 195.4 371.3 68.39 -107.5 -312.7 -273.6 -449.4 342 -390.8 -390.8 -361.5 78.16 58.62 -205.2
1.4 -410.4 -195.4 -136.8 58.62 -29.31 234.5 224.7 312.7 78.16 -127 -185.6 -175.9 -302.9 371.3 -224.7 -351.7 -244.3 0 97.7 -117.2
1.405 -302.9 0 -68.39 117.2 9.77 302.9 175.9 449.4 58.62 146.6 -234.5 -224.7 -254 449.4 -234.5 -156.3 -244.3 156.3 127 -312.7
1.41 -508.1 87.93 -342 48.85 -283.3 244.3 -127 342 -175.9 48.85 -214.9 -224.7 -342 449.4 -361.5 -78.16 -449.4 9.77 -68.39 -420.1
1.415 -605.8 87.93 -420.1 19.54 -478.7 195.4 -332.2 371.3 -312.7 166.1 -381 -185.6 -508.1 459.2 -576.5 -58.62 -586.2 68.39 -185.6 -683.9
1.42 -449.4 146.6 -615.5 127 -644.8 224.7 -527.6 312.7 -400.6 205.2 -381 -273.6 -566.7 517.8 -566.7 0 -644.8 29.31 -322.4 -732.8
1.425 -605.8 381 -683.9 146.6 -908.6 175.9 -820.7 254 -713.2 156.3 -381 -117.2 -781.6 527.6 -762.1 -136.8 -644.8 48.85 -488.5 -810.9
1.43 -166.1 127 -459.2 263.8 -850 185.6 -840.3 29.31 -723 107.5 -156.3 -127 -723 537.4 -674.6 -87.93 -429.9 48.85 -478.7 -644.8
1.435 -146.6 254 -420.1 195.4 -771.9 293.1 -850 -156.3 -703.5 127 -9.77 -175.9 -615.5 459.2 -605.8 -107.5 -342 205.2 -459.2 -625.3
1.44 -48.85 97.7 -381 166.1 -801.2 127 -869.6 -302.9 -810.9 19.54 39.08 -302.9 -615.5 361.5 -635.6 -117.2 -312.7 29.31 -527.6 -478.7
1.445 -429.9 -195.4 -351.7 117.2 -655.1 29.31 -732.8 -293.1 -644.8 68.39 68.39 -312.7 -439.7 254 -547.6 -68.39 -488.5 9.77 -478.7 -439.7
1.45 -371.3 68.39 -469 185.6 -644.8 -87.93 -625.3 -156.3 -605.8 97.7 48.85 -381 -488.5 214.9 -527.6 107.5 -674.6 -58.62 -527.6 -537.4
1.455 -713.2 -58.62 -586.2 -166.1 -693.7 -342 -556.9 -224.7 -644.8 -29.31 -58.62 -390.8 -459.2 254 -566.7 127 -938 -117.2 -644.8 -742.6
1.46 -889.1 263.8 -771.9 -205.2 -655.1 -322.4 -420.1 -87.93 -478.7 48.85 -205.2 -390.8 -586.2 332.2 -488.5 302.9 -1085 -166.1 -664.4 -791.4
1.465 -791.4 195.4 -869.6 -381 -664.4 -342 -371.3 -87.93 -469 -68.39 -342 -420.1 -615.5 332.2 -537.4 234.5 -1114 -312.7 -683.9 -801.2
1.47 -810.9 58.62 -1016 -429.9 -713.2 -342 -361.5 29.31 -371.3 68.39 -302.9 -469 -605.8 381 -508.1 342 -1124 -371.3 -674.6 -762.1
1.475 -781.6 -205.2 -918.4 -312.7 -713.2 -322.4 -312.7 19.54 -214.9 39.08 -400.6 -390.8 -566.7 371.3 -410.4 234.5 -977.5 -263.8 -605.8 -771.9
1.48 -556.9 -87.93 -810.9 -175.9 -693.7 -332.2 -283.3 -19.54 -254 -87.93 -293.1 -312.7 -576.5 283.3 -351.7 205.2 -840.3 -283.3 -498.3 -664.4
1.485 -459.2 -146.6 -674.6 -39.08 -625.3 -273.6 -214.9 0 -244.3 -117.2 -224.7 -166.1 -527.6 351.7 -214.9 58.62 -713.2 -273.6 -283.3 -527.6
1.49 -508.1 381 -508.1 166.1 -469 -136.8 -48.85 136.8 -254 -39.08 -244.3 29.31 -517.8 283.3 9.77 166.1 -655.1 -107.5 -97.7 -566.7
1.495 -469 625.3 -400.6 342 -381 -19.54 117.2 342 -263.8 205.2 -293.1 195.4 -517.8 293.1 -29.31 127 -527.6 156.3 107.5 -655.1
1.5 -322.4 771.9 -293.1 420.1 -244.3 117.2 263.8 390.8 -195.4 273.6 -342 283.3 -439.7 224.7 117.2 156.3 -498.3 322.4 156.3 -703.5
1.505 -175.9 664.4 -263.8 449.4 -302.9 127 205.2 322.4 -283.3 312.7 -293.1 371.3 -478.7 29.31 117.2 244.3 -400.6 390.8 107.5 -683.9
1.51 146.6 664.4 -214.9 390.8 -351.7 48.85 68.39 107.5 -302.9 29.31 -244.3 449.4 -498.3 -107.5 234.5 127 -273.6 205.2 -9.77 -459.2
1.515 97.7 273.6 -244.3 234.5 -605.8 -68.39 -371.3 -244.3 -566.7 -205.2 -195.4 283.3 -674.6 -322.4 97.7 48.85 -312.7 -9.77 -342 -400.6
1.52 58.62 342 -263.8 175.9 -879.8 -97.7 -781.6 -400.6 -742.6 -410.4 -195.4 214.9 -840.3 -400.6 156.3 87.93 -293.1 -263.8 -547.6 -224.7
1.525 68.39 146.6 -381 214.9 -1153 -29.31 -1114 -361.5 -859.8 -234.5 -195.4 156.3 -1075 -342 97.7 185.6 -371.3 -400.6 -781.6 -244.3
1.53 -127 312.7 -420.1 117.2 -1280 -9.77 -1290 -283.3 -918.4 -127 -263.8 97.7 -1133 -322.4 87.93 234.5 -420.1 -498.3 -820.7 -156.3
1.535 -136.8 302.9 -566.7 -29.31 -1329 -48.85 -1260 -87.93 -840.3 205.2 -263.8 29.31 -1201 -322.4 175.9 322.4 -566.7 -361.5 -762.1 -361.5
1.54 -459.2 342 -527.6 -78.16 -1182 -117.2 -1172 9.77 -752.3 107.5 -371.3 -117.2 -977.5 -439.7 302.9 224.7 -537.4 -381 -683.9 -312.7
1.545 -332.2 58.62 -312.7 -156.3 -791.4 -175.9 -742.6 78.16 -381 254 -371.3 -127 -625.3 -459.2 342 205.2 -244.3 -234.5 -381 -146.6
1.55 -312.7 97.7 -205.2 -19.54 -332.2 -156.3 -361.5 166.1 -175.9 214.9 -117.2 -205.2 -234.5 -400.6 439.7 127 29.31 -117.2 -224.7 -78.16
1.555 -127 -146.6 87.93 -19.54 -68.39 -117.2 0 29.31 -78.16 -87.93 -29.31 -322.4 68.39 -420.1 439.7 -68.39 224.7 19.54 -136.8 -39.08
1.56 175.9 -68.39 205.2 97.7 244.3 -19.54 263.8 0 127 -117.2 234.5 -214.9 146.6 -263.8 420.1 -205.2 332.2 58.62 -78.16 58.62
1.565 87.93 146.6 48.85 175.9 195.4 68.39 195.4 -39.08 39.08 -224.7 263.8 -205.2 -19.54 -185.6 322.4 -293.1 254 87.93 -254 -107.5
1.57 146.6 29.31 195.4 205.2 283.3 244.3 293.1 87.93 214.9 -87.93 371.3 -19.54 -156.3 146.6 439.7 -283.3 263.8 166.1 -117.2 -9.77
1.575 166.1 127 68.39 224.7 234.5 195.4 371.3 156.3 214.9 -97.7 342 -19.54 -205.2 185.6 390.8 -263.8 322.4 293.1 0 -48.85
1.58 48.85 68.39 312.7 244.3 400.6 293.1 605.8 371.3 420.1 117.2 410.4 68.39 -48.85 342 478.7 -136.8 508.1 478.7 293.1 39.08
1.585 -136.8 -9.77 312.7 68.39 410.4 48.85 703.5 224.7 293.1 -166.1 371.3 -87.93 -156.3 185.6 351.7 -371.3 537.4 293.1 429.9 312.7
1.59 -244.3 48.85 214.9 87.93 459.2 19.54 742.6 351.7 214.9 -127 156.3 -78.16 -78.16 97.7 293.1 -361.5 498.3 351.7 508.1 263.8
1.595 -517.8 -156.3 39.08 39.08 244.3 -78.16 478.7 214.9 -97.7 -312.7 9.77 -175.9 -351.7 9.77 78.16 -420.1 273.6 175.9 429.9 214.9
1.6 -508.1 -322.4 -214.9 -87.93 78.16 -244.3 273.6 166.1 -195.4 -195.4 -107.5 -185.6 -459.2 -175.9 127 -312.7 97.7 -9.77 302.9 224.7
1.605 -322.4 -508.1 -224.7 -117.2 -185.6 -293.1 -107.5 48.85 -410.4 -361.5 -283.3 -244.3 -469 -283.3 107.5 -322.4 9.77 -68.39 58.62 195.4
1.61 -224.7 -469 -136.8 -78.16 -273.6 -283.3 -351.7 9.77 -410.4 -312.7 -87.93 -205.2 -429.9 -371.3 9.77 -214.9 87.93 -117.2 -136.8 205.2
1.615 -166.1 -723 -97.7 -78.16 -400.6 -263.8 -576.5 -205.2 -459.2 -488.5 -185.6 -254 -381 -449.4 -39.08 -224.7 244.3 -244.3 -351.7 293.1
1.62 -39.08 -566.7 29.31 0 -332.2 -156.3 -586.2 -234.5 -371.3 -596 9.77 -175.9 -156.3 -371.3 -48.85 -205.2 410.4 -332.2 -332.2 478.7
1.625 78.16 -508.1 156.3 -136.8 -293.1 -156.3 -537.4 -312.7 -302.9 -469 0 -146.6 -214.9 -361.5 -175.9 -195.4 400.6 -429.9 -351.7 566.7
1.63 48.85 -342 205.2 -224.7 -78.16 -175.9 -273.6 -234.5 -195.4 -410.4 107.5 -39.08 -68.39 -273.6 0 -58.62 459.2 -449.4 -136.8 654.6
1.635 -107.5 -254 136.8 -420.1 -9.77 -263.8 -127 -175.9 -19.54 -224.7 136.8 -78.16 -19.54 -351.7 87.93 -29.31 332.2 -381 -97.7 488.5
1.64 -29.31 -312.7 214.9 -586.2 214.9 -371.3 214.9 -224.7 195.4 -273.6 214.9 -29.31 205.2 -322.4 117.2 9.77 302.9 -420.1 87.93 596
1.645 -166.1 -615.5 -9.77 -517.8 166.1 -351.7 302.9 -234.5 332.2 -175.9 195.4 -39.08 342 -537.4 58.62 39.08 244.3 -429.9 136.8 547.1
1.65 -19.54 -908.6 117.2 -566.7 195.4 -429.9 390.8 -390.8 488.5 -361.5 224.7 0 420.1 -537.4 -97.7 -9.77 273.6 -517.8 195.4 683.9
1.655 166.1 -820.7 117.2 -429.9 195.4 -322.4 351.7 -351.7 469 -420.1 175.9 127 361.5 -615.5 -273.6 -48.85 293.1 -342 185.6 517.8
1.66 263.8 -655.1 263.8 -185.6 263.8 -312.7 351.7 -302.9 605.8 -371.3 195.4 78.16 273.6 -556.9 -302.9 9.77 410.4 -332.2 224.7 508.1
1.665 175.9 -312.7 302.9 -322.4 332.2 -371.3 371.3 -342 683.9 -371.3 0 146.6 234.5 -655.1 -410.4 -68.39 400.6 -390.8 361.5 635.1
1.67 322.4 -107.5 361.5 -166.1 439.7 -283.3 508.1 -254 869.6 -381 127 117.2 175.9 -615.5 -459.2 -136.8 469 -371.3 576.5 683.9
1.675 273.6 -214.9 136.8 -420.1 420.1 -361.5 429.9 -234.5 820.7 -351.7 -127 -78.16 9.77 -723 -537.4 -195.4 195.4 -293.1 556.9 527.6
1.68 224.7 -58.62 214.9 -390.8 556.9 -214.9 625.3 -87.93 1065 -166.1 -58.62 -58.62 39.08 -742.6 -410.4 -205.2 332.2 -322.4 859.8 703.5
1.685 156.3 -146.6 29.31 -293.1 420.1 -97.7 488.5 48.85 771.9 -185.6 -234.5 -87.93 -127 -605.8 -390.8 -342 156.3 -146.6 713.2 439.7
1.69 195.4 48.85 195.4 -205.2 517.8 -107.5 508.1 9.77 781.6 -78.16 -156.3 -39.08 78.16 -625.3 -117.2 -390.8 283.3 -146.6 791.4 576.5
1.695 87.93 -214.9 127 -224.7 400.6 -146.6 293.1 -78.16 517.8 -156.3 -185.6 -68.39 68.39 -732.8 -97.7 -517.8 302.9 -127 566.7 498.3
1.7 48.85 -273.6 175.9 -390.8 254 -322.4 58.62 -136.8 332.2 -156.3 -244.3 -19.54 97.7 -683.9 -29.31 -517.8 293.1 -195.4 400.6 488.5
1.705 214.9 -302.9 459.2 -469 420.1 -146.6 29.31 -156.3 351.7 -78.16 -107.5 -19.54 254 -703.5 -68.39 -439.7 498.3 -97.7 478.7 586.2
1.71 156.3 -97.7 478.7 -517.8 361.5 -29.31 -39.08 0 361.5 166.1 -205.2 146.6 175.9 -605.8 9.77 -342 556.9 58.62 635.1 556.9
1.715 195.4 185.6 625.3 -371.3 556.9 420.1 78.16 224.7 469 332.2 -136.8 185.6 224.7 -439.7 195.4 -185.6 674.2 429.9 781.6 449.4
1.72 508.1 400.6 703.5 -195.4 713.2 713.2 214.9 283.3 449.4 195.4 -78.16 214.9 234.5 -351.7 136.8 -273.6 830.5 566.7 869.6 449.4
1.725 508.1 351.7 859.8 -78.16 898.9 908.6 439.7 390.8 537.4 322.4 -48.85 332.2 224.7 -214.9 107.5 -175.9 918.4 742.6 908.6 429.9
1.73 332.2 117.2 674.2 -146.6 967.3 1065 586.2 410.4 488.5 234.5 -97.7 185.6 195.4 -195.4 107.5 -195.4 732.8 742.6 810.9 351.7
1.735 390.8 312.7 781.6 -214.9 1006 938 625.3 214.9 498.3 146.6 29.31 136.8 244.3 -263.8 -87.93 -166.1 664.4 605.8 664.4 332.2
1.74 175.9 58.62 547.1 -469 986.8 869.6 596 205.2 449.4 127 68.39 136.8 58.62 -293.1 -214.9 -146.6 429.9 429.9 488.5 234.5
1.745 205.2 254 449.4 -556.9 850 771.9 498.3 166.1 381 205.2 146.6 68.39 19.54 -332.2 -371.3 -185.6 263.8 283.3 371.3 156.3
1.75 263.8 146.6 332.2 -420.1 713.2 556.9 459.2 166.1 439.7 283.3 342 0 -78.16 -293.1 -263.8 -48.85 205.2 156.3 302.9 127
1.755 78.16 195.4 224.7 -449.4 625.3 429.9 400.6 87.93 390.8 293.1 293.1 -78.16 -78.16 -342 -214.9 -78.16 58.62 195.4 234.5 -9.77
1.76 -9.77 -146.6 127 -302.9 517.8 361.5 390.8 58.62 488.5 332.2 234.5 -205.2 -68.39 -361.5 -19.54 -29.31 -9.77 78.16 224.7 29.31
1.765 87.93 -146.6 224.7 -48.85 527.6 283.3 390.8 -68.39 361.5 58.62 302.9 -244.3 48.85 -351.7 78.16 -48.85 -29.31 29.31 234.5 68.39
1.77 78.16 -78.16 127 -48.85 420.1 302.9 429.9 -29.31 420.1 39.08 312.7 -146.6 87.93 -361.5 9.77 -29.31 -127 0 302.9 0
1.775 -68.39 29.31 283.3 78.16 478.7 273.6 517.8 -68.39 361.5 -166.1 302.9 -87.93 97.7 -381 -39.08 -156.3 -29.31 29.31 420.1 78.16
1.78 97.7 0 283.3 195.4 517.8 459.2 674.2 87.93 478.7 -19.54 508.1 -9.77 107.5 -254 -48.85 9.77 97.7 78.16 488.5 87.93
1.785 -127 224.7 254 -58.62 371.3 351.7 586.2 -68.39 381 -185.6 351.7 97.7 19.54 -244.3 -185.6 -97.7 -9.77 -39.08 449.4 195.4
1.79 127 117.2 205.2 -78.16 312.7 449.4 498.3 146.6 312.7 127 400.6 97.7 -78.16 -117.2 -185.6 0 58.62 0 459.2 166.1
1.795 244.3 -87.93 87.93 -234.5 136.8 175.9 214.9 -107.5 78.16 -19.54 381 -78.16 -166.1 -205.2 -439.7 -146.6 -127 -97.7 254 156.3
1.8 283.3 -166.1 87.93 -273.6 107.5 205.2 175.9 19.54 195.4 312.7 371.3 0 -166.1 -156.3 -283.3 39.08 48.85 -146.6 381 322.4
1.805 263.8 -283.3 68.39 -214.9 87.93 78.16 -39.08 -29.31 29.31 156.3 312.7 -136.8 -127 -254 -429.9 -136.8 127 -185.6 312.7 410.4
1.81 214.9 -381 224.7 -48.85 244.3 263.8 127 97.7 117.2 439.7 400.6 -19.54 -9.77 -58.62 -136.8 107.5 332.2 -97.7 400.6 459.2
1.815 117.2 -263.8 254 -78.16 263.8 166.1 48.85 87.93 78.16 469 322.4 9.77 -58.62 -19.54 -127 166.1 342 9.77 351.7 381
1.82 9.77 -566.7 283.3 -381 322.4 48.85 136.8 -68.39 107.5 351.7 263.8 -263.8 -29.31 39.08 39.08 146.6 312.7 -146.6 302.9 527.6
1.825 -175.9 -498.3 58.62 -293.1 156.3 -48.85 68.39 -127 0 332.2 136.8 -273.6 -224.7 48.85 39.08 244.3 87.93 -205.2 156.3 400.6
1.83 -312.7 -635.6 9.77 -615.5 78.16 -273.6 9.77 -302.9 -9.77 205.2 19.54 -361.5 -214.9 87.93 136.8 156.3 -97.7 -302.9 0 351.7
1.835 -381 -732.8 -156.3 -400.6 68.39 -214.9 29.31 -146.6 -58.62 195.4 -78.16 -342 -205.2 117.2 117.2 146.6 -234.5 -48.85 -107.5 87.93
1.84 -156.3 -508.1 -205.2 -205.2 146.6 -87.93 205.2 19.54 136.8 381 19.54 -166.1 -78.16 244.3 185.6 273.6 -185.6 127 19.54 29.31
1.845 -156.3 -342 -136.8 9.77 214.9 127 322.4 254 273.6 537.4 19.54 -127 -19.54 283.3 263.8 312.7 -166.1 361.5 136.8 -117.2
1.85 -68.39 -117.2 -127 205.2 293.1 312.7 527.6 488.5 517.8 703.5 205.2 -87.93 117.2 244.3 478.7 547.1 -29.31 517.8 371.3 -58.62
1.855 39.08 -97.7 87.93 302.9 400.6 420.1 605.8 469 596 752.3 390.8 -9.77 195.4 273.6 508.1 605.8 58.62 625.3 469 -68.39
1.86 -175.9 -78.16 87.93 234.5 302.9 498.3 703.5 547.1 762.1 1026 312.7 19.54 205.2 361.5 596 781.6 107.5 556.9 488.5 -39.08
1.865 39.08 -234.5 117.2 117.2 263.8 371.3 605.8 332.2 664.4 889.1 302.9 29.31 224.7 361.5 429.9 830.5 78.16 322.4 342 29.31
1.87 -302.9 -342 68.39 87.93 166.1 429.9 566.7 293.1 723 1016 273.6 156.3 234.5 469 381 908.6 19.54 234.5 273.6 -29.31
1.875 -117.2 -214.9 -48.85 48.85 -117.2 449.4 166.1 175.9 400.6 810.9 117.2 117.2 58.62 410.4 195.4 879.3 -136.8 175.9 68.39 -234.5
1.88 -439.7 -78.16 -224.7 58.62 -224.7 429.9 -58.62 263.8 302.9 898.9 156.3 156.3 -87.93 537.4 117.2 996.6 -244.3 175.9 9.77 -283.3
1.885 -381 -390.8 -302.9 234.5 -488.5 508.1 -312.7 234.5 58.62 742.6 -29.31 107.5 -214.9 547.1 -39.08 850 -371.3 107.5 -185.6 -400.6
1.89 -234.5 -107.5 -400.6 224.7 -488.5 478.7 -322.4 332.2 48.85 967.3 39.08 312.7 -273.6 732.8 -87.93 967.3 -312.7 195.4 -195.4 -351.7
1.895 185.6 -29.31 -185.6 498.3 -361.5 537.4 -195.4 361.5 136.8 1065 175.9 293.1 -78.16 723 -195.4 850 -185.6 351.7 -39.08 -381
1.9 449.4 498.3 -39.08 625.3 -127 537.4 78.16 400.6 312.7 1202 400.6 556.9 175.9 908.6 -273.6 967.3 68.39 449.4 87.93 -283.3
1.905 517.8 810.9 9.77 732.8 -107.5 596 97.7 390.8 273.6 1094 390.8 478.7 244.3 791.4 -469 752.3 117.2 517.8 107.5 -342
1.91 136.8 771.9 -39.08 820.7 -48.85 576.5 87.93 263.8 224.7 850 224.7 556.9 312.7 908.6 -605.8 791.4 -48.85 576.5 -48.85 -459.2
1.915 -273.6 596 -48.85 1006 -97.7 478.7 9.77 185.6 -58.62 566.7 -48.85 547.1 263.8 928.2 -771.9 693.7 -48.85 664.4 -293.1 -655.1
1.92 -527.6 488.5 -78.16 859.8 -146.6 459.2 -107.5 87.93 -195.4 342 -205.2 527.6 234.5 996.6 -674.6 654.6 -117.2 635.1 -586.2 -771.9
1.925 -439.7 39.08 -107.5 781.6 -136.8 254 -136.8 -127 -224.7 205.2 -214.9 381 234.5 1036 -537.4 596 -78.16 381 -674.6 -605.8
1.93 -9.77 214.9 -19.54 547.1 -117.2 39.08 -166.1 -195.4 -166.1 87.93 -29.31 273.6 371.3 977 -381 439.7 -39.08 293.1 -732.8 -478.7
1.935 156.3 195.4 -136.8 429.9 -185.6 -39.08 -205.2 -273.6 -136.8 87.93 39.08 312.7 332.2 938 -195.4 381 -127 214.9 -820.7 -586.2
1.94 87.93 214.9 -254 273.6 -195.4 -156.3 -175.9 -283.3 39.08 117.2 78.16 263.8 381 771.9 -68.39 273.6 -185.6 0 -771.9 -429.9
1.945 -9.77 449.4 -283.3 283.3 -273.6 -127 -175.9 -302.9 48.85 146.6 -68.39 254 322.4 781.6 87.93 254 -302.9 -39.08 -810.9 -508.1
1.95 -449.4 420.1 -420.1 68.39 -293.1 -205.2 -78.16 -254 58.62 214.9 -117.2 117.2 302.9 693.7 175.9 420.1 -381 -146.6 -713.2 -459.2
1.955 -410.4 263.8 -371.3 136.8 -244.3 -263.8 -9.77 -332.2 0 58.62 -214.9 -97.7 185.6 625.3 87.93 478.7 -342 -78.16 -556.9 -429.9
1.96 -263.8 117.2 -283.3 29.31 -117.2 -351.7 205.2 -332.2 175.9 -87.93 -234.5 -195.4 205.2 586.2 146.6 498.3 -224.7 -127 -302.9 -166.1
1.965 -312.7 -19.54 -97.7 58.62 0 -361.5 302.9 -293.1 244.3 -224.7 -234.5 -302.9 234.5 449.4 78.16 449.4 -117.2 -127 -48.85 -9.77
1.97 156.3 107.5 -78.16 107.5 48.85 -322.4 390.8 -205.2 478.7 -48.85 -146.6 -244.3 429.9 420.1 254 400.6 39.08 -127 254 214.9
1.975 -68.39 -48.85 -214.9 29.31 -156.3 -390.8 166.1 -156.3 322.4 -107.5 -312.7 -263.8 361.5 312.7 224.7 234.5 -205.2 -127 136.8 -58.62
1.98 175.9 -19.54 -166.1 29.31 -234.5 -283.3 58.62 -107.5 224.7 0 -166.1 -322.4 400.6 254 136.8 97.7 -185.6 -87.93 107.5 -19.54
1.985 224.7 97.7 -127 -78.16 -185.6 -302.9 -39.08 -234.5 -19.54 -127 -146.6 -205.2 371.3 107.5 9.77 29.31 -156.3 -107.5 48.85 -19.54
1.99 273.6 58.62 -39.08 -48.85 -117.2 -195.4 39.08 -214.9 -39.08 -29.31 -78.16 -214.9 361.5 195.4 -29.31 78.16 -9.77 -19.54 97.7 29.31
1.995 107.5 224.7 78.16 -117.2 19.54 -117.2 78.16 -127 -68.39 136.8 -78.16 -127 332.2 234.5 -205.2 205.2 78.16 214.9 87.93 -146.6
2 175.9 117.2 78.16 -185.6 87.93 -302.9 146.6 -283.3 -39.08 48.85 -117.2 -185.6 381 195.4 -224.7 224.7 78.16 58.62 107.5 58.62
2.005 -136.8 -19.54 -117.2 -39.08 9.77 -195.4 97.7 -322.4 -87.93 136.8 -146.6 -224.7 361.5 312.7 -107.5 146.6 -9.77 195.4 -39.08 -107.5
2.01 -127 -9.77 -156.3 -156.3 117.2 -342 107.5 -556.9 -97.7 58.62 -175.9 -293.1 342 283.3 29.31 19.54 -136.8 9.77 -117.2 -9.77
2.015 -322.4 -78.16 -517.8 -283.3 -234.5 -459.2 -117.2 -879.8 -302.9 -68.39 -312.7 -400.6 254 146.6 175.9 -117.2 -390.8 -166.1 -429.9 -166.1
2.02 -351.7 -166.1 -556.9 -361.5 -312.7 -644.8 -205.2 -1114 -381 -136.8 -342 -429.9 185.6 166.1 87.93 -302.9 -508.1 -351.7 -635.6 -136.8
2.025 -136.8 -68.39 -429.9 -655.1 -381 -732.8 -234.5 -1172 -254 -87.93 -351.7 -517.8 0 68.39 9.77 -254 -459.2 -459.2 -644.8 -29.31
2.03 -214.9 -87.93 -293.1 -312.7 -429.9 -605.8 -293.1 -908.6 -283.3 -29.31 -244.3 -400.6 -48.85 107.5 -136.8 -234.5 -381 -312.7 -674.6 -127
2.035 234.5 146.6 97.7 -58.62 -136.8 -351.7 -117.2 -566.7 -19.54 195.4 19.54 -195.4 -97.7 234.5 -185.6 -19.54 -9.77 48.85 -371.3 -166.1
2.04 78.16 273.6 224.7 97.7 29.31 -78.16 19.54 -136.8 127 449.4 97.7 -146.6 68.39 263.8 -136.8 107.5 195.4 254 -78.16 -166.1
2.045 400.6 478.7 586.2 429.9 400.6 127 293.1 283.3 234.5 429.9 371.3 78.16 410.4 273.6 -263.8 166.1 537.4 586.2 283.3 -78.16
2.05 439.7 410.4 820.7 625.3 654.6 283.3 459.2 596 234.5 439.7 439.7 263.8 683.9 214.9 -185.6 234.5 781.6 762.1 517.8 29.31
2.055 654.6 371.3 869.6 703.5 810.9 342 527.6 771.9 185.6 400.6 517.8 312.7 889.1 283.3 -273.6 283.3 771.9 986.8 605.8 -87.93
2.06 664.4 273.6 859.8 586.2 918.4 361.5 605.8 850 78.16 156.3 547.1 293.1 1016 136.8 -78.16 234.5 830.5 986.8 635.1 -78.16
2.065 547.1 342 908.6 596 889.1 527.6 605.8 889.1 58.62 136.8 361.5 234.5 762.1 195.4 117.2 273.6 693.7 938 625.3 -97.7
2.07 302.9 127 488.5 205.2 586.2 224.7 449.4 752.3 0 87.93 175.9 87.93 508.1 224.7 146.6 146.6 371.3 683.9 410.4 -185.6
2.075 234.5 283.3 371.3 400.6 469 234.5 254 723 -58.62 205.2 -19.54 146.6 156.3 136.8 205.2 87.93 322.4 644.8 302.9 -371.3
2.08 273.6 58.62 156.3 312.7 156.3 -19.54 107.5 478.7 -48.85 302.9 -293.1 117.2 39.08 9.77 244.3 29.31 -9.77 361.5 48.85 -381
2.085 244.3 263.8 19.54 332.2 0 0 -87.93 361.5 -58.62 400.6 -214.9 185.6 87.93 -107.5 302.9 -97.7 48.85 244.3 -87.93 -400.6
2.09 322.4 175.9 -136.8 342 -195.4 -9.77 -302.9 175.9 -224.7 175.9 -283.3 166.1 117.2 -293.1 234.5 -263.8 -78.16 19.54 -312.7 -420.1
2.095 351.7 293.1 -48.85 254 -185.6 48.85 -332.2 185.6 -166.1 156.3 -127 166.1 254 -293.1 322.4 -283.3 58.62 97.7 -322.4 -449.4
2.1 175.9 48.85 -87.93 254 -136.8 19.54 -361.5 107.5 -214.9 -107.5 0 185.6 381 -332.2 263.8 -469 136.8 0 -332.2 -273.6
2.105 146.6 -48.85 -29.31 68.39 -97.7 -68.39 -400.6 156.3 -283.3 -244.3 -48.85 48.85 381 -400.6 156.3 -429.9 87.93 9.77 -302.9 -156.3
2.11 87.93 -58.62 214.9 234.5 175.9 39.08 -87.93 205.2 -117.2 -146.6 263.8 39.08 381 -48.85 -390.8 78.16 263.8 107.5 -19.54 58.62
2.115 127 254 263.8 78.16 78.16 -97.7 -29.31 234.5 -19.54 -146.6 283.3 68.39 263.8 -156.3 -351.7 68.39 263.8 -9.77 9.77 254
2.12 146.6 244.3 205.2 146.6 19.54 -234.5 -117.2 293.1 -48.85 -146.6 234.5 19.54 156.3 -302.9 -175.9 87.93 117.2 -58.62 -68.39 146.6
2.125 136.8 361.5 107.5 -9.77 -97.7 -439.7 -185.6 156.3 -273.6 -244.3 283.3 9.77 -58.62 -293.1 -214.9 48.85 29.31 -214.9 -117.2 234.5
2.13 146.6 9.77 29.31 -87.93 9.77 -527.6 -78.16 58.62 -322.4 -381 400.6 -117.2 -78.16 -322.4 -48.85 39.08 -78.16 -185.6 -127 156.3
2.135 68.39 -117.2 -87.93 -166.1 -19.54 -644.8 -136.8 -146.6 -459.2 -615.5 381 -78.16 -195.4 -322.4 -136.8 -97.7 -156.3 -459.2 -244.3 293.1
2.14 48.85 -214.9 39.08 -254 185.6 -625.3 78.16 -136.8 -224.7 -635.6 732.8 -205.2 9.77 -205.2 244.3 9.77 -48.85 -439.7 -19.54 400.6
2.145 58.62 -527.6 -87.93 -107.5 166.1 -674.6 107.5 -97.7 -205.2 -556.9 556.9 -205.2 -78.16 -234.5 312.7 -58.62 -146.6 -498.3 -78.16 351.7
2.15 -263.8 -771.9 -107.5 -78.16 117.2 -605.8 166.1 9.77 -166.1 -459.2 547.1 -224.7 -39.08 -322.4 439.7 107.5 -146.6 -400.6 0 214.9
2.155 -68.39 -371.3 -68.39 -87.93 166.1 -547.6 254 78.16 -87.93 -332.2 469 -205.2 -58.62 -332.2 429.9 117.2 9.77 -371.3 58.62 283.3
2.16 -136.8 -214.9 -107.5 156.3 175.9 -342 302.9 156.3 -68.39 -205.2 381 -39.08 58.62 -342 234.5 293.1 87.93 -234.5 107.5 273.6
2.165 -224.7 -58.62 -78.16 0 195.4 -459.2 224.7 48.85 -107.5 -244.3 351.7 39.08 127 -234.5 -58.62 312.7 68.39 -214.9 58.62 224.7
2.17 -9.77 332.2 97.7 146.6 302.9 -351.7 214.9 87.93 9.77 -48.85 566.7 195.4 302.9 -97.7 -273.6 517.8 195.4 -68.39 19.54 214.9
2.175 68.39 214.9 127 0 293.1 -361.5 78.16 -29.31 -68.39 -254 664.4 283.3 342 -68.39 -429.9 420.1 97.7 -146.6 -107.5 283.3
2.18 78.16 302.9 107.5 39.08 175.9 -244.3 -87.93 -29.31 -127 -68.39 742.6 400.6 351.7 9.77 -488.5 683.9 146.6 -127 -185.6 224.7
2.185 381 547.1 214.9 175.9 146.6 -97.7 -195.4 -48.85 -156.3 -234.5 781.6 332.2 371.3 -39.08 -469 439.7 351.7 -107.5 -234.5 263.8
2.19 332.2 322.4 195.4 273.6 -68.39 -39.08 -342 -117.2 -214.9 -478.7 723 351.7 371.3 -9.77 -381 361.5 400.6 -166.1 -224.7 332.2
2.195 381 195.4 146.6 459.2 -107.5 107.5 -390.8 -68.39 -166.1 -508.1 586.2 205.2 224.7 -97.7 -361.5 195.4 537.4 -78.16 -97.7 381
2.2 390.8 87.93 205.2 429.9 -283.3 244.3 -459.2 117.2 -136.8 -390.8 508.1 205.2 107.5 -19.54 -214.9 254 537.4 78.16 19.54 224.7
2.205 127 175.9 58.62 342 -312.7 293.1 -400.6 166.1 -29.31 -185.6 214.9 175.9 -146.6 -48.85 -185.6 293.1 547.1 146.6 195.4 205.2
2.21 175.9 244.3 39.08 283.3 -293.1 302.9 -302.9 410.4 97.7 127 146.6 -78.16 -107.5 9.77 -78.16 420.1 342 263.8 332.2 -48.85
2.215 -78.16 342 -87.93 234.5 -214.9 293.1 -58.62 420.1 283.3 469 -136.8 -175.9 -117.2 97.7 87.93 605.8 254 205.2 517.8 39.08
2.22 -9.77 381 48.85 185.6 107.5 146.6 322.4 332.2 547.1 410.4 -19.54 -351.7 68.39 97.7 361.5 596 312.7 127 742.6 254
2.225 29.31 29.31 48.85 29.31 234.5 136.8 517.8 263.8 732.8 517.8 29.31 -390.8 127 68.39 576.5 664.4 254 39.08 781.6 381
2.23 39.08 -19.54 58.62 -29.31 293.1 48.85 586.2 48.85 752.3 420.1 39.08 -361.5 117.2 -19.54 644.8 742.6 254 -68.39 664.4 420.1
2.235 166.1 -224.7 214.9 0 371.3 97.7 615.5 -58.62 723 342 273.6 -332.2 234.5 -9.77 635.1 644.8 312.7 -87.93 517.8 459.2
2.24 39.08 -87.93 87.93 97.7 312.7 19.54 547.1 0 625.3 449.4 166.1 -322.4 244.3 9.77 517.8 771.9 234.5 -87.93 371.3 361.5
2.245 381 -97.7 400.6 263.8 517.8 166.1 674.2 107.5 644.8 439.7 273.6 -205.2 361.5 136.8 556.9 791.4 508.1 78.16 547.1 478.7
2.25 19.54 48.85 205.2 185.6 312.7 9.77 527.6 195.4 449.4 429.9 244.3 -97.7 351.7 156.3 381 742.6 342 175.9 410.4 283.3
2.255 244.3 322.4 342 263.8 498.3 87.93 644.8 234.5 537.4 410.4 214.9 29.31 302.9 244.3 478.7 644.8 459.2 205.2 498.3 351.7
2.26 -97.7 -78.16 29.31 195.4 224.7 19.54 263.8 117.2 214.9 263.8 97.7 146.6 127 136.8 342 527.6 244.3 97.7 214.9 156.3
2.265 -78.16 400.6 58.62 185.6 205.2 29.31 185.6 48.85 293.1 351.7 234.5 293.1 156.3 78.16 498.3 586.2 205.2 146.6 117.2 68.39
2.27 -283.3 234.5 -195.4 68.39 -78.16 -107.5 -107.5 -195.4 0 97.7 68.39 254 -19.54 29.31 429.9 459.2 78.16 9.77 -97.7 -9.77
2.275 -234.5 469 -58.62 234.5 -48.85 -117.2 -127 -156.3 -87.93 117.2 146.6 410.4 9.77 117.2 429.9 478.7 146.6 58.62 -97.7 -19.54
2.28 -244.3 410.4 -166.1 136.8 -185.6 -127 -214.9 -244.3 -195.4 29.31 19.54 293.1 -78.16 127 302.9 420.1 68.39 -19.54 -166.1 -48.85
2.285 -283.3 449.4 -136.8 342 -293.1 -136.8 -283.3 -263.8 -361.5 -127 -117.2 381 -117.2 205.2 68.39 390.8 117.2 -9.77 -117.2 -39.08
2.29 -693.7 107.5 -205.2 351.7 -410.4 -78.16 -390.8 -244.3 -400.6 -185.6 -322.4 410.4 -175.9 234.5 -68.39 342 0 29.31 -166.1 -87.93
2.295 -381 -107.5 -68.39 322.4 -429.9 -166.1 -342 -312.7 -244.3 -371.3 -420.1 332.2 -87.93 127 -19.54 322.4 48.85 -175.9 -29.31 205.2
2.3 -615.5 -136.8 -166.1 127 -586.2 -195.4 -381 -224.7 -146.6 -244.3 -547.6 390.8 -117.2 205.2 78.16 332.2 -58.62 -205.2 -29.31 195.4
2.305 -410.4 -332.2 -244.3 146.6 -605.8 -97.7 -371.3 -146.6 -58.62 -127 -566.7 420.1 29.31 185.6 195.4 322.4 -68.39 -166.1 -39.08 127
2.31 -381 -58.62 -273.6 -9.77 -566.7 -58.62 -254 -48.85 78.16 29.31 -723 449.4 -68.39 175.9 293.1 166.1 -127 -127 0 87.93
2.315 -224.7 -166.1 -234.5 -58.62 -498.3 -78.16 -175.9 -97.7 78.16 -19.54 -693.7 371.3 -39.08 127 224.7 -29.31 9.77 -87.93 -9.77 117.2
2.32 -381 117.2 -146.6 78.16 -185.6 29.31 87.93 -58.62 185.6 58.62 -664.4 517.8 -48.85 39.08 361.5 -78.16 136.8 78.16 87.93 127
2.325 -361.5 205.2 -48.85 68.39 -48.85 -58.62 185.6 -185.6 166.1 -175.9 -625.3 381 19.54 117.2 263.8 -214.9 195.4 48.85 -9.77 136.8
2.33 -263.8 107.5 -97.7 263.8 58.62 58.62 214.9 -185.6 97.7 -234.5 -615.5 498.3 87.93 166.1 351.7 -117.2 214.9 175.9 -29.31 -78.16
2.335 -527.6 87.93 -283.3 78.16 -48.85 -117.2 117.2 -244.3 97.7 -342 -879.8 322.4 -58.62 175.9 371.3 -58.62 19.54 -48.85 -107.5 -19.54
2.34 -400.6 107.5 -351.7 273.6 -68.39 127 39.08 -87.93 -29.31 -214.9 -918.4 429.9 -39.08 302.9 293.1 136.8 -29.31 87.93 -166.1 -234.5
2.345 -400.6 -29.31 -332.2 146.6 -87.93 -29.31 48.85 -48.85 48.85 -244.3 -947.7 371.3 -156.3 97.7 263.8 185.6 -97.7 -39.08 -97.7 -146.6
2.35 -547.6 9.77 -400.6 156.3 -166.1 156.3 29.31 97.7 48.85 -19.54 -1045 263.8 -234.5 78.16 244.3 351.7 -146.6 78.16 -127 -244.3
2.355 -127 68.39 -48.85 244.3 39.08 156.3 107.5 48.85 48.85 -87.93 -791.4 322.4 -78.16 -29.31 351.7 234.5 117.2 39.08 0 19.54
2.36 117.2 234.5 -29.31 117.2 -19.54 195.4 117.2 39.08 29.31 -39.08 -713.2 136.8 -58.62 0 390.8 224.7 234.5 19.54 -29.31 107.5
2.365 39.08 293.1 -39.08 58.62 -58.62 244.3 9.77 -127 -97.7 -107.5 -713.2 68.39 -58.62 -9.77 469 146.6 195.4 -19.54 -214.9 78.16
2.37 263.8 302.9 136.8 -48.85 0 156.3 39.08 -302.9 -117.2 -263.8 -635.6 9.77 -107.5 -39.08 537.4 39.08 332.2 -9.77 -283.3 87.93
2.375 -175.9 361.5 -68.39 -87.93 -156.3 185.6 -117.2 -420.1 -214.9 -244.3 -801.2 -9.77 -283.3 39.08 283.3 -29.31 87.93 -107.5 -508.1 -48.85
2.38 -527.6 283.3 -195.4 58.62 -234.5 136.8 -244.3 -459.2 -332.2 -293.1 -947.7 58.62 -566.7 48.85 9.77 -117.2 48.85 -39.08 -547.6 -234.5
2.385 -508.1 469 -312.7 175.9 -381 254 -400.6 -459.2 -361.5 -234.5 -1036 136.8 -674.6 146.6 -224.7 -9.77 -136.8 -78.16 -615.5 -400.6
2.39 -850 283.3 -664.4 224.7 -683.9 175.9 -615.5 -459.2 -556.9 -234.5 -1085 87.93 -850 146.6 -302.9 -58.62 -322.4 -78.16 -713.2 -566.7
2.395 -420.1 -29.31 -459.2 127 -517.8 78.16 -469 -644.8 -459.2 -410.4 -928.2 214.9 -771.9 68.39 -234.5 9.77 -166.1 -254 -459.2 -175.9
2.4 -459.2 39.08 -469 234.5 -459.2 146.6 -283.3 -498.3 -361.5 -302.9 -879.8 400.6 -693.7 205.2 -19.54 156.3 -166.1 -166.1 -322.4 -136.8
2.405 -117.2 -39.08 -195.4 48.85 -224.7 48.85 48.85 -537.4 -136.8 -449.4 -655.1 449.4 -517.8 205.2 146.6 68.39 78.16 -175.9 0 175.9
2.41 -29.31 -146.6 -107.5 -146.6 19.54 -39.08 283.3 -420.1 136.8 -429.9 -615.5 420.1 -273.6 254 390.8 156.3 78.16 -117.2 175.9 195.4
2.415 -117.2 185.6 -195.4 -195.4 48.85 -117.2 312.7 -332.2 254 -263.8 -449.4 332.2 -195.4 263.8 342 195.4 39.08 -205.2 214.9 234.5
2.42 -127 58.62 -156.3 -342 175.9 -273.6 478.7 -351.7 469 -166.1 -351.7 332.2 -87.93 185.6 654.6 234.5 -9.77 -244.3 361.5 302.9
2.425 -488.5 -39.08 -390.8 -244.3 107.5 -283.3 283.3 -342 429.9 -68.39 -439.7 254 -166.1 205.2 605.8 302.9 -127 -322.4 205.2 224.7
2.43 -371.3 -127 -302.9 -205.2 136.8 -342 244.3 -342 390.8 68.39 -508.1 254 -224.7 283.3 635.1 332.2 -97.7 -361.5 195.4 224.7
2.435 -498.3 -312.7 -410.4 -273.6 87.93 -322.4 146.6 -449.4 234.5 -87.93 -566.7 293.1 -342 312.7 527.6 302.9 -19.54 -478.7 185.6 371.3
2.44 -185.6 -332.2 -254 -156.3 87.93 -234.5 68.39 -459.2 146.6 -195.4 -605.8 293.1 -234.5 429.9 410.4 97.7 87.93 -478.7 78.16 508.1
2.445 117.2 -332.2 107.5 -78.16 322.4 -175.9 117.2 -508.1 78.16 -351.7 -332.2 332.2 -78.16 469 342 -9.77 342 -361.5 185.6 703.5
2.45 185.6 -166.1 244.3 -39.08 410.4 -156.3 48.85 -527.6 -29.31 -527.6 -175.9 410.4 117.2 469 351.7 -244.3 478.7 -283.3 68.39 683.9
2.455 342 -234.5 508.1 -166.1 478.7 -263.8 87.93 -683.9 -78.16 -732.8 -68.39 351.7 302.9 361.5 488.5 -508.1 635.1 -390.8 -29.31 908.6
2.46 166.1 -97.7 420.1 -107.5 439.7 -195.4 -107.5 -723 -127 -576.5 0 381 185.6 224.7 547.1 -449.4 644.8 -361.5 -224.7 810.9
2.465 -58.62 -87.93 293.1 -244.3 224.7 -351.7 -214.9 -820.7 -283.3 -576.5 -78.16 293.1 58.62 -68.39 605.8 -459.2 429.9 -469 -371.3 723
2.47 -127 -127 87.93 -136.8 48.85 -410.4 -293.1 -1006 -322.4 -674.6 -19.54 195.4 -97.7 -263.8 596 -498.3 312.7 -517.8 -439.7 586.2
2.475 -302.9 -156.3 78.16 87.93 87.93 -293.1 -68.39 -859.8 -107.5 -576.5 117.2 214.9 -97.7 -302.9 635.1 -459.2 342 -478.7 -107.5 693.7
2.48 -175.9 -214.9 48.85 58.62 9.77 -361.5 87.93 -957.5 29.31 -723 68.39 185.6 -39.08 -195.4 576.5 -586.2 342 -478.7 136.8 703.5
2.485 -107.5 -342 87.93 48.85 48.85 -322.4 205.2 -957.5 136.8 -801.2 87.93 175.9 -136.8 -117.2 596 -840.3 361.5 -488.5 371.3 781.6
2.49 -175.9 -390.8 156.3 0 185.6 -205.2 390.8 -820.7 283.3 -801.2 0 263.8 -107.5 -29.31 537.4 -1094 420.1 -439.7 556.9 791.4
2.495 -39.08 -302.9 68.39 -58.62 136.8 -195.4 488.5 -655.1 244.3 -644.8 -127 244.3 -302.9 -146.6 390.8 -1192 302.9 -469 537.4 771.9
2.5 -420.1 -283.3 -19.54 -68.39 117.2 -58.62 517.8 -517.8 214.9 -488.5 -312.7 293.1 -410.4 -87.93 283.3 -1211 185.6 -488.5 547.1 644.8
2.505 -410.4 -410.4 -166.1 -205.2 117.2 -87.93 488.5 -342 224.7 -283.3 -293.1 68.39 -449.4 -224.7 234.5 -1094 68.39 -517.8 498.3 547.1
2.51 -556.9 -615.5 -224.7 -351.7 0 -127 429.9 -410.4 127 -254 -420.1 107.5 -469 -48.85 214.9 -918.4 0 -508.1 410.4 478.7
2.515 -517.8 -810.9 -381 -342 -117.2 -293.1 185.6 -469 -39.08 -224.7 -547.6 -29.31 -498.3 -127 48.85 -859.8 -224.7 -664.4 263.8 498.3
2.52 -381 -723 -312.7 -527.6 19.54 -429.9 205.2 -488.5 -19.54 -400.6 -459.2 -78.16 -390.8 -146.6 107.5 -791.4 -97.7 -693.7 263.8 596
2.525 -263.8 -527.6 -234.5 -351.7 48.85 -488.5 156.3 -547.6 -9.77 -537.4 -556.9 68.39 -342 -146.6 29.31 -869.6 -68.39 -625.3 224.7 625.3
2.53 -283.3 -361.5 -312.7 -293.1 107.5 -488.5 107.5 -488.5 -39.08 -655.1 -586.2 87.93 -420.1 -254 58.62 -918.4 -48.85 -498.3 156.3 488.5
2.535 -293.1 -214.9 -156.3 -302.9 136.8 -498.3 107.5 -527.6 -29.31 -732.8 -576.5 97.7 -420.1 -381 78.16 -1006 29.31 -478.7 146.6 547.1
2.54 -166.1 -136.8 0 -68.39 175.9 -381 -9.77 -410.4 -78.16 -683.9 -449.4 214.9 -342 -195.4 175.9 -830.5 156.3 -293.1 87.93 420.1
2.545 117.2 263.8 156.3 234.5 -146.6 283.3 97.7 107.5 -58.62 97.7 -205.2 556.9 58.62 205.2 224.7 -127 390.8 97.7 244.3 127
2.55 214.9 381 429.9 263.8 156.3 439.7 322.4 9.77 136.8 97.7 -166.1 537.4 29.31 117.2 234.5 -97.7 664.4 254 361.5 283.3
2.555 351.7 605.8 723 234.5 342 547.1 420.1 -127 19.54 0 -29.31 605.8 146.6 87.93 185.6 -78.16 801.2 371.3 381 273.6
2.56 283.3 469 644.8 136.8 342 410.4 351.7 -175.9 -9.77 78.16 87.93 508.1 -9.77 19.54 107.5 -146.6 615.5 322.4 263.8 185.6
2.565 381 752.3 703.5 97.7 420.1 420.1 371.3 -48.85 -127 156.3 156.3 674.2 -9.77 117.2 -19.54 9.77 586.2 293.1 185.6 97.7
2.57 263.8 635.1 400.6 0 254 273.6 273.6 29.31 -146.6 156.3 185.6 556.9 -29.31 29.31 -87.93 -117.2 429.9 224.7 78.16 -39.08
2.575 127 781.6 244.3 9.77 87.93 381 185.6 332.2 0 449.4 136.8 683.9 -19.54 254 0 58.62 273.6 390.8 87.93 -390.8
2.58 224.7 683.9 224.7 -48.85 0 400.6 214.9 390.8 146.6 478.7 224.7 693.7 -58.62 185.6 78.16 -58.62 254 312.7 136.8 -351.7
2.585 293.1 263.8 273.6 -127 58.62 371.3 263.8 410.4 400.6 400.6 342 576.5 29.31 156.3 273.6 -175.9 302.9 234.5 273.6 -263.8
2.59 146.6 332.2 78.16 -175.9 -19.54 478.7 244.3 478.7 381 478.7 302.9 469 -166.1 146.6 342 -244.3 195.4 195.4 234.5 -273.6
2.595 -87.93 9.77 -68.39 -576.5 -234.5 175.9 -39.08 107.5 136.8 185.6 224.7 332.2 -361.5 -68.39 136.8 -439.7 -39.08 -39.08 9.77 -127
2.6 -332.2 -214.9 -195.4 -655.1 -146.6 166.1 -107.5 -87.93 -9.77 -29.31 214.9 185.6 -439.7 -234.5 48.85 -498.3 -48.85 -234.5 -9.77 127
2.605 -390.8 39.08 -224.7 -859.8 -283.3 39.08 -244.3 -332.2 -263.8 -87.93 146.6 293.1 -429.9 -332.2 -166.1 -527.6 -205.2 -332.2 -166.1 166.1
2.61 -361.5 -9.77 -214.9 -683.9 -254 127 -302.9 -263.8 -371.3 -146.6 78.16 361.5 -498.3 -361.5 -195.4 -566.7 -48.85 -234.5 -166.1 87.93
2.615 -39.08 -175.9 58.62 -556.9 -166.1 39.08 -263.8 -371.3 -371.3 -175.9 322.4 400.6 -302.9 -527.6 -146.6 -683.9 156.3 -214.9 -146.6 195.4
2.62 107.5 -97.7 78.16 -537.4 -156.3 -9.77 -351.7 -302.9 -459.2 -283.3 205.2 273.6 -332.2 -655.1 -214.9 -791.4 127 -205.2 -254 78.16
2.625 312.7 -273.6 293.1 -488.5 -87.93 -127 -263.8 -410.4 -400.6 -420.1 498.3 127 -234.5 -791.4 107.5 -879.8 312.7 -283.3 -127 254
2.63 429.9 -244.3 439.7 -488.5 -39.08 -224.7 -195.4 -488.5 -371.3 -547.6 556.9 -166.1 -302.9 -1006 97.7 -742.6 195.4 -332.2 -78.16 322.4
2.635 547.1 -166.1 508.1 -371.3 107.5 -97.7 -29.31 -449.4 -166.1 -625.3 654.6 -195.4 -283.3 -967.8 371.3 -644.8 234.5 -224.7 117.2 351.7
2.64 342 -263.8 400.6 -361.5 68.39 -19.54 -68.39 -449.4 -185.6 -810.9 312.7 -312.7 -459.2 -1114 263.8 -674.6 19.54 -205.2 97.7 312.7
2.645 214.9 -127 449.4 -214.9 224.7 175.9 127 -312.7 48.85 -566.7 107.5 -244.3 -420.1 -1006 361.5 -537.4 0 -29.31 332.2 263.8
2.65 -68.39 -322.4 175.9 -400.6 19.54 156.3 -68.39 -351.7 -156.3 -683.9 -234.5 -234.5 -537.4 -967.8 224.7 -713.2 -273.6 -48.85 127 117.2
2.655 -449.4 -342 39.08 -381 -68.39 39.08 -127 -302.9 -146.6 -400.6 -351.7 -244.3 -439.7 -771.9 48.85 -498.3 -469 97.7 107.5 -107.5
2.66 -664.4 -390.8 -332.2 -361.5 -312.7 -68.39 -400.6 -342 -361.5 -381 -508.1 -273.6 -644.8 -703.5 -175.9 -478.7 -713.2 9.77 -136.8 -195.4
2.665 -723 -556.9 -566.7 -469 -469 -263.8 -566.7 -400.6 -556.9 -361.5 -498.3 -361.5 -537.4 -556.9 -351.7 -400.6 -879.8 -136.8 -312.7 -263.8
2.67 -674.6 -498.3 -644.8 -400.6 -625.3 -205.2 -693.7 -439.7 -771.9 -469 -371.3 -273.6 -547.6 -586.2 -517.8 -381 -996.6 -283.3 -429.9 -273.6
2.675 -351.7 -449.4 -644.8 -234.5 -605.8 -19.54 -723 -254 -898.9 -293.1 -234.5 -224.7 -517.8 -469 -527.6 -195.4 -938 -166.1 -498.3 -469
2.68 -224.7 -283.3 -596 -478.7 -576.5 0 -752.3 -400.6 -987.3 -449.4 -29.31 -214.9 -342 -596 -586.2 -205.2 -889.1 -342 -517.8 -293.1
2.685 -156.3 -312.7 -410.4 -342 -596 97.7 -762.1 -283.3 -830.5 -244.3 68.39 -175.9 -156.3 -537.4 -469 -107.5 -820.7 -283.3 -478.7 -351.7
2.69 -361.5 -87.93 -400.6 -322.4 -664.4 146.6 -879.8 -342 -850 -381 117.2 -254 -87.93 -655.1 -576.5 -205.2 -859.8 -302.9 -664.4 -390.8
2.695 -390.8 -175.9 -244.3 -420.1 -527.6 185.6 -732.8 -302.9 -547.6 -332.2 214.9 -342 185.6 -655.1 -488.5 -166.1 -683.9 -136.8 -586.2 -420.1
2.7 -351.7 -488.5 -68.39 -469 -390.8 214.9 -566.7 -205.2 -381 -478.7 351.7 -586.2 244.3 -810.9 -478.7 -244.3 -517.8 0 -508.1 -351.7
2.705 -508.1 -469 -214.9 -400.6 -205.2 449.4 -361.5 39.08 -185.6 -224.7 293.1 -566.7 420.1 -664.4 -420.1 -234.5 -556.9 234.5 -351.7 -410.4
2.71 -527.6 -244.3 -78.16 -263.8 -87.93 439.7 -263.8 48.85 -156.3 -390.8 478.7 -547.6 381 -537.4 -420.1 -390.8 -283.3 214.9 -283.3 -234.5
2.715 -459.2 -97.7 -390.8 -68.39 -224.7 390.8 -351.7 107.5 -263.8 -322.4 205.2 -469 185.6 -400.6 -459.2 -410.4 -420.1 214.9 -342 -322.4
2.72 -332.2 97.7 -332.2 175.9 -234.5 263.8 -469 -29.31 -469 -644.8 -29.31 -312.7 -107.5 -478.7 -498.3 -605.8 -342 -48.85 -371.3 -136.8
2.725 -58.62 371.3 -322.4 117.2 -332.2 273.6 -615.5 -107.5 -556.9 -683.9 -195.4 -302.9 -273.6 -517.8 -586.2 -625.3 -332.2 -185.6 -381 -58.62
2.73 214.9 185.6 -175.9 175.9 -156.3 224.7 -556.9 -68.39 -566.7 -762.1 -254 -293.1 -410.4 -605.8 -625.3 -615.5 -136.8 -78.16 -205.2 58.62
2.735 263.8 205.2 -97.7 136.8 -68.39 351.7 -459.2 19.54 -547.6 -488.5 -302.9 -293.1 -429.9 -547.6 -703.5 -420.1 -68.39 136.8 -58.62 -58.62
2.74 29.31 195.4 -97.7 214.9 78.16 556.9 -410.4 136.8 -576.5 -361.5 -293.1 -283.3 -478.7 -400.6 -791.4 -263.8 -9.77 224.7 -19.54 -39.08
2.745 87.93 449.4 9.77 322.4 107.5 625.3 -273.6 195.4 -547.6 -224.7 -332.2 -205.2 -498.3 -156.3 -674.6 9.77 166.1 283.3 9.77 0
2.75 97.7 439.7 78.16 254 117.2 625.3 -224.7 224.7 -508.1 -127 -283.3 -371.3 -459.2 -68.39 -556.9 117.2 166.1 263.8 -29.31 0
2.755 175.9 459.2 78.16 322.4 127 664.4 -156.3 234.5 -361.5 -175.9 -371.3 -322.4 -449.4 19.54 -283.3 146.6 214.9 224.7 -19.54 39.08
2.76 361.5 556.9 283.3 224.7 234.5 664.4 -68.39 293.1 -205.2 -107.5 -224.7 -410.4 -342 0 -156.3 195.4 302.9 214.9 48.85 195.4
2.765 478.7 185.6 185.6 371.3 283.3 605.8 -29.31 332.2 -58.62 39.08 -195.4 -390.8 -322.4 -29.31 58.62 205.2 224.7 166.1 127 166.1
2.77 332.2 68.39 48.85 283.3 254 586.2 -29.31 293.1 -19.54 19.54 -273.6 -576.5 -410.4 -87.93 48.85 19.54 146.6 97.7 87.93 146.6
2.775 87.93 234.5 19.54 488.5 283.3 527.6 29.31 429.9 117.2 254 -214.9 -429.9 -342 -9.77 78.16 175.9 9.77 195.4 127 9.77
2.78 48.85 -68.39 -127 478.7 136.8 420.1 -9.77 312.7 58.62 107.5 -273.6 -664.4 -322.4 -156.3 -87.93 29.31 -39.08 -19.54 78.16 39.08
2.785 58.62 195.4 -78.16 381 146.6 263.8 -9.77 312.7 97.7 48.85 -273.6 -683.9 -273.6 -127 -185.6 117.2 -58.62 -39.08 87.93 29.31
2.79 -146.6 117.2 -195.4 342 9.77 224.7 -107.5 166.1 -146.6 -48.85 -302.9 -771.9 -224.7 -214.9 -527.6 -58.62 -127 9.77 19.54 -68.39
2.795 68.39 -9.77 -283.3 68.39 -127 48.85 -214.9 58.62 -205.2 -214.9 -371.3 -938 -224.7 -166.1 -644.8 -146.6 -234.5 -97.7 -146.6 -127
2.8 -175.9 -87.93 -498.3 19.54 -351.7 -19.54 -390.8 -156.3 -361.5 -234.5 -488.5 -938 -224.7 -48.85 -840.3 -214.9 -537.4 -195.4 -322.4 -244.3
2.805 -195.4 -195.4 -429.9 -107.5 -332.2 -244.3 -381 -351.7 -439.7 -312.7 -420.1 -987.3 -136.8 29.31 -771.9 -97.7 -605.8 -469 -420.1 -166.1
2.81 -400.6 -273.6 -605.8 -400.6 -449.4 -361.5 -556.9 -556.9 -498.3 -322.4 -420.1 -1025 -166.1 68.39 -762.1 9.77 -781.6 -605.8 -596 -205.2
2.815 -224.7 -273.6 -459.2 -332.2 -332.2 -381 -469 -556.9 -371.3 -195.4 -332.2 -859.8 -97.7 29.31 -693.7 175.9 -596 -547.6 -400.6 -127
2.82 -283.3 -537.4 -449.4 -478.7 -302.9 -488.5 -429.9 -732.8 -439.7 -478.7 -254 -957.5 -234.5 -205.2 -713.2 -9.77 -596 -771.9 -439.7 107.5
2.825 -97.7 -381 -322.4 -195.4 -205.2 -195.4 -342 -469 -273.6 -322.4 -234.5 -605.8 -332.2 -117.2 -791.4 0 -332.2 -566.7 -244.3 205.2
2.83 29.31 -508.1 -234.5 68.39 -136.8 -97.7 -224.7 -342 -205.2 -400.6 -273.6 -703.5 -439.7 -166.1 -830.5 -185.6 -127 -439.7 -97.7 322.4
2.835 -9.77 -302.9 -234.5 -58.62 -58.62 -97.7 -117.2 -273.6 -107.5 -332.2 -371.3 -498.3 -547.6 -195.4 -859.8 -273.6 -136.8 -263.8 -117.2 166.1
2.84 234.5 -224.7 -48.85 107.5 136.8 205.2 127 -87.93 146.6 -127 -244.3 -439.7 -224.7 -58.62 -762.1 -293.1 205.2 9.77 117.2 234.5
2.845 449.4 166.1 351.7 48.85 459.2 244.3 478.7 9.77 478.7 -78.16 -78.16 -214.9 48.85 -29.31 -371.3 -410.4 498.3 117.2 449.4 439.7
2.85 478.7 234.5 469 39.08 498.3 322.4 556.9 117.2 615.5 0 68.39 -175.9 302.9 -9.77 -146.6 -371.3 664.4 156.3 566.7 469
2.855 625.3 156.3 635.1 166.1 703.5 263.8 810.9 117.2 840.3 19.54 224.7 -78.16 576.5 58.62 127 -410.4 771.9 175.9 840.3 615.5
2.86 390.8 -48.85 703.5 48.85 732.8 214.9 859.8 156.3 1016 175.9 39.08 -78.16 635.1 97.7 214.9 -302.9 771.9 87.93 947.7 703.5
2.865 224.7 -214.9 312.7 48.85 498.3 78.16 742.6 87.93 1065 488.5 -146.6 -146.6 596 107.5 127 -146.6 420.1 0 879.3 654.6
2.87 9.77 -293.1 175.9 68.39 371.3 48.85 605.8 -39.08 918.4 605.8 -429.9 -136.8 293.1 78.16 48.85 -97.7 146.6 -58.62 664.4 439.7
2.875 -195.4 -449.4 -68.39 -19.54 205.2 9.77 508.1 -39.08 850 859.8 -615.5 -39.08 97.7 97.7 -39.08 87.93 -117.2 0 566.7 224.7
2.88 -361.5 -342 -224.7 -39.08 29.31 -97.7 293.1 -78.16 596 840.3 -723 -39.08 -273.6 48.85 -68.39 0 -312.7 -156.3 390.8 78.16
2.885 -478.7 -508.1 -351.7 -58.62 -97.7 -48.85 234.5 -156.3 449.4 781.6 -850 58.62 -420.1 87.93 -68.39 -39.08 -351.7 -156.3 342 58.62
2.89 -273.6 -498.3 -371.3 -273.6 -136.8 -342 146.6 -400.6 244.3 469 -576.5 -19.54 -283.3 87.93 -87.93 -283.3 -459.2 -400.6 146.6 214.9
2.895 -351.7 -361.5 -488.5 -459.2 -224.7 -439.7 -29.31 -498.3 127 234.5 -449.4 -39.08 -185.6 58.62 39.08 -420.1 -469 -478.7 -48.85 166.1
2.9 -234.5 -351.7 -605.8 -605.8 -381 -625.3 -244.3 -850 -175.9 -224.7 -381 -175.9 -127 -48.85 107.5 -576.5 -683.9 -742.6 -302.9 273.6
2.905 -224.7 -273.6 -556.9 -683.9 -381 -693.7 -224.7 -771.9 -68.39 -214.9 -97.7 -136.8 156.3 -107.5 332.2 -429.9 -508.1 -810.9 -312.7 293.1
2.91 -185.6 -342 -429.9 -732.8 -312.7 -771.9 -234.5 -830.5 -87.93 -361.5 19.54 -254 166.1 -332.2 439.7 -371.3 -469 -859.8 -254 361.5
2.915 -469 -625.3 -361.5 -644.8 -166.1 -683.9 -117.2 -547.6 -58.62 -97.7 58.62 -185.6 205.2 -195.4 537.4 -156.3 -371.3 -683.9 -97.7 283.3
2.92 -214.9 -674.6 -322.4 -586.2 -146.6 -810.9 -146.6 -635.6 -175.9 -342 107.5 -254 263.8 -400.6 390.8 -244.3 -371.3 -732.8 -234.5 254
2.925 -302.9 -820.7 -263.8 -625.3 -58.62 -703.5 -107.5 -410.4 -214.9 -234.5 68.39 -244.3 234.5 -224.7 400.6 -283.3 -371.3 -605.8 -312.7 136.8
2.93 -214.9 -762.1 -420.1 -576.5 -283.3 -605.8 -273.6 -410.4 -283.3 -312.7 48.85 -136.8 117.2 -273.6 195.4 -322.4 -449.4 -605.8 -508.1 48.85
2.935 -117.2 -302.9 -351.7 -478.7 -234.5 -410.4 -195.4 -293.1 -195.4 -205.2 -68.39 -78.16 302.9 -195.4 156.3 -400.6 -410.4 -371.3 -566.7 -166.1
2.94 -244.3 -293.1 -302.9 -459.2 -205.2 -342 -78.16 -273.6 -19.54 -97.7 19.54 -19.54 234.5 -175.9 195.4 -244.3 -420.1 -361.5 -449.4 -107.5
2.945 -244.3 78.16 -302.9 -234.5 -127 -146.6 0 -175.9 -29.31 -19.54 -78.16 39.08 400.6 -39.08 205.2 -175.9 -312.7 -195.4 -302.9 -244.3
2.95 -254 -58.62 -224.7 -146.6 -19.54 -205.2 87.93 -214.9 0 -127 -117.2 -97.7 351.7 -78.16 302.9 -97.7 -263.8 -234.5 -205.2 -166.1
2.955 -234.5 -322.4 -185.6 146.6 68.39 -166.1 185.6 -58.62 97.7 -29.31 117.2 -48.85 527.6 48.85 498.3 -68.39 -224.7 -97.7 -97.7 -224.7
2.96 -429.9 -469 -185.6 127 -9.77 -185.6 107.5 9.77 97.7 9.77 39.08 -78.16 478.7 39.08 371.3 -107.5 -234.5 -87.93 -146.6 -342
2.965 -273.6 -459.2 -127 146.6 136.8 -166.1 205.2 -19.54 283.3 78.16 195.4 -166.1 439.7 29.31 449.4 -107.5 -136.8 -58.62 -39.08 -205.2
2.97 -136.8 -615.5 -78.16 136.8 117.2 -175.9 185.6 58.62 351.7 205.2 244.3 0 537.4 156.3 293.1 -136.8 -78.16 19.54 0 -195.4
2.975 -97.7 -351.7 -107.5 68.39 39.08 -175.9 58.62 -9.77 312.7 234.5 273.6 68.39 488.5 302.9 136.8 -58.62 -39.08 58.62 -9.77 -302.9
2.98 -48.85 -390.8 -87.93 -48.85 78.16 -234.5 117.2 -9.77 459.2 214.9 263.8 97.7 332.2 400.6 146.6 156.3 -19.54 -58.62 117.2 -39.08
2.985 -58.62 -332.2 -117.2 -48.85 78.16 -136.8 39.08 58.62 381 117.2 400.6 175.9 361.5 508.1 19.54 263.8 -87.93 -87.93 58.62 -117.2
2.99 -302.9 -29.31 -371.3 -166.1 -156.3 -175.9 -97.7 58.62 283.3 19.54 283.3 205.2 68.39 517.8 0 322.4 -351.7 -195.4 -39.08 -156.3
2.995 -420.1 -117.2 -381 -214.9 -78.16 0 -29.31 195.4 244.3 9.77 322.4 244.3 107.5 576.5 9.77 351.7 -420.1 -68.39 -29.31 -273.6
3 -566.7 -156.3 -449.4 -97.7 -224.7 117.2 -107.5 283.3 107.5 -117.2 234.5 234.5 0 615.5 39.08 273.6 -478.7 -68.39 -97.7 -302.9
3.005 -576.5 -156.3 -420.1 58.62 -146.6 205.2 48.85 410.4 234.5 156.3 263.8 263.8 97.7 713.2 195.4 390.8 -351.7 68.39 -9.77 -351.7
3.01 -655.1 -205.2 -361.5 117.2 -156.3 175.9 58.62 420.1 234.5 156.3 205.2 166.1 78.16 615.5 205.2 459.2 -332.2 146.6 -19.54 -332.2
3.015 -605.8 -273.6 -244.3 97.7 -48.85 87.93 214.9 488.5 508.1 371.3 175.9 244.3 127 693.7 351.7 556.9 -322.4 146.6 117.2 -332.2
3.02 -381 -537.4 -273.6 166.1 -78.16 39.08 175.9 527.6 547.1 508.1 283.3 254 332.2 644.8 302.9 732.8 -371.3 244.3 136.8 -390.8
3.025 -351.7 -469 -254 -48.85 -39.08 -97.7 175.9 381 547.1 371.3 195.4 166.1 449.4 674.2 302.9 703.5 -400.6 78.16 97.7 -224.7
3.03 -78.16 -517.8 -68.39 78.16 -19.54 -175.9 117.2 214.9 469 214.9 371.3 127 654.6 576.5 273.6 703.5 -332.2 29.31 9.77 -185.6
3.035 -29.31 -420.1 117.2 -58.62 97.7 -371.3 136.8 -97.7 449.4 -146.6 596 19.54 938 498.3 420.1 508.1 -48.85 -146.6 9.77 156.3
3.04 -39.08 -58.62 19.54 -127 0 -488.5 9.77 -195.4 254 -254 459.2 58.62 889.1 449.4 508.1 332.2 -166.1 -244.3 -214.9 39.08
3.045 -9.77 -175.9 68.39 -166.1 48.85 -508.1 9.77 -136.8 263.8 -263.8 420.1 127 986.8 429.9 508.1 244.3 -97.7 -214.9 -175.9 78.16
3.05 283.3 -195.4 117.2 -48.85 117.2 -410.4 58.62 97.7 283.3 -58.62 449.4 107.5 752.3 469 566.7 166.1 -127 -78.16 -87.93 0
3.055 195.4 -87.93 107.5 78.16 146.6 -293.1 127 263.8 312.7 -68.39 302.9 107.5 683.9 527.6 605.8 127 -48.85 58.62 19.54 -9.77
3.06 146.6 -312.7 39.08 127 -29.31 -322.4 0 342 136.8 -97.7 224.7 39.08 459.2 566.7 429.9 39.08 -146.6 48.85 -19.54 -78.16
3.065 -9.77 -224.7 48.85 107.5 -39.08 -390.8 19.54 224.7 224.7 -273.6 224.7 -58.62 390.8 537.4 478.7 -19.54 -29.31 -29.31 87.93 205.2
3.07 0 -449.4 175.9 58.62 9.77 -429.9 58.62 166.1 156.3 -342 351.7 -87.93 400.6 439.7 342 -68.39 39.08 87.93 39.08 97.7
3.075 -244.3 -293.1 214.9 185.6 19.54 -390.8 166.1 185.6 136.8 -361.5 342 -68.39 371.3 469 195.4 -39.08 185.6 175.9 136.8 166.1
3.08 97.7 -136.8 420.1 263.8 214.9 -146.6 244.3 263.8 146.6 -214.9 381 58.62 332.2 371.3 224.7 48.85 361.5 449.4 195.4 58.62
3.085 78.16 78.16 185.6 420.1 136.8 39.08 244.3 342 146.6 0 371.3 39.08 195.4 381 127 146.6 263.8 469 107.5 -68.39
3.09 156.3 214.9 283.3 361.5 127 195.4 175.9 361.5 -19.54 9.77 185.6 136.8 0 439.7 87.93 87.93 254 498.3 -29.31 -195.4
3.095 263.8 390.8 87.93 625.3 78.16 488.5 175.9 556.9 97.7 302.9 244.3 156.3 -9.77 576.5 136.8 244.3 263.8 703.5 -29.31 -390.8
3.1 -136.8 -107.5 -97.7 469 -29.31 439.7 146.6 576.5 146.6 361.5 -48.85 97.7 -175.9 566.7 175.9 146.6 68.39 576.5 -78.16 -371.3
3.105 -68.39 224.7 39.08 625.3 -58.62 625.3 156.3 556.9 185.6 410.4 -68.39 420.1 -156.3 693.7 283.3 293.1 136.8 537.4 -97.7 -332.2
3.11 -136.8 39.08 -19.54 664.4 9.77 547.1 117.2 400.6 87.93 273.6 -146.6 576.5 -58.62 732.8 254 302.9 185.6 400.6 -48.85 -127
3.115 -136.8 29.31 9.77 596 -48.85 459.2 9.77 146.6 -29.31 58.62 -322.4 723 -136.8 732.8 293.1 332.2 322.4 312.7 -127 -68.39
3.12 -107.5 361.5 107.5 586.2 -127 224.7 -146.6 -117.2 -263.8 -283.3 -361.5 869.6 -166.1 713.2 87.93 273.6 381 175.9 -332.2 29.31
3.125 -19.54 107.5 283.3 566.7 0 175.9 -19.54 -97.7 -205.2 -195.4 -263.8 781.6 -87.93 664.4 156.3 351.7 625.3 263.8 -273.6 68.39
3.13 -214.9 420.1 29.31 517.8 -175.9 78.16 -185.6 -146.6 -293.1 -224.7 -469 742.6 -263.8 576.5 39.08 293.1 302.9 214.9 -478.7 -107.5
3.135 136.8 283.3 175.9 498.3 -39.08 29.31 -107.5 -117.2 -146.6 -136.8 -283.3 713.2 -175.9 478.7 107.5 332.2 390.8 302.9 -371.3 -127
3.14 39.08 214.9 -48.85 420.1 -146.6 -29.31 -166.1 -136.8 -332.2 -244.3 -244.3 586.2 -234.5 400.6 -29.31 263.8 117.2 234.5 -439.7 -254
3.145 -117.2 -175.9 -156.3 254 -146.6 -48.85 -156.3 -195.4 -302.9 -254 -195.4 351.7 -273.6 322.4 -68.39 312.7 -39.08 146.6 -332.2 -146.6
3.15 -390.8 58.62 -175.9 214.9 -205.2 -263.8 -58.62 136.8 -39.08 -97.7 87.93 107.5 -312.7 -58.62 -410.4 361.5 -332.2 -136.8 0 -166.1
3.155 -410.4 78.16 -58.62 234.5 -48.85 -185.6 136.8 117.2 195.4 -29.31 254 322.4 -361.5 0 -322.4 410.4 -234.5 9.77 117.2 -127
3.16 -58.62 234.5 -29.31 205.2 97.7 -58.62 166.1 68.39 146.6 -58.62 371.3 234.5 -400.6 -19.54 -273.6 351.7 -107.5 136.8 97.7 -224.7
3.165 175.9 371.3 107.5 127 205.2 87.93 263.8 48.85 273.6 -48.85 224.7 302.9 -381 78.16 -224.7 263.8 19.54 254 185.6 -205.2
3.17 488.5 605.8 0 234.5 146.6 175.9 244.3 68.39 127 -68.39 273.6 410.4 -371.3 87.93 -156.3 273.6 78.16 234.5 68.39 -205.2
3.175 400.6 781.6 87.93 224.7 117.2 254 166.1 48.85 78.16 -19.54 58.62 390.8 -381 78.16 -78.16 234.5 97.7 273.6 107.5 -205.2
3.18 361.5 791.4 117.2 478.7 68.39 322.4 117.2 244.3 -9.77 117.2 -29.31 478.7 -224.7 205.2 -68.39 351.7 166.1 342 48.85 -263.8
3.185 48.85 556.9 97.7 263.8 -39.08 87.93 -9.77 78.16 -87.93 48.85 -224.7 263.8 -371.3 29.31 -39.08 293.1 156.3 195.4 -117.2 -205.2
3.19 -117.2 635.1 293.1 361.5 107.5 205.2 58.62 195.4 -9.77 127 -254 322.4 -342 19.54 -9.77 400.6 400.6 214.9 -78.16 -78.16
3.195 0 342 498.3 381 273.6 214.9 195.4 283.3 78.16 224.7 -312.7 273.6 -342 -39.08 39.08 469 576.5 361.5 -9.77 -39.08
3.2 -214.9 586.2 429.9 283.3 136.8 381 175.9 449.4 68.39 400.6 -302.9 254 -361.5 0 97.7 596 517.8 517.8 9.77 -175.9
3.205 234.5 537.4 615.5 351.7 361.5 488.5 302.9 615.5 175.9 537.4 -214.9 283.3 -205.2 0 29.31 498.3 723 683.9 156.3 -175.9
3.21 205.2 928.2 459.2 293.1 205.2 429.9 244.3 732.8 19.54 566.7 -185.6 371.3 -205.2 127 0 517.8 596 742.6 127 -283.3
3.215 302.9 1065 439.7 332.2 214.9 420.1 214.9 820.7 -19.54 625.3 -214.9 263.8 -185.6 263.8 -117.2 381 635.1 859.8 127 -390.8
3.22 234.5 967.3 381 195.4 185.6 244.3 185.6 801.2 -68.39 586.2 -283.3 410.4 -214.9 254 -127 342 410.4 830.5 97.7 -469
3.225 39.08 820.7 185.6 244.3 107.5 234.5 97.7 713.2 -156.3 527.6 -488.5 312.7 -302.9 273.6 -254 185.6 293.1 762.1 0 -556.9
3.23 -400.6 469 58.62 -48.85 -9.77 97.7 -19.54 508.1 -136.8 478.7 -527.6 29.31 -332.2 185.6 -166.1 214.9 19.54 439.7 -87.93 -429.9
3.235 -508.1 332.2 -39.08 39.08 -185.6 146.6 -195.4 332.2 -224.7 342 -693.7 9.77 -459.2 136.8 -254 68.39 -19.54 283.3 -234.5 -439.7
3.24 -674.6 273.6 -68.39 -166.1 -342 87.93 -254 244.3 -254 273.6 -840.3 -58.62 -605.8 146.6 -293.1 87.93 -107.5 78.16 -205.2 -332.2
3.245 -664.4 312.7 39.08 -234.5 -361.5 19.54 -293.1 87.93 -371.3 78.16 -771.9 -234.5 -576.5 127 -342 -156.3 -107.5 -9.77 -195.4 -254
3.25 -361.5 644.8 166.1 0 -312.7 175.9 -166.1 244.3 -332.2 224.7 -879.8 48.85 -655.1 283.3 -439.7 -87.93 29.31 58.62 -48.85 -224.7
3.255 -293.1 517.8 19.54 29.31 -293.1 293.1 -166.1 361.5 -400.6 146.6 -771.9 97.7 -635.6 302.9 -488.5 -244.3 -9.77 127 48.85 -302.9
3.26 166.1 820.7 107.5 234.5 -127 429.9 -39.08 381 -332.2 166.1 -625.3 185.6 -566.7 361.5 -371.3 -205.2 185.6 273.6 136.8 -351.7
3.265 39.08 605.8 48.85 400.6 -175.9 556.9 -78.16 439.7 -429.9 205.2 -674.6 371.3 -635.6 410.4 -596 -263.8 185.6 400.6 97.7 -439.7
3.27 371.3 615.5 224.7 527.6 9.77 664.4 97.7 498.3 -195.4 429.9 -527.6 429.9 -390.8 556.9 -488.5 -9.77 302.9 449.4 166.1 -351.7
3.275 371.3 644.8 508.1 556.9 136.8 703.5 156.3 439.7 -117.2 263.8 -469 596 -185.6 527.6 -517.8 -107.5 469 478.7 224.7 -195.4
3.28 410.4 742.6 556.9 723 273.6 742.6 254 439.7 19.54 283.3 -625.3 596 -166.1 605.8 -596 48.85 586.2 556.9 312.7 -195.4
3.285 459.2 1104 762.1 625.3 390.8 713.2 361.5 508.1 78.16 107.5 -547.6 527.6 29.31 644.8 -547.6 29.31 732.8 576.5 371.3 -107.5
3.29 107.5 1065 547.1 762.1 273.6 605.8 224.7 566.7 48.85 185.6 -693.7 576.5 -166.1 644.8 -586.2 87.93 596 566.7 283.3 -205.2
3.295 136.8 1212 439.7 654.6 166.1 654.6 117.2 644.8 -107.5 107.5 -576.5 586.2 -175.9 713.2 -615.5 107.5 547.1 576.5 224.7 -322.4
3.3 127 840.3 302.9 596 136.8 478.7 58.62 742.6 -117.2 429.9 -547.6 547.1 -224.7 674.2 -390.8 244.3 312.7 576.5 195.4 -459.2
3.305 156.3 635.1 224.7 517.8 68.39 283.3 48.85 664.4 9.77 322.4 -498.3 469 -234.5 644.8 -302.9 9.77 224.7 381 244.3 -361.5
3.31 156.3 576.5 136.8 390.8 78.16 48.85 19.54 605.8 68.39 342 -508.1 361.5 -283.3 674.2 -87.93 39.08 175.9 283.3 293.1 -214.9
3.315 224.7 420.1 146.6 400.6 97.7 -39.08 166.1 625.3 224.7 342 -381 234.5 -234.5 635.1 19.54 -29.31 127 214.9 390.8 -127
3.32 302.9 224.7 244.3 234.5 224.7 -68.39 322.4 517.8 293.1 185.6 -342 224.7 -136.8 664.4 205.2 -87.93 283.3 175.9 556.9 87.93
3.325 205.2 410.4 214.9 371.3 244.3 9.77 342 517.8 332.2 263.8 -136.8 195.4 -68.39 732.8 293.1 -19.54 283.3 361.5 488.5 -97.7
3.33 156.3 244.3 185.6 136.8 214.9 -136.8 322.4 273.6 224.7 -9.77 -97.7 48.85 97.7 576.5 293.1 -127 234.5 146.6 429.9 107.5
3.335 -107.5 224.7 78.16 -410.4 -117.2 -527.6 0 -371.3 -78.16 -332.2 -19.54 -508.1 -78.16 29.31 -136.8 -254 -39.08 -381 -117.2 166.1
3.34 9.77 146.6 -78.16 -547.6 -224.7 -655.1 -107.5 -488.5 -205.2 -263.8 -9.77 -635.6 -29.31 -78.16 -302.9 -332.2 -195.4 -517.8 -214.9 244.3
3.345 -68.39 -244.3 -214.9 -517.8 -302.9 -625.3 -185.6 -664.4 -254 -195.4 -146.6 -713.2 39.08 -29.31 -263.8 -293.1 -322.4 -655.1 -302.9 234.5
3.35 -19.54 -556.9 -195.4 -683.9 -381 -850 -214.9 -781.6 -381 -244.3 -214.9 -908.6 58.62 -107.5 -342 -273.6 -390.8 -791.4 -361.5 390.8
3.355 -156.3 -605.8 -273.6 -644.8 -351.7 -879.8 -205.2 -703.5 -449.4 -156.3 -381 -830.5 107.5 9.77 -195.4 -107.5 -429.9 -762.1 -361.5 332.2
3.36 -87.93 -820.7 -283.3 -644.8 -371.3 -957.5 -283.3 -732.8 -517.8 -322.4 -371.3 -859.8 78.16 9.77 -195.4 -195.4 -439.7 -840.3 -459.2 351.7
3.365 -136.8 -547.6 -273.6 -683.9 -283.3 -1075 -263.8 -586.2 -420.1 -205.2 -273.6 -693.7 -29.31 146.6 127 -87.93 -361.5 -869.6 -361.5 371.3
3.37 -332.2 -498.3 -439.7 -674.6 -459.2 -1064 -410.4 -478.7 -478.7 -214.9 -459.2 -635.6 -205.2 58.62 195.4 -234.5 -635.6 -810.9 -576.5 146.6
3.375 -78.16 -390.8 -312.7 -605.8 -273.6 -1016 -185.6 -351.7 -312.7 -58.62 -400.6 -449.4 -136.8 48.85 478.7 -195.4 -527.6 -703.5 -390.8 146.6
3.38 -469 -273.6 -381 -644.8 -254 -869.6 -205.2 -283.3 -283.3 87.93 -400.6 -449.4 9.77 -48.85 527.6 -175.9 -703.5 -625.3 -342 87.93
3.385 -302.9 -371.3 -254 -332.2 -48.85 -576.5 78.16 19.54 -58.62 351.7 -273.6 -302.9 214.9 -19.54 674.2 -78.16 -488.5 -459.2 -9.77 166.1
3.39 -166.1 -273.6 -302.9 -273.6 -87.93 -469 -9.77 107.5 -185.6 459.2 -195.4 -97.7 234.5 9.77 625.3 58.62 -517.8 -302.9 -9.77 0
3.395 -293.1 -410.4 -400.6 58.62 -78.16 -244.3 -68.39 273.6 -244.3 498.3 -127 0 175.9 166.1 693.7 185.6 -478.7 -48.85 87.93 -224.7
3.4 156.3 -400.6 -195.4 -39.08 0 -322.4 9.77 156.3 -244.3 185.6 87.93 -29.31 146.6 -29.31 615.5 29.31 -302.9 -87.93 127 -117.2
3.405 -9.77 48.85 -68.39 136.8 -19.54 -195.4 -29.31 136.8 -351.7 68.39 58.62 9.77 234.5 48.85 576.5 -9.77 -166.1 29.31 107.5 -185.6
3.41 29.31 -87.93 29.31 9.77 78.16 -361.5 78.16 -9.77 -234.5 -117.2 136.8 -58.62 312.7 48.85 498.3 -175.9 48.85 19.54 185.6 29.31
3.415 68.39 78.16 29.31 48.85 39.08 -439.7 -19.54 -107.5 -273.6 -293.1 97.7 -78.16 361.5 127 459.2 -439.7 -9.77 19.54 146.6 29.31
3.42 9.77 -48.85 -107.5 -146.6 -117.2 -576.5 -166.1 -224.7 -381 -439.7 48.85 -136.8 332.2 -29.31 302.9 -527.6 -58.62 -146.6 0 68.39
3.425 48.85 -214.9 -234.5 -117.2 -234.5 -527.6 -312.7 -205.2 -381 -342 39.08 -78.16 214.9 9.77 342 -517.8 -175.9 -166.1 -68.39 97.7
3.43 -19.54 -273.6 -351.7 -146.6 -381 -547.6 -459.2 -342 -449.4 -498.3 -107.5 -117.2 166.1 -127 146.6 -576.5 -214.9 -195.4 -263.8 58.62
3.435 -205.2 -351.7 -459.2 -166.1 -420.1 -586.2 -459.2 -400.6 -459.2 -390.8 -9.77 -117.2 117.2 -244.3 107.5 -488.5 -273.6 -293.1 -410.4 19.54
3.44 -478.7 -664.4 -644.8 -332.2 -576.5 -693.7 -547.6 -537.4 -469 -283.3 -293.1 -205.2 -29.31 -400.6 -48.85 -517.8 -429.9 -381 -596 -78.16
3.445 -361.5 -420.1 -586.2 -244.3 -498.3 -762.1 -488.5 -605.8 -478.7 -244.3 -29.31 -205.2 146.6 -439.7 -166.1 -429.9 -361.5 -459.2 -644.8 -29.31
3.45 -381 -566.7 -517.8 -312.7 -566.7 -732.8 -498.3 -625.3 -517.8 -156.3 -214.9 -283.3 156.3 -459.2 -254 -488.5 -400.6 -556.9 -713.2 29.31
3.455 -175.9 -175.9 -342 -146.6 -527.6 -625.3 -517.8 -655.1 -547.6 -136.8 -117.2 -224.7 322.4 -439.7 -312.7 -429.9 -263.8 -517.8 -683.9 9.77
3.46 -136.8 -185.6 -263.8 -293.1 -478.7 -674.6 -429.9 -625.3 -459.2 -244.3 -39.08 -283.3 390.8 -400.6 -254 -517.8 -234.5 -508.1 -625.3 175.9
3.465 -68.39 -9.77 -224.7 -107.5 -420.1 -517.8 -410.4 -429.9 -459.2 -68.39 29.31 -19.54 429.9 -146.6 -312.7 -322.4 -68.39 -469 -615.5 166.1
3.47 -273.6 -244.3 -429.9 -195.4 -488.5 -635.6 -410.4 -469 -390.8 0 -68.39 -48.85 117.2 -136.8 -322.4 -351.7 -185.6 -488.5 -635.6 136.8
3.475 -361.5 -175.9 -508.1 -117.2 -449.4 -527.6 -410.4 -302.9 -263.8 175.9 -39.08 78.16 136.8 39.08 -381 -214.9 -224.7 -390.8 -459.2 39.08
3.48 -322.4 -234.5 -556.9 -9.77 -351.7 -390.8 -361.5 -156.3 -156.3 361.5 -39.08 48.85 107.5 68.39 -381 -214.9 -332.2 -302.9 -371.3 -117.2
3.485 -390.8 -449.4 -576.5 -39.08 -302.9 -234.5 -312.7 -117.2 -97.7 273.6 -185.6 -19.54 214.9 -58.62 -312.7 -244.3 -351.7 -244.3 -234.5 -146.6
3.49 -175.9 -117.2 -459.2 -19.54 -351.7 -214.9 -273.6 -117.2 -19.54 263.8 -166.1 -58.62 283.3 -107.5 -273.6 -302.9 -312.7 -107.5 -195.4 -146.6
3.495 -185.6 -39.08 -371.3 107.5 -234.5 -29.31 -234.5 -19.54 0 283.3 -273.6 -29.31 312.7 -117.2 -68.39 -146.6 -244.3 78.16 -107.5 -214.9
3.5 -68.39 254 -400.6 -19.54 -478.7 -107.5 -449.4 -293.1 -244.3 -68.39 -449.4 -39.08 97.7 -244.3 -175.9 -332.2 -342 9.77 -420.1 -332.2
3.505 9.77 459.2 -234.5 117.2 -410.4 -48.85 -420.1 -351.7 -332.2 -185.6 -429.9 78.16 78.16 -156.3 -19.54 -166.1 -361.5 58.62 -488.5 -351.7
3.51 -205.2 214.9 -332.2 9.77 -596 -78.16 -615.5 -556.9 -527.6 -332.2 -615.5 48.85 -205.2 -302.9 -58.62 -263.8 -410.4 -48.85 -674.6 -312.7
3.515 -234.5 273.6 -439.7 -48.85 -615.5 -78.16 -655.1 -655.1 -655.1 -429.9 -664.4 117.2 -332.2 -214.9 -127 -293.1 -400.6 -39.08 -840.3 -322.4
3.52 -547.6 19.54 -449.4 -146.6 -713.2 -156.3 -762.1 -664.4 -771.9 -449.4 -791.4 0 -498.3 -371.3 -224.7 -351.7 -498.3 -156.3 -889.1 -234.5
3.525 -449.4 -185.6 -439.7 107.5 -703.5 -19.54 -723 -429.9 -732.8 -107.5 -752.3 97.7 -449.4 -107.5 -97.7 -136.8 -439.7 -48.85 -830.5 -293.1
3.53 -263.8 -254 -410.4 107.5 -732.8 -19.54 -762.1 -361.5 -801.2 -107.5 -625.3 273.6 -332.2 -107.5 -263.8 -185.6 -449.4 -107.5 -850 -263.8
3.535 -234.5 -146.6 -429.9 254 -723 19.54 -752.3 -322.4 -791.4 -58.62 -517.8 371.3 -234.5 -19.54 -136.8 -87.93 -449.4 -107.5 -762.1 -322.4
3.54 -244.3 48.85 -381 166.1 -674.6 -68.39 -723 -390.8 -732.8 -107.5 -498.3 342 -156.3 9.77 -312.7 -29.31 -420.1 -68.39 -655.1 -322.4
3.545 -48.85 361.5 -332.2 156.3 -459.2 78.16 -498.3 -420.1 -488.5 -9.77 -312.7 537.4 -9.77 48.85 -39.08 48.85 -342 48.85 -508.1 -312.7
3.55 29.31 381 -214.9 136.8 -283.3 -68.39 -342 -439.7 -351.7 -117.2 -322.4 283.3 -9.77 -117.2 -39.08 166.1 -254 48.85 -322.4 -214.9
3.555 146.6 302.9 -224.7 254 -87.93 214.9 -97.7 -136.8 -214.9 156.3 -263.8 469 29.31 78.16 195.4 371.3 -342 371.3 -156.3 -439.7
3.56 -19.54 146.6 -273.6 322.4 -156.3 263.8 -78.16 -68.39 -195.4 136.8 -342 400.6 9.77 -9.77 351.7 302.9 -371.3 390.8 -146.6 -508.1
3.565 -439.7 -420.1 -351.7 449.4 -97.7 136.8 0 29.31 -166.1 166.1 -322.4 459.2 19.54 117.2 527.6 185.6 -410.4 273.6 -19.54 -488.5
3.57 -439.7 -127 -469 205.2 -185.6 68.39 -68.39 29.31 -234.5 87.93 -342 332.2 -78.16 136.8 576.5 68.39 -469 224.7 0 -498.3
3.575 -596 -224.7 -429.9 459.2 -117.2 97.7 29.31 224.7 -117.2 410.4 -166.1 488.5 78.16 351.7 547.1 117.2 -449.4 273.6 127 -508.1
3.58 -107.5 -156.3 -273.6 185.6 87.93 97.7 214.9 263.8 9.77 302.9 58.62 342 195.4 390.8 508.1 68.39 -293.1 263.8 361.5 -332.2
3.585 78.16 302.9 -195.4 244.3 97.7 195.4 273.6 429.9 48.85 508.1 156.3 371.3 263.8 469 410.4 283.3 -224.7 381 400.6 -381
3.59 273.6 234.5 9.77 322.4 234.5 390.8 429.9 596 156.3 449.4 254 332.2 381 478.7 420.1 273.6 -29.31 469 488.5 -273.6
3.595 39.08 703.5 29.31 508.1 214.9 576.5 381 605.8 127 420.1 156.3 439.7 234.5 547.1 420.1 244.3 -29.31 576.5 371.3 -381
3.6 156.3 556.9 78.16 527.6 214.9 693.7 400.6 644.8 117.2 351.7 146.6 478.7 0 625.3 449.4 283.3 87.93 693.7 283.3 -478.7
3.605 -87.93 429.9 156.3 586.2 351.7 723 517.8 625.3 214.9 381 29.31 517.8 -166.1 664.4 508.1 244.3 224.7 703.5 351.7 -322.4
3.61 -166.1 -19.54 58.62 508.1 195.4 762.1 361.5 537.4 29.31 244.3 -107.5 322.4 -527.6 644.8 351.7 146.6 146.6 664.4 234.5 -322.4
3.615 -156.3 273.6 214.9 547.1 234.5 752.3 390.8 596 -48.85 224.7 -78.16 439.7 -605.8 791.4 195.4 185.6 166.1 723 244.3 -302.9
3.62 -390.8 97.7 78.16 449.4 29.31 664.4 175.9 449.4 -244.3 78.16 -283.3 205.2 -693.7 732.8 48.85 146.6 -9.77 566.7 127 -342
3.625 -146.6 302.9 107.5 263.8 -19.54 537.4 117.2 410.4 -342 -78.16 -312.7 302.9 -537.4 674.2 117.2 39.08 9.77 400.6 97.7 -244.3
3.63 -127 459.2 136.8 381 78.16 635.1 136.8 429.9 -312.7 -97.7 -420.1 342 -478.7 635.1 146.6 -19.54 166.1 371.3 127 -185.6
3.635 107.5 293.1 58.62 127 -48.85 596 9.77 390.8 -410.4 -214.9 -400.6 439.7 -429.9 517.8 156.3 -78.16 107.5 302.9 -9.77 -293.1
3.64 19.54 175.9 -127 273.6 -205.2 654.6 -146.6 381 -488.5 -263.8 -615.5 322.4 -664.4 390.8 -29.31 -244.3 -39.08 322.4 -156.3 -439.7
3.645 -107.5 97.7 -166.1 244.3 -156.3 596 -166.1 449.4 -488.5 -97.7 -556.9 420.1 -781.6 381 -127 -146.6 -136.8 302.9 -185.6 -439.7
3.65 -214.9 78.16 -244.3 273.6 -195.4 498.3 -166.1 498.3 -498.3 -136.8 -556.9 234.5 -781.6 381 -244.3 -58.62 -156.3 322.4 -107.5 -478.7
3.655 -195.4 -39.08 -48.85 498.3 -19.54 547.1 58.62 635.1 -293.1 127 -469 322.4 -732.8 537.4 -107.5 9.77 48.85 508.1 136.8 -449.4
3.66 -234.5 351.7 -9.77 693.7 29.31 752.3 127 723 -185.6 224.7 -498.3 322.4 -791.4 478.7 -136.8 68.39 127 683.9 214.9 -508.1
3.665 58.62 547.1 29.31 683.9 29.31 781.6 205.2 713.2 -117.2 263.8 -410.4 342 -742.6 498.3 -97.7 39.08 293.1 625.3 273.6 -410.4
3.67 -58.62 517.8 48.85 703.5 -97.7 898.9 19.54 693.7 -127 205.2 -527.6 420.1 -967.8 478.7 -254 -87.93 205.2 664.4 87.93 -547.6
3.675 175.9 850 185.6 830.5 0 986.8 48.85 723 -107.5 254 -214.9 693.7 -987.3 605.8 -293.1 9.77 371.3 781.6 117.2 -615.5
3.68 -78.16 537.4 244.3 459.2 9.77 654.6 9.77 517.8 -146.6 -39.08 -332.2 439.7 -938 527.6 -283.3 -29.31 283.3 596 48.85 -488.5
3.685 -58.62 566.7 302.9 596 58.62 801.2 48.85 527.6 -117.2 39.08 -185.6 644.8 -859.8 586.2 -117.2 156.3 312.7 576.5 127 -429.9
3.69 -19.54 459.2 127 381 -87.93 508.1 -97.7 263.8 -195.4 -244.3 -371.3 478.7 -889.1 371.3 -78.16 97.7 224.7 332.2 -29.31 -302.9
3.695 78.16 508.1 48.85 459.2 -195.4 566.7 -97.7 244.3 -107.5 -166.1 -459.2 556.9 -879.8 293.1 97.7 166.1 156.3 322.4 -48.85 -254
3.7 195.4 498.3 -87.93 459.2 -312.7 469 -254 97.7 -156.3 -283.3 -596 566.7 -1104 117.2 -68.39 78.16 175.9 175.9 -166.1 -146.6
3.705 586.2 508.1 195.4 537.4 -185.6 488.5 -166.1 58.62 -68.39 -459.2 -351.7 508.1 -947.7 19.54 29.31 -48.85 420.1 107.5 -97.7 48.85
3.71 429.9 410.4 244.3 547.1 -127 469 -146.6 19.54 -78.16 -615.5 -361.5 293.1 -879.8 -97.7 39.08 -175.9 547.1 58.62 -107.5 244.3
3.715 644.8 635.1 498.3 312.7 127 556.9 68.39 0 -19.54 -771.9 -39.08 254 -361.5 -146.6 254 -195.4 742.6 107.5 -39.08 381
3.72 752.3 644.8 732.8 420.1 429.9 586.2 312.7 19.54 87.93 -703.5 175.9 283.3 29.31 -293.1 410.4 -185.6 957.5 127 146.6 527.6
3.725 654.6 771.9 478.7 371.3 371.3 693.7 322.4 29.31 39.08 -596 244.3 273.6 136.8 -283.3 390.8 -214.9 830.5 117.2 48.85 400.6
3.73 723 830.5 576.5 361.5 508.1 508.1 361.5 -58.62 0 -615.5 371.3 273.6 146.6 -322.4 371.3 -312.7 771.9 29.31 166.1 429.9
3.735 537.4 517.8 263.8 400.6 371.3 390.8 322.4 -39.08 -9.77 -488.5 224.7 254 -97.7 -146.6 205.2 -312.7 439.7 39.08 175.9 273.6
3.74 469 312.7 322.4 263.8 342 127 283.3 -156.3 -39.08 -703.5 381 87.93 -9.77 19.54 205.2 -566.7 371.3 -39.08 195.4 283.3
3.745 498.3 156.3 351.7 234.5 469 -29.31 439.7 -58.62 195.4 -596 342 48.85 48.85 214.9 263.8 -400.6 381 -156.3 351.7 469
3.75 439.7 283.3 410.4 283.3 566.7 -48.85 478.7 9.77 371.3 -429.9 498.3 19.54 322.4 234.5 263.8 -293.1 410.4 -136.8 390.8 449.4
3.755 644.8 263.8 469 283.3 635.1 9.77 556.9 97.7 498.3 -302.9 674.2 29.31 615.5 214.9 410.4 -117.2 469 -97.7 508.1 478.7
3.76 615.5 488.5 400.6 146.6 635.1 87.93 517.8 224.7 469 -58.62 596 39.08 644.8 107.5 195.4 48.85 410.4 -48.85 469 342
3.765 586.2 469 293.1 -19.54 644.8 107.5 547.1 175.9 537.4 -19.54 527.6 -48.85 703.5 -58.62 166.1 9.77 342 -175.9 556.9 469
3.77 498.3 429.9 361.5 19.54 586.2 78.16 478.7 263.8 488.5 87.93 371.3 -107.5 586.2 -87.93 48.85 87.93 322.4 -87.93 527.6 371.3
3.775 322.4 254 195.4 0 566.7 -48.85 410.4 273.6 556.9 107.5 361.5 -224.7 410.4 -117.2 9.77 -9.77 166.1 -19.54 469 283.3
3.78 205.2 273.6 136.8 48.85 478.7 -283.3 273.6 254 478.7 166.1 214.9 -214.9 371.3 -146.6 -136.8 87.93 97.7 -19.54 302.9 185.6
3.785 214.9 146.6 127 234.5 400.6 -185.6 117.2 361.5 302.9 39.08 293.1 -166.1 332.2 -48.85 -195.4 146.6 9.77 39.08 87.93 9.77
3.79 293.1 449.4 -48.85 117.2 175.9 -263.8 -58.62 322.4 97.7 136.8 146.6 -87.93 224.7 -107.5 -478.7 224.7 -39.08 0 -146.6 -87.93
3.795 273.6 381 -87.93 156.3 78.16 -322.4 -175.9 224.7 -97.7 -39.08 127 -97.7 117.2 -244.3 -635.6 312.7 -185.6 -19.54 -381 -254
3.8 390.8 234.5 9.77 -39.08 9.77 -371.3 -234.5 19.54 -146.6 -214.9 127 -332.2 58.62 -351.7 -644.8 322.4 -107.5 -127 -439.7 -117.2
3.805 381 283.3 -117.2 -254 -48.85 -508.1 -351.7 -136.8 -224.7 -371.3 68.39 -351.7 -9.77 -469 -693.7 390.8 -195.4 -381 -498.3 -68.39
3.81 342 -19.54 -117.2 -185.6 9.77 -547.6 -293.1 -361.5 -146.6 -537.4 48.85 -517.8 0 -556.9 -596 390.8 -107.5 -498.3 -469 107.5
3.815 273.6 -214.9 -117.2 -429.9 39.08 -644.8 -312.7 -439.7 -87.93 -517.8 78.16 -498.3 -9.77 -537.4 -449.4 400.6 -48.85 -586.2 -469 166.1
3.82 234.5 -312.7 -78.16 -351.7 48.85 -674.6 -322.4 -498.3 -19.54 -449.4 97.7 -547.6 -68.39 -625.3 -322.4 283.3 58.62 -683.9 -439.7 273.6
3.825 78.16 -381 -39.08 -322.4 58.62 -596 -293.1 -439.7 97.7 -254 166.1 -635.6 9.77 -644.8 -146.6 322.4 48.85 -723 -459.2 312.7
3.83 97.7 -332.2 -156.3 -439.7 -185.6 -762.1 -508.1 -596 -68.39 -410.4 -48.85 -850 -48.85 -781.6 -234.5 29.31 -48.85 -859.8 -655.1 254
3.835 254 -283.3 -97.7 -439.7 -117.2 -664.4 -410.4 -547.6 146.6 -136.8 97.7 -791.4 175.9 -674.6 -29.31 185.6 -19.54 -771.9 -576.5 224.7
3.84 254 -195.4 -302.9 -615.5 -234.5 -703.5 -429.9 -615.5 195.4 -175.9 9.77 -850 87.93 -732.8 -19.54 -29.31 -185.6 -830.5 -547.6 175.9
3.845 185.6 -185.6 -312.7 -537.4 -117.2 -644.8 -312.7 -508.1 410.4 58.62 136.8 -655.1 107.5 -674.6 58.62 48.85 -166.1 -771.9 -390.8 175.9
3.85 97.7 -205.2 -302.9 -674.6 39.08 -527.6 -68.39 -312.7 644.8 332.2 166.1 -566.7 97.7 -605.8 39.08 39.08 -175.9 -703.5 -29.31 263.8
3.855 185.6 9.77 -68.39 -655.1 273.6 -273.6 214.9 0 947.7 674.2 302.9 -429.9 224.7 -537.4 166.1 166.1 -48.85 -410.4 381 283.3
3.86 -9.77 -205.2 39.08 -527.6 381 -87.93 381 254 1133 967.3 273.6 -469 244.3 -459.2 -19.54 273.6 -19.54 -234.5 625.3 263.8
3.865 58.62 -146.6 127 -469 469 166.1 420.1 469 1085 1016 420.1 -371.3 390.8 -390.8 -19.54 342 58.62 -107.5 654.6 205.2
3.87 9.77 -214.9 87.93 -635.6 332.2 205.2 214.9 478.7 859.8 1016 302.9 -390.8 312.7 -459.2 -166.1 371.3 -97.7 -68.39 488.5 29.31
3.875 -48.85 -19.54 156.3 -439.7 371.3 263.8 214.9 449.4 703.5 850 469 -175.9 390.8 -312.7 -175.9 439.7 39.08 68.39 351.7 -29.31
3.88 -19.54 -39.08 29.31 -693.7 254 146.6 87.93 293.1 351.7 674.2 400.6 -254 283.3 -449.4 -283.3 400.6 -78.16 68.39 127 -146.6
3.885 234.5 58.62 263.8 -488.5 351.7 156.3 175.9 185.6 332.2 517.8 332.2 -195.4 332.2 -342 -146.6 400.6 68.39 146.6 195.4 -29.31
3.89 302.9 -127 381 -332.2 429.9 97.7 293.1 127 214.9 361.5 342 -224.7 351.7 -381 -185.6 400.6 136.8 146.6 224.7 48.85
3.895 420.1 -9.77 214.9 -332.2 244.3 127 156.3 107.5 87.93 175.9 185.6 -97.7 312.7 -420.1 -156.3 283.3 -58.62 224.7 107.5 -68.39
3.9 312.7 -68.39 322.4 -302.9 234.5 127 146.6 68.39 156.3 107.5 107.5 -68.39 293.1 -420.1 -175.9 322.4 -78.16 234.5 97.7 -78.16
3.905 107.5 -273.6 146.6 -410.4 166.1 195.4 146.6 97.7 234.5 68.39 78.16 -19.54 263.8 -390.8 -117.2 224.7 -146.6 136.8 39.08 -39.08
3.91 -205.2 -302.9 9.77 -410.4 9.77 244.3 48.85 87.93 244.3 127 -29.31 -97.7 -97.7 -322.4 -185.6 127 -244.3 68.39 -97.7 -97.7
3.915 -332.2 -302.9 117.2 -302.9 58.62 224.7 78.16 87.93 342 429.9 117.2 -78.16 -29.31 -136.8 -117.2 244.3 -205.2 -19.54 -68.39 -146.6
3.92 -195.4 -517.8 0 -537.4 -68.39 -97.7 -9.77 -136.8 195.4 175.9 9.77 -254 -254 -175.9 -361.5 -19.54 -390.8 -185.6 -214.9 -127
3.925 -263.8 -78.16 87.93 -478.7 0 -205.2 87.93 -58.62 263.8 283.3 136.8 -146.6 -39.08 -166.1 -400.6 48.85 -322.4 -185.6 -78.16 -58.62
3.93 58.62 -87.93 48.85 -556.9 -58.62 -361.5 58.62 -136.8 234.5 175.9 29.31 -214.9 48.85 -263.8 -625.3 -68.39 -381 -234.5 29.31 39.08
3.935 0 205.2 -29.31 -439.7 -107.5 -254 29.31 -29.31 195.4 234.5 -78.16 -185.6 39.08 -254 -752.3 -185.6 -488.5 -175.9 68.39 -78.16
3.94 -107.5 97.7 -48.85 -517.8 -175.9 -224.7 58.62 68.39 293.1 263.8 19.54 -332.2 166.1 -371.3 -869.6 -254 -420.1 -273.6 283.3 97.7
3.945 -127 -29.31 -156.3 -351.7 -195.4 -136.8 -58.62 87.93 273.6 283.3 -39.08 -263.8 39.08 -312.7 -938 -381 -459.2 -351.7 244.3 78.16
3.95 -459.2 -547.6 -185.6 -742.6 -254 -410.4 -136.8 -107.5 293.1 146.6 -58.62 -488.5 29.31 -517.8 -1025 -605.8 -527.6 -556.9 166.1 195.4
3.955 -351.7 -556.9 -263.8 -556.9 -224.7 -322.4 -68.39 -127 381 127 -107.5 -293.1 -29.31 -459.2 -889.1 -605.8 -459.2 -449.4 185.6 205.2
3.96 -48.85 -977.5 -58.62 -723 -39.08 -449.4 19.54 -224.7 469 29.31 -87.93 -527.6 -9.77 -596 -859.8 -655.1 -351.7 -498.3 127 361.5
3.965 -78.16 -889.1 -185.6 -703.5 -68.39 -556.9 29.31 -283.3 390.8 -87.93 -107.5 -439.7 39.08 -556.9 -801.2 -605.8 -449.4 -449.4 39.08 322.4
3.97 -68.39 -664.4 -48.85 -674.6 97.7 -586.2 68.39 -293.1 302.9 -166.1 -9.77 -556.9 48.85 -693.7 -801.2 -566.7 -332.2 -390.8 19.54 361.5
3.975 -39.08 -586.2 68.39 -527.6 234.5 -644.8 185.6 -244.3 293.1 -136.8 87.93 -537.4 39.08 -664.4 -596 -478.7 -254 -175.9 78.16 322.4
3.98 -195.4 -273.6 87.93 -410.4 342 -625.3 244.3 -302.9 234.5 -254 107.5 -508.1 107.5 -644.8 -644.8 -527.6 -214.9 -68.39 107.5 254
3.985 9.77 -87.93 127 -244.3 381 -371.3 283.3 -146.6 283.3 -68.39 97.7 -381 -39.08 -488.5 -655.1 -420.1 -97.7 58.62 234.5 185.6
3.99 97.7 -175.9 146.6 224.7 420.1 -58.62 371.3 39.08 302.9 166.1 48.85 -361.5 -9.77 -283.3 -556.9 -361.5 87.93 205.2 342 136.8
3.995 58.62 -117.2 68.39 117.2 293.1 -68.39 254 48.85 263.8 351.7 -58.62 -224.7 -166.1 -175.9 -566.7 -214.9 -29.31 127 254 29.31
4 -58.62 -312.7 -156.3 293.1 87.93 107.5 58.62 136.8 136.8 527.6 -205.2 -244.3 -312.7 -224.7 -420.1 -166.1 -68.39 175.9 107.5 -127
4.005 87.93 -371.3 97.7 263.8 205.2 195.4 205.2 254 234.5 644.8 -68.39 0 -214.9 -127 -214.9 -29.31 127 214.9 195.4 -9.77
4.01 -234.5 -195.4 9.77 166.1 29.31 175.9 -39.08 205.2 0 615.5 -117.2 -97.7 -351.7 -166.1 -371.3 -97.7 58.62 263.8 -39.08 -166.1
4.015 -87.93 78.16 205.2 244.3 195.4 302.9 9.77 224.7 29.31 586.2 107.5 -39.08 -283.3 -58.62 -371.3 -97.7 156.3 361.5 68.39 -166.1
4.02 -29.31 381 273.6 302.9 136.8 371.3 0 195.4 -29.31 488.5 68.39 0 -332.2 68.39 -459.2 -205.2 205.2 410.4 48.85 -146.6
4.025 117.2 469 283.3 175.9 205.2 234.5 58.62 107.5 39.08 312.7 195.4 -146.6 -214.9 -9.77 -322.4 -175.9 361.5 234.5 117.2 29.31
4.03 97.7 420.1 214.9 273.6 146.6 244.3 87.93 19.54 58.62 156.3 117.2 -68.39 -127 97.7 -332.2 -146.6 342 166.1 146.6 127
4.035 214.9 117.2 283.3 283.3 273.6 214.9 351.7 58.62 332.2 127 97.7 29.31 29.31 78.16 -127 136.8 576.5 117.2 312.7 322.4
4.04 127 -87.93 283.3 175.9 244.3 107.5 273.6 19.54 283.3 -166.1 -19.54 9.77 -107.5 39.08 -254 127 429.9 68.39 263.8 254
4.045 -19.54 -449.4 254 390.8 244.3 127 342 107.5 449.4 29.31 -29.31 48.85 -146.6 127 -136.8 224.7 449.4 48.85 371.3 312.7
4.05 -19.54 -488.5 68.39 185.6 87.93 127 166.1 175.9 332.2 -9.77 -146.6 -48.85 -342 87.93 -166.1 146.6 146.6 68.39 224.7 87.93
4.055 -78.16 19.54 -58.62 498.3 -19.54 322.4 107.5 390.8 322.4 156.3 -127 166.1 -283.3 342 -175.9 166.1 58.62 273.6 205.2 -185.6
4.06 -87.93 254 -175.9 371.3 -244.3 205.2 -29.31 283.3 117.2 234.5 -312.7 185.6 -342 312.7 -224.7 107.5 -166.1 254 9.77 -390.8
4.065 -214.9 723 -156.3 351.7 -254 175.9 68.39 214.9 254 234.5 -283.3 381 -214.9 420.1 -195.4 146.6 -87.93 254 107.5 -263.8
4.07 -400.6 469 -185.6 361.5 -293.1 127 -19.54 68.39 166.1 244.3 -273.6 400.6 -195.4 400.6 -156.3 185.6 -48.85 254 48.85 -322.4
4.075 -156.3 371.3 29.31 302.9 -136.8 302.9 127 -48.85 283.3 234.5 -175.9 420.1 -58.62 517.8 166.1 234.5 146.6 312.7 205.2 -107.5
4.08 -293.1 78.16 -39.08 322.4 -214.9 420.1 -58.62 -156.3 166.1 -9.77 -166.1 351.7 -107.5 449.4 205.2 185.6 127 273.6 78.16 -68.39
4.085 205.2 0 254 390.8 -117.2 537.4 -58.62 -224.7 87.93 -234.5 19.54 361.5 58.62 556.9 371.3 87.93 283.3 254 127 166.1
4.09 156.3 -117.2 283.3 361.5 -58.62 459.2 -195.4 -351.7 -175.9 -517.8 97.7 312.7 -29.31 439.7 263.8 -97.7 302.9 136.8 -9.77 263.8
4.095 117.2 -263.8 254 371.3 -185.6 449.4 -312.7 -449.4 -410.4 -605.8 127 420.1 0 439.7 9.77 48.85 224.7 136.8 -127 205.2
4.1 -97.7 -68.39 361.5 371.3 -58.62 361.5 -302.9 -459.2 -576.5 -586.2 234.5 449.4 -29.31 361.5 -19.54 87.93 312.7 127 -146.6 224.7
4.105 -166.1 107.5 214.9 302.9 -127 478.7 -371.3 -371.3 -742.6 -488.5 39.08 566.7 -146.6 400.6 -146.6 283.3 166.1 146.6 -234.5 68.39
4.11 -175.9 508.1 254 420.1 -48.85 537.4 -224.7 -195.4 -566.7 -185.6 58.62 752.3 -97.7 439.7 19.54 508.1 254 312.7 -107.5 29.31
4.115 -312.7 693.7 146.6 527.6 -127 723 -214.9 -48.85 -459.2 48.85 39.08 859.8 -322.4 654.6 78.16 703.5 195.4 566.7 -48.85 -205.2
4.12 -156.3 527.6 166.1 674.2 -29.31 791.4 -87.93 19.54 -244.3 87.93 156.3 801.2 -244.3 791.4 87.93 703.5 322.4 654.6 107.5 -175.9
4.125 -254 400.6 39.08 732.8 -19.54 859.8 -78.16 29.31 39.08 175.9 293.1 869.6 -214.9 820.7 136.8 674.2 322.4 644.8 175.9 -127
4.13 58.62 293.1 322.4 625.3 195.4 791.4 0 19.54 175.9 146.6 469 703.5 -127 850 136.8 625.3 508.1 644.8 224.7 -19.54
4.135 -195.4 -78.16 19.54 625.3 175.9 576.5 39.08 -107.5 185.6 -9.77 478.7 605.8 -117.2 713.2 156.3 488.5 322.4 469 234.5 48.85
4.14 -381 -117.2 58.62 381 58.62 429.9 39.08 -146.6 107.5 29.31 342 537.4 -214.9 547.1 87.93 469 185.6 322.4 214.9 78.16
4.145 -390.8 -254 -48.85 224.7 48.85 312.7 48.85 -185.6 -9.77 19.54 302.9 439.7 -224.7 517.8 127 488.5 117.2 195.4 166.1 136.8
4.15 -566.7 -400.6 -146.6 107.5 -39.08 127 78.16 -332.2 -127 -254 166.1 390.8 -127 449.4 136.8 420.1 19.54 -39.08 146.6 322.4
4.155 -576.5 -273.6 -205.2 -136.8 -48.85 78.16 19.54 -293.1 -332.2 -175.9 -19.54 420.1 -156.3 478.7 146.6 566.7 29.31 -29.31 48.85 244.3
4.16 -547.6 -332.2 -254 -146.6 -19.54 -48.85 -39.08 -312.7 -420.1 -293.1 -254 390.8 -87.93 537.4 87.93 517.8 -9.77 -58.62 -29.31 175.9
4.165 -449.4 -175.9 -117.2 -146.6 97.7 -127 39.08 -351.7 -371.3 -351.7 -87.93 400.6 48.85 615.5 224.7 439.7 68.39 -58.62 -58.62 263.8
4.17 -547.6 -58.62 -234.5 -48.85 39.08 -136.8 19.54 -205.2 -400.6 -224.7 -371.3 429.9 -48.85 654.6 195.4 469 48.85 9.77 -9.77 156.3
4.175 -420.1 -175.9 -117.2 -58.62 -9.77 -146.6 87.93 -185.6 -332.2 -312.7 -97.7 429.9 146.6 566.7 429.9 332.2 58.62 -58.62 9.77 224.7
4.18 -547.6 -68.39 -312.7 224.7 -136.8 107.5 -39.08 117.2 -351.7 -78.16 -400.6 371.3 39.08 644.8 332.2 508.1 -117.2 175.9 -39.08 -97.7
4.185 -459.2 -371.3 -185.6 146.6 -58.62 19.54 -48.85 87.93 -254 -185.6 -273.6 390.8 234.5 488.5 498.3 420.1 -58.62 58.62 0 68.39
4.19 -566.7 -332.2 -449.4 205.2 -234.5 185.6 -214.9 224.7 -302.9 -107.5 -400.6 390.8 146.6 420.1 351.7 342 -214.9 29.31 -117.2 -68.39
4.195 -527.6 -723 -342 -48.85 -146.6 -107.5 -175.9 -9.77 -107.5 -361.5 -312.7 332.2 244.3 224.7 556.9 39.08 -107.5 -254 -127 234.5
4.2 -351.7 -449.4 -224.7 -107.5 -175.9 -302.9 -195.4 -39.08 -185.6 -469 -156.3 342 234.5 205.2 615.5 -87.93 -19.54 -351.7 -195.4 263.8
4.205 -381 -420.1 -224.7 -234.5 -185.6 -449.4 -136.8 -136.8 -146.6 -508.1 -9.77 136.8 381 107.5 801.2 -214.9 -29.31 -517.8 -185.6 508.1
4.21 -136.8 -312.7 -117.2 -29.31 -39.08 -488.5 -117.2 -117.2 -224.7 -439.7 195.4 97.7 537.4 166.1 889.1 -78.16 48.85 -488.5 -263.8 429.9
4.215 -166.1 -332.2 -205.2 -78.16 0 -420.1 -87.93 -19.54 -273.6 -342 244.3 -48.85 625.3 244.3 889.1 -97.7 -156.3 -400.6 -332.2 302.9
4.22 -9.77 -293.1 -29.31 -58.62 117.2 -342 29.31 -136.8 -273.6 -342 361.5 -87.93 791.4 127 859.8 -68.39 9.77 -361.5 -302.9 322.4
4.225 -283.3 -449.4 -136.8 -175.9 195.4 -361.5 78.16 -166.1 -195.4 -429.9 263.8 -263.8 820.7 195.4 791.4 -166.1 -58.62 -400.6 -214.9 400.6
4.23 -234.5 -429.9 48.85 -29.31 273.6 -263.8 156.3 -29.31 -156.3 -312.7 302.9 -136.8 791.4 263.8 605.8 -185.6 136.8 -244.3 -78.16 420.1
4.235 -420.1 -683.9 -78.16 -185.6 185.6 -302.9 146.6 0 -136.8 -293.1 127 -195.4 752.3 322.4 605.8 -97.7 78.16 -263.8 29.31 390.8
4.24 -605.8 -898.9 -97.7 -127 87.93 -166.1 156.3 185.6 -19.54 -87.93 -29.31 -214.9 605.8 322.4 508.1 -127 146.6 -127 224.7 351.7
4.245 -1085 -1260 -312.7 -371.3 19.54 -195.4 263.8 283.3 58.62 -136.8 -420.1 -205.2 615.5 302.9 586.2 -39.08 -19.54 -214.9 420.1 478.7
4.25 -1006 -1329 -390.8 -459.2 -117.2 -127 175.9 390.8 -9.77 0 -429.9 -283.3 537.4 302.9 390.8 -175.9 -127 -107.5 263.8 273.6
4.255 -957.5 -1016 -332.2 -381 -175.9 -185.6 39.08 283.3 -263.8 -293.1 -537.4 -234.5 469 117.2 263.8 -400.6 -195.4 -195.4 117.2 205.2
4.26 -810.9 -918.4 -381 -361.5 -283.3 -244.3 -214.9 156.3 -576.5 -371.3 -312.7 -302.9 302.9 117.2 136.8 -508.1 -381 -136.8 -175.9 -9.77
4.265 -478.7 -605.8 -615.5 -244.3 -576.5 -322.4 -635.6 -9.77 -987.3 -527.6 -244.3 -302.9 146.6 -29.31 -39.08 -605.8 -586.2 -293.1 -635.6 -283.3
4.27 -312.7 -556.9 -498.3 -205.2 -664.4 -283.3 -723 -97.7 -1085 -498.3 -263.8 -224.7 0 -19.54 -48.85 -498.3 -547.6 -195.4 -683.9 -312.7
4.275 -596 -537.4 -801.2 -332.2 -869.6 -312.7 -889.1 -48.85 -1143 -429.9 -322.4 -214.9 -224.7 -19.54 -136.8 -439.7 -830.5 -312.7 -830.5 -547.6
4.28 -195.4 -29.31 -371.3 -48.85 -351.7 19.54 -508.1 -586.2 -655.1 -361.5 -214.9 -351.7 -342 -273.6 -664.4 -214.9 -625.3 -146.6 -664.4 -420.1
4.285 -185.6 -195.4 -244.3 -107.5 -293.1 9.77 -332.2 -547.6 -498.3 -410.4 -185.6 -234.5 -478.7 -371.3 -625.3 -302.9 -537.4 -117.2 -576.5 -312.7
4.29 -166.1 107.5 -254 29.31 -302.9 185.6 -361.5 -429.9 -517.8 -449.4 -214.9 -175.9 -644.8 -469 -781.6 -429.9 -478.7 48.85 -439.7 -312.7
4.295 -175.9 -78.16 -136.8 -29.31 -195.4 283.3 -136.8 -263.8 -302.9 -224.7 -97.7 -78.16 -625.3 -576.5 -655.1 -420.1 -361.5 234.5 -205.2 -273.6
4.3 -48.85 -127 19.54 -19.54 9.77 263.8 39.08 -175.9 -205.2 -254 48.85 -263.8 -576.5 -703.5 -625.3 -361.5 -166.1 351.7 78.16 -87.93
4.305 175.9 -9.77 107.5 254 136.8 469 107.5 0 -195.4 19.54 175.9 -107.5 -508.1 -586.2 -625.3 -332.2 -48.85 605.8 136.8 -214.9
4.31 -9.77 -87.93 136.8 175.9 175.9 390.8 58.62 -58.62 -195.4 -107.5 166.1 -263.8 -576.5 -517.8 -596 -273.6 39.08 556.9 175.9 -87.93
4.315 293.1 263.8 224.7 429.9 263.8 488.5 58.62 29.31 -195.4 0 214.9 -39.08 -586.2 -312.7 -537.4 -127 127 625.3 185.6 -185.6
4.32 166.1 -48.85 195.4 371.3 195.4 361.5 9.77 -29.31 -214.9 -19.54 107.5 -68.39 -625.3 -156.3 -381 -87.93 146.6 566.7 78.16 -244.3
4.325 263.8 263.8 205.2 332.2 195.4 234.5 9.77 -97.7 -78.16 0 205.2 -68.39 -605.8 -97.7 -185.6 -117.2 117.2 429.9 29.31 -156.3
4.33 166.1 48.85 78.16 322.4 146.6 224.7 0 29.31 -68.39 175.9 97.7 -273.6 -605.8 -48.85 -78.16 19.54 -9.77 459.2 9.77 -254
4.335 58.62 -214.9 205.2 48.85 381 234.5 234.5 78.16 97.7 224.7 205.2 -283.3 -488.5 -19.54 78.16 29.31 58.62 478.7 166.1 -117.2
4.34 146.6 312.7 19.54 -39.08 127 9.77 19.54 -175.9 19.54 29.31 39.08 -381 -605.8 -146.6 0 -146.6 0 146.6 68.39 29.31
4.345 195.4 97.7 166.1 -302.9 175.9 -175.9 156.3 -322.4 166.1 -205.2 -78.16 -263.8 -527.6 -214.9 146.6 -224.7 234.5 -97.7 205.2 469
4.35 361.5 390.8 107.5 -293.1 -19.54 -449.4 -107.5 -635.6 -29.31 -596 -322.4 -48.85 -752.3 -293.1 48.85 -410.4 293.1 -478.7 -58.62 664.4
4.355 556.9 498.3 185.6 -205.2 -175.9 -674.6 -322.4 -820.7 -87.93 -762.1 -488.5 -19.54 -820.7 -283.3 136.8 -381 293.1 -703.5 -234.5 742.6
4.36 195.4 302.9 0 -39.08 -400.6 -596 -576.5 -655.1 -420.1 -713.2 -810.9 -29.31 -938 -117.2 -234.5 -351.7 127 -586.2 -556.9 371.3
4.365 -68.39 136.8 -97.7 -166.1 -390.8 -683.9 -556.9 -605.8 -332.2 -537.4 -869.6 -205.2 -918.4 -29.31 -234.5 -283.3 -9.77 -683.9 -556.9 371.3
4.37 -19.54 -234.5 -205.2 -322.4 -361.5 -674.6 -576.5 -586.2 -361.5 -664.4 -898.9 -420.1 -781.6 -39.08 -400.6 -410.4 -48.85 -791.4 -498.3 439.7
4.375 -48.85 -234.5 -205.2 -429.9 -332.2 -791.4 -351.7 -527.6 -97.7 -508.1 -781.6 -605.8 -527.6 -68.39 -254 -351.7 -97.7 -908.6 -381 605.8
4.38 -68.39 -517.8 -273.6 -840.3 -410.4 -742.6 -351.7 -576.5 -78.16 -596 -830.5 -655.1 -508.1 -263.8 -302.9 -400.6 -283.3 -947.7 -342 556.9
4.385 -78.16 -429.9 -390.8 -869.6 -469 -732.8 -293.1 -556.9 97.7 -517.8 -664.4 -586.2 -459.2 -322.4 -214.9 -361.5 -478.7 -1055 -371.3 498.3
4.39 -283.3 -107.5 -517.8 -938 -655.1 -664.4 -439.7 -459.2 19.54 -381 -713.2 -508.1 -459.2 -361.5 -381 -273.6 -655.1 -947.7 -498.3 224.7
4.395 -244.3 9.77 -459.2 -879.8 -381 -498.3 -166.1 -371.3 254 -205.2 -488.5 -381 -205.2 -332.2 -214.9 -156.3 -635.6 -840.3 -263.8 234.5
4.4 -361.5 205.2 -478.7 -879.8 -263.8 -488.5 -127 -371.3 224.7 -136.8 -400.6 -205.2 -175.9 -312.7 -263.8 -107.5 -556.9 -635.6 -293.1 39.08
4.405 -214.9 195.4 -254 -830.5 -9.77 -293.1 78.16 -283.3 361.5 -39.08 -224.7 -68.39 136.8 -244.3 -166.1 -29.31 -371.3 -527.6 -68.39 156.3
4.41 -566.7 -39.08 -263.8 -840.3 -29.31 -332.2 0 -390.8 185.6 -195.4 -293.1 -39.08 9.77 -351.7 -322.4 -185.6 -381 -488.5 -136.8 146.6
4.415 -527.6 -19.54 -58.62 -683.9 68.39 -97.7 127 -127 175.9 39.08 -224.7 48.85 185.6 -195.4 -234.5 19.54 -263.8 -214.9 -107.5 29.31
4.42 -771.9 -234.5 -97.7 -644.8 0 -127 -29.31 -127 107.5 68.39 -312.7 -68.39 19.54 -244.3 -351.7 -9.77 -390.8 -117.2 -136.8 -97.7
4.425 -655.1 -87.93 -29.31 -556.9 -19.54 -68.39 -68.39 -48.85 58.62 136.8 -293.1 -9.77 29.31 -117.2 -175.9 19.54 -410.4 -19.54 -234.5 -175.9
4.43 -556.9 78.16 -87.93 -459.2 -29.31 -78.16 -127 -48.85 87.93 136.8 -166.1 -117.2 -39.08 -87.93 -78.16 39.08 -410.4 19.54 -175.9 -146.6
4.435 -87.93 87.93 58.62 -342 58.62 9.77 29.31 -48.85 283.3 136.8 29.31 -117.2 19.54 -19.54 195.4 19.54 -244.3 19.54 -78.16 0
4.44 117.2 244.3 156.3 -195.4 185.6 19.54 97.7 -175.9 420.1 29.31 9.77 -166.1 68.39 -68.39 293.1 -97.7 -9.77 68.39 9.77 107.5
4.445 136.8 214.9 273.6 -214.9 254 97.7 254 -214.9 556.9 -19.54 87.93 -214.9 254 -68.39 342 -234.5 117.2 9.77 68.39 302.9
4.45 195.4 263.8 459.2 -68.39 342 117.2 342 -224.7 615.5 68.39 97.7 -244.3 332.2 -97.7 302.9 -146.6 293.1 39.08 127 322.4
4.455 127 68.39 322.4 -263.8 214.9 -78.16 273.6 -302.9 576.5 146.6 107.5 -254 361.5 -234.5 214.9 -107.5 224.7 -48.85 29.31 302.9
4.46 -78.16 -166.1 400.6 -195.4 390.8 0 488.5 -263.8 762.1 390.8 127 -254 459.2 -205.2 224.7 146.6 293.1 97.7 244.3 302.9
4.465 156.3 -175.9 566.7 -312.7 537.4 -156.3 723 -234.5 1075 459.2 273.6 -254 547.1 -263.8 361.5 205.2 459.2 -68.39 478.7 586.2
4.47 29.31 -146.6 498.3 -371.3 566.7 -127 771.9 -214.9 1085 420.1 205.2 -234.5 566.7 -283.3 420.1 214.9 439.7 -87.93 586.2 654.6
4.475 254 -58.62 537.4 -332.2 683.9 -205.2 840.3 -156.3 1124 361.5 175.9 -185.6 635.1 -205.2 410.4 127 498.3 9.77 654.6 625.3
4.48 166.1 -136.8 342 -400.6 429.9 -195.4 605.8 -205.2 850 214.9 68.39 -136.8 439.7 -263.8 175.9 9.77 351.7 -9.77 527.6 469
4.485 166.1 -449.4 68.39 -381 361.5 -312.7 478.7 -224.7 840.3 312.7 -97.7 -136.8 302.9 -293.1 9.77 -78.16 332.2 -107.5 508.1 478.7
4.49 -58.62 -527.6 58.62 -469 244.3 -283.3 351.7 -146.6 801.2 429.9 -175.9 -127 127 -420.1 -97.7 -146.6 205.2 -117.2 517.8 488.5
4.495 -166.1 -302.9 29.31 -508.1 234.5 -381 351.7 -107.5 908.6 605.8 -39.08 -39.08 244.3 -410.4 -78.16 -127 234.5 -136.8 635.1 527.6
4.5 -312.7 -97.7 97.7 -537.4 205.2 -381 293.1 9.77 898.9 586.2 -195.4 19.54 214.9 -478.7 -9.77 -400.6 185.6 -58.62 644.8 400.6
4.505 -332.2 214.9 185.6 -498.3 195.4 -478.7 371.3 9.77 1026 644.8 19.54 87.93 429.9 -400.6 87.93 -381 117.2 -136.8 615.5 400.6
4.51 -9.77 39.08 87.93 -449.4 175.9 -400.6 312.7 78.16 918.4 674.2 -146.6 39.08 517.8 -410.4 9.77 -508.1 136.8 -107.5 586.2 283.3
4.515 -39.08 -146.6 136.8 -351.7 175.9 -283.3 293.1 -39.08 781.6 498.3 -195.4 -9.77 703.5 -312.7 -146.6 -527.6 166.1 -117.2 410.4 224.7
4.52 29.31 -302.9 48.85 -381 58.62 -361.5 175.9 -136.8 586.2 332.2 -195.4 -68.39 742.6 -381 -293.1 -586.2 117.2 -127 293.1 214.9
4.525 -117.2 -371.3 58.62 -351.7 68.39 -351.7 156.3 -293.1 508.1 175.9 -361.5 -107.5 693.7 -429.9 -361.5 -537.4 136.8 -283.3 254 390.8
4.53 -195.4 -244.3 175.9 -371.3 156.3 -410.4 146.6 -175.9 478.7 234.5 -322.4 -19.54 742.6 -371.3 -342 -459.2 146.6 -166.1 254 361.5
4.535 -78.16 68.39 254 -283.3 361.5 -449.4 244.3 -136.8 527.6 283.3 -195.4 107.5 840.3 -273.6 -166.1 -342 244.3 -136.8 390.8 537.4
4.54 205.2 58.62 449.4 -351.7 449.4 -488.5 322.4 -48.85 576.5 273.6 -58.62 68.39 908.6 -234.5 0 -332.2 381 0 322.4 459.2
4.545 351.7 -19.54 508.1 -410.4 508.1 -635.6 342 -107.5 586.2 175.9 9.77 127 947.7 -107.5 48.85 -351.7 439.7 -117.2 244.3 596
4.55 342 39.08 429.9 -371.3 381 -586.2 175.9 -205.2 469 -48.85 156.3 97.7 810.9 -136.8 185.6 -371.3 410.4 -166.1 9.77 508.1
4.555 156.3 -420.1 420.1 -381 371.3 -683.9 185.6 -332.2 508.1 -214.9 244.3 -39.08 742.6 -205.2 244.3 -390.8 459.2 -234.5 -68.39 537.4
4.56 166.1 -214.9 361.5 -351.7 361.5 -547.6 127 -371.3 429.9 -342 224.7 -107.5 576.5 -293.1 185.6 -478.7 517.8 -68.39 -107.5 390.8
4.565 48.85 -166.1 342 -371.3 351.7 -351.7 205.2 -214.9 400.6 -351.7 117.2 -78.16 498.3 -302.9 254 -420.1 400.6 -9.77 -97.7 332.2
4.57 166.1 -29.31 410.4 -107.5 410.4 -205.2 312.7 -146.6 361.5 -429.9 9.77 -136.8 439.7 -273.6 58.62 -547.6 508.1 87.93 39.08 312.7
4.575 254 68.39 517.8 29.31 439.7 -127 429.9 -166.1 381 -449.4 -136.8 -19.54 449.4 -78.16 -19.54 -703.5 478.7 97.7 117.2 342
4.58 39.08 -78.16 254 195.4 234.5 39.08 400.6 -127 322.4 -214.9 -185.6 19.54 244.3 58.62 -127 -693.7 361.5 175.9 68.39 117.2
4.585 68.39 -146.6 263.8 224.7 371.3 -234.5 449.4 -283.3 488.5 -254 -234.5 58.62 351.7 29.31 -48.85 -781.6 381 19.54 146.6 342
4.59 -156.3 -263.8 0 351.7 263.8 -58.62 332.2 -146.6 351.7 39.08 -400.6 195.4 263.8 156.3 -97.7 -625.3 273.6 214.9 -39.08 68.39
4.595 -381 -9.77 -234.5 117.2 39.08 -214.9 29.31 -302.9 78.16 19.54 -576.5 214.9 214.9 107.5 -263.8 -586.2 48.85 166.1 -263.8 -87.93
4.6 -527.6 19.54 -254 293.1 48.85 -87.93 9.77 -156.3 97.7 127 -771.9 263.8 9.77 156.3 -263.8 -478.7 48.85 332.2 -224.7 -244.3
4.605 -840.3 -107.5 -439.7 205.2 -234.5 -166.1 -273.6 -283.3 -234.5 107.5 -752.3 244.3 -175.9 39.08 -527.6 -410.4 -156.3 127 -488.5 -361.5
4.61 -635.6 -214.9 -381 146.6 -146.6 -312.7 -234.5 -263.8 -156.3 -19.54 -664.4 195.4 -175.9 -68.39 -605.8 -439.7 0 19.54 -332.2 -166.1
4.615 -576.5 -390.8 -429.9 -29.31 -127 -293.1 -156.3 -283.3 -214.9 -136.8 -400.6 205.2 -136.8 -87.93 -625.3 -390.8 48.85 -19.54 -224.7 -127
4.62 -429.9 -605.8 -361.5 -205.2 -48.85 -439.7 -29.31 -293.1 -146.6 -322.4 -273.6 78.16 -29.31 -185.6 -596 -459.2 136.8 -58.62 -117.2 9.77
4.625 -312.7 -566.7 -195.4 -234.5 29.31 -469 68.39 -234.5 -107.5 -254 -185.6 156.3 146.6 -107.5 -488.5 -332.2 58.62 -58.62 -136.8 0
4.63 -371.3 -488.5 -263.8 -273.6 -29.31 -449.4 78.16 -224.7 39.08 -58.62 -214.9 48.85 107.5 -68.39 -371.3 -185.6 -9.77 -107.5 -48.85 127
4.635 -185.6 -400.6 -39.08 -87.93 195.4 -302.9 254 -107.5 205.2 -29.31 48.85 195.4 420.1 136.8 19.54 -175.9 78.16 9.77 -9.77 127
4.64 -156.3 -283.3 -205.2 -146.6 0 -322.4 58.62 -214.9 48.85 9.77 39.08 136.8 439.7 156.3 -29.31 -166.1 -48.85 -68.39 -87.93 97.7
4.645 -9.77 -9.77 -68.39 -9.77 58.62 -97.7 175.9 -185.6 97.7 97.7 156.3 185.6 596 351.7 361.5 -9.77 117.2 -29.31 0 146.6
4.65 -58.62 -9.77 -68.39 -58.62 -48.85 0 58.62 -234.5 -29.31 -185.6 205.2 185.6 586.2 312.7 293.1 -136.8 146.6 -146.6 -68.39 166.1
4.655 -107.5 -117.2 -273.6 -68.39 -107.5 -244.3 -29.31 -459.2 -58.62 -156.3 48.85 29.31 537.4 156.3 293.1 -29.31 29.31 -390.8 -156.3 234.5
4.66 -205.2 -166.1 -234.5 -78.16 -58.62 -156.3 -9.77 -312.7 19.54 -87.93 -117.2 87.93 410.4 87.93 29.31 48.85 -9.77 -293.1 -175.9 156.3
4.665 -224.7 -390.8 -410.4 -273.6 -175.9 -390.8 -156.3 -342 -97.7 -234.5 -283.3 -39.08 312.7 -58.62 -195.4 -19.54 -263.8 -410.4 -381 127
4.67 -224.7 -166.1 -381 -371.3 -185.6 -410.4 -136.8 -78.16 -107.5 -58.62 -420.1 -87.93 195.4 0 -390.8 127 -302.9 -302.9 -342 68.39
4.675 -48.85 48.85 -293.1 -283.3 -97.7 -205.2 -19.54 146.6 39.08 -39.08 -342 -78.16 156.3 117.2 -254 214.9 -175.9 -117.2 -214.9 -48.85
4.68 -39.08 156.3 -127 -234.5 0 -175.9 9.77 166.1 -127 -214.9 -146.6 -97.7 263.8 166.1 -263.8 58.62 0 9.77 -166.1 -9.77
4.685 156.3 273.6 58.62 195.4 254 48.85 214.9 224.7 19.54 -87.93 -68.39 -9.77 195.4 332.2 -9.77 156.3 234.5 87.93 -48.85 29.31
4.69 58.62 322.4 -19.54 273.6 175.9 175.9 68.39 156.3 -302.9 -312.7 -19.54 -29.31 48.85 469 -107.5 0 185.6 68.39 -214.9 -29.31
4.695 -78.16 410.4 -166.1 371.3 -29.31 283.3 -195.4 205.2 -547.6 -205.2 -39.08 29.31 -175.9 547.1 -254 -19.54 -9.77 117.2 -469 -322.4
4.7 -58.62 166.1 -224.7 361.5 -117.2 410.4 -244.3 97.7 -615.5 -127 -166.1 -97.7 -263.8 635.1 -420.1 -78.16 -78.16 78.16 -527.6 -439.7
4.705 -351.7 117.2 -371.3 273.6 -302.9 420.1 -478.7 87.93 -674.6 -19.54 -224.7 -107.5 -254 527.6 -596 48.85 -244.3 0 -713.2 -576.5
4.71 -48.85 -39.08 -127 244.3 -214.9 302.9 -312.7 -117.2 -517.8 -58.62 -97.7 -273.6 -87.93 351.7 -439.7 -78.16 -146.6 -107.5 -517.8 -322.4
4.715 -107.5 -97.7 -195.4 29.31 -293.1 205.2 -371.3 -312.7 -517.8 -214.9 -205.2 -175.9 97.7 283.3 -283.3 -146.6 -146.6 -293.1 -576.5 -205.2
4.72 244.3 127 19.54 -117.2 -39.08 107.5 -136.8 -205.2 -283.3 -234.5 97.7 -322.4 381 273.6 -19.54 -136.8 -9.77 -185.6 -342 -127
4.725 420.1 234.5 97.7 -146.6 29.31 58.62 -48.85 -254 -381 -498.3 146.6 -254 400.6 273.6 175.9 -224.7 136.8 -254 -224.7 48.85
4.73 449.4 -58.62 166.1 -97.7 136.8 127 97.7 -29.31 -263.8 -400.6 263.8 -439.7 410.4 283.3 302.9 -58.62 234.5 -146.6 -87.93 87.93
4.735 429.9 244.3 273.6 156.3 273.6 263.8 205.2 214.9 -244.3 -205.2 351.7 -302.9 381 400.6 273.6 224.7 351.7 107.5 68.39 -9.77
4.74 312.7 9.77 312.7 224.7 166.1 342 68.39 254 -254 -214.9 381 -332.2 156.3 273.6 156.3 420.1 361.5 97.7 -9.77 9.77
4.745 175.9 9.77 185.6 361.5 156.3 429.9 156.3 410.4 -224.7 -39.08 263.8 -68.39 68.39 449.4 97.7 674.2 342 205.2 -39.08 -68.39
4.75 107.5 78.16 185.6 332.2 78.16 469 0 390.8 -293.1 -29.31 283.3 48.85 127 381 48.85 605.8 283.3 107.5 -127 -58.62
4.755 0 78.16 -39.08 78.16 -68.39 342 -87.93 234.5 -342 -185.6 214.9 48.85 68.39 361.5 78.16 517.8 19.54 -117.2 -214.9 -9.77
4.76 166.1 29.31 -29.31 136.8 -136.8 312.7 -205.2 263.8 -508.1 -175.9 420.1 0 166.1 390.8 -58.62 410.4 -78.16 -29.31 -312.7 -175.9
4.765 48.85 185.6 -48.85 -9.77 -78.16 175.9 -127 58.62 -576.5 -488.5 644.8 -136.8 175.9 293.1 58.62 293.1 -87.93 -214.9 -185.6 87.93
4.77 146.6 117.2 -48.85 302.9 -97.7 381 -136.8 244.3 -664.4 -381 674.2 9.77 -78.16 381 -107.5 273.6 -58.62 9.77 -224.7 -146.6
4.775 244.3 254 117.2 498.3 127 488.5 107.5 439.7 -439.7 -263.8 898.9 -29.31 -117.2 381 -78.16 283.3 156.3 146.6 48.85 -48.85
4.78 332.2 302.9 273.6 556.9 263.8 605.8 273.6 566.7 -302.9 -166.1 879.3 127 -87.93 469 -19.54 351.7 234.5 322.4 283.3 -107.5
4.785 469 410.4 263.8 615.5 263.8 781.6 351.7 801.2 -195.4 -97.7 859.8 224.7 29.31 527.6 39.08 351.7 254 371.3 371.3 -146.6
4.79 400.6 302.9 283.3 469 244.3 732.8 371.3 762.1 -234.5 -39.08 752.3 185.6 -39.08 517.8 -68.39 332.2 263.8 312.7 410.4 -146.6
4.795 459.2 136.8 166.1 420.1 136.8 742.6 293.1 771.9 -302.9 -19.54 576.5 400.6 48.85 556.9 -19.54 273.6 136.8 332.2 293.1 -302.9
4.8 156.3 273.6 87.93 449.4 68.39 820.7 195.4 840.3 -381 127 429.9 351.7 -87.93 556.9 -107.5 224.7 78.16 459.2 146.6 -488.5
4.805 78.16 332.2 87.93 400.6 78.16 791.4 146.6 830.5 -449.4 195.4 342 400.6 -136.8 439.7 -205.2 127 -29.31 410.4 136.8 -508.1
4.81 68.39 410.4 214.9 527.6 263.8 791.4 185.6 928.2 -410.4 283.3 439.7 420.1 -58.62 410.4 -195.4 87.93 68.39 576.5 254 -469
4.815 0 527.6 175.9 527.6 244.3 713.2 127 918.4 -400.6 342 429.9 429.9 -156.3 312.7 -146.6 156.3 29.31 615.5 214.9 -527.6
4.82 136.8 556.9 273.6 732.8 263.8 625.3 68.39 879.3 -517.8 342 400.6 332.2 -283.3 322.4 -263.8 175.9 127 723 156.3 -674.6
4.825 302.9 586.2 117.2 810.9 146.6 674.2 -29.31 957.5 -469 644.8 361.5 508.1 -420.1 478.7 -234.5 371.3 97.7 762.1 117.2 -742.6
4.83 381 400.6 195.4 1036 87.93 508.1 -87.93 752.3 -537.4 381 351.7 429.9 -439.7 283.3 -429.9 390.8 117.2 576.5 -58.62 -713.2
4.835 371.3 449.4 9.77 1006 -19.54 449.4 -107.5 713.2 -547.6 351.7 400.6 449.4 -459.2 371.3 -556.9 400.6 87.93 469 -39.08 -586.2
4.84 429.9 175.9 39.08 713.2 -39.08 302.9 -58.62 488.5 -517.8 127 517.8 322.4 -400.6 175.9 -547.6 351.7 39.08 302.9 -58.62 -459.2
4.845 283.3 273.6 -9.77 586.2 -58.62 39.08 -68.39 234.5 -459.2 -78.16 605.8 371.3 -381 234.5 -469 273.6 48.85 9.77 -48.85 -166.1
4.85 254 429.9 58.62 234.5 48.85 -117.2 -107.5 0 -371.3 -234.5 635.1 263.8 -332.2 156.3 -244.3 127 97.7 -156.3 -19.54 58.62
4.855 439.7 703.5 58.62 498.3 107.5 -9.77 -214.9 -39.08 -420.1 -117.2 625.3 547.1 -234.5 361.5 -185.6 205.2 48.85 -107.5 -97.7 -9.77
4.86 342 596 146.6 576.5 78.16 -48.85 -234.5 -39.08 -459.2 -146.6 693.7 498.3 -195.4 351.7 -136.8 48.85 78.16 -107.5 -117.2 39.08
4.865 371.3 302.9 166.1 566.7 0 87.93 -342 9.77 -615.5 -156.3 791.4 469 -127 478.7 -205.2 58.62 78.16 0 -175.9 -107.5
4.87 263.8 -19.54 78.16 576.5 58.62 185.6 -166.1 107.5 -576.5 -136.8 781.6 205.2 -19.54 371.3 -166.1 -29.31 97.7 127 -19.54 -68.39
4.875 29.31 -234.5 234.5 537.4 273.6 381 214.9 332.2 -234.5 136.8 801.2 107.5 97.7 449.4 19.54 29.31 185.6 351.7 351.7 0
4.88 107.5 29.31 214.9 400.6 254 244.3 214.9 78.16 -263.8 -273.6 791.4 107.5 9.77 214.9 -87.93 -420.1 263.8 322.4 361.5 78.16
4.885 214.9 146.6 293.1 605.8 429.9 459.2 390.8 68.39 -58.62 -175.9 742.6 273.6 48.85 224.7 107.5 -400.6 420.1 400.6 429.9 117.2
4.89 625.3 273.6 498.3 439.7 381 283.3 273.6 -224.7 -195.4 -596 889.1 322.4 -39.08 48.85 39.08 -752.3 517.8 166.1 263.8 312.7
4.895 820.7 625.3 478.7 420.1 302.9 400.6 185.6 -332.2 -361.5 -723 889.1 429.9 -107.5 58.62 87.93 -635.6 469 117.2 19.54 205.2
4.9 752.3 254 302.9 273.6 156.3 332.2 -29.31 -410.4 -449.4 -693.7 791.4 302.9 -293.1 -39.08 9.77 -635.6 175.9 -19.54 -195.4 117.2
4.905 547.1 263.8 136.8 -39.08 97.7 195.4 -9.77 -469 -332.2 -615.5 654.6 87.93 -293.1 -195.4 312.7 -556.9 9.77 -146.6 -205.2 254
4.91 254 166.1 -87.93 -293.1 -48.85 -58.62 -224.7 -703.5 -478.7 -801.2 498.3 39.08 -390.8 -381 175.9 -771.9 -175.9 -400.6 -420.1 332.2
4.915 205.2 48.85 -136.8 -351.7 -146.6 -136.8 -234.5 -644.8 -420.1 -674.6 371.3 -136.8 -420.1 -342 146.6 -742.6 -214.9 -478.7 -371.3 351.7
4.92 224.7 -127 19.54 -312.7 19.54 -97.7 -58.62 -547.6 -312.7 -762.1 322.4 -39.08 -234.5 -332.2 205.2 -801.2 -78.16 -390.8 -136.8 429.9
4.925 381 -87.93 -117.2 -371.3 -205.2 -214.9 -97.7 -400.6 -224.7 -586.2 302.9 -107.5 -273.6 -254 29.31 -527.6 -205.2 -488.5 -58.62 390.8
4.93 439.7 9.77 29.31 -127 -107.5 -68.39 29.31 -156.3 -97.7 -312.7 263.8 48.85 -342 -205.2 -146.6 -361.5 -136.8 -312.7 146.6 332.2
4.935 381 -39.08 -78.16 -166.1 -97.7 -39.08 0 -68.39 -156.3 -400.6 312.7 185.6 -410.4 -185.6 -263.8 -312.7 -127 -244.3 175.9 322.4
4.94 214.9 19.54 -87.93 -39.08 -117.2 97.7 -48.85 -29.31 -263.8 -302.9 205.2 254 -449.4 -185.6 -508.1 -254 -136.8 -146.6 195.4 263.8
4.945 19.54 29.31 -87.93 -97.7 -39.08 136.8 -127 -117.2 -459.2 -420.1 175.9 293.1 -342 -156.3 -547.6 -342 -87.93 -166.1 107.5 293.1
4.95 -48.85 -107.5 -58.62 -58.62 -29.31 254 -127 -127 -459.2 -381 166.1 283.3 -263.8 -127 -566.7 -273.6 -58.62 -136.8 87.93 273.6
4.955 -9.77 48.85 19.54 -68.39 -29.31 214.9 -127 -263.8 -371.3 -214.9 205.2 381 -107.5 -156.3 -469 -146.6 29.31 -87.93 -19.54 205.2
4.96 332.2 302.9 87.93 58.62 -29.31 293.1 -127 -195.4 -254 19.54 302.9 488.5 -78.16 -97.7 -322.4 146.6 58.62 87.93 -29.31 29.31
4.965 166.1 263.8 29.31 156.3 -29.31 185.6 -156.3 -283.3 -283.3 -87.93 293.1 410.4 -97.7 -117.2 -263.8 263.8 78.16 58.62 -78.16 68.39
4.97 254 244.3 48.85 166.1 -97.7 244.3 -146.6 -273.6 -234.5 39.08 293.1 488.5 -58.62 -78.16 -254 420.1 58.62 117.2 -19.54 39.08
4.975 -9.77 0 78.16 9.77 -58.62 58.62 -19.54 -469 -195.4 -371.3 205.2 214.9 -19.54 -263.8 -234.5 263.8 127 -166.1 146.6 381
4.98 -156.3 -312.7 87.93 -58.62 -117.2 -68.39 -78.16 -488.5 -254 -449.4 78.16 195.4 -58.62 -283.3 -302.9 97.7 48.85 -185.6 68.39 254
4.985 -87.93 -410.4 97.7 -136.8 -48.85 -107.5 107.5 -527.6 48.85 -439.7 97.7 205.2 -68.39 -283.3 -78.16 78.16 166.1 -420.1 342 596
4.99 156.3 -312.7 175.9 -175.9 -39.08 -68.39 117.2 -410.4 146.6 -293.1 78.16 195.4 -107.5 -205.2 -48.85 -9.77 136.8 -381 312.7 469
4.995 263.8 -156.3 117.2 -97.7 -127 -58.62 29.31 -283.3 185.6 -29.31 127 312.7 -87.93 -127 156.3 185.6 136.8 -283.3 283.3 302.9
5 214.9 166.1 -29.31 -156.3 -234.5 -166.1 -39.08 -302.9 224.7 127 97.7 342 -136.8 -127 214.9 263.8 39.08 -312.7 166.1 166.1
5.005 107.5 136.8 -234.5 -156.3 -449.4 -283.3 -302.9 -439.7 -19.54 39.08 -68.39 459.2 -195.4 -78.16 312.7 205.2 -205.2 -469 -107.5 -19.54
5.01 68.39 234.5 -156.3 -175.9 -420.1 -400.6 -293.1 -556.9 39.08 -19.54 -29.31 488.5 -78.16 -214.9 537.4 58.62 -166.1 -547.6 -146.6 87.93
5.015 -146.6 107.5 -302.9 -205.2 -429.9 -381 -342 -498.3 78.16 58.62 -273.6 488.5 -97.7 -97.7 742.6 78.16 -371.3 -527.6 -205.2 -19.54
5.02 -127 -263.8 -302.9 -293.1 -498.3 -459.2 -429.9 -586.2 48.85 -48.85 -449.4 400.6 -234.5 -78.16 674.2 -97.7 -410.4 -566.7 -293.1 -78.16
5.025 -185.6 -254 -342 -361.5 -586.2 -429.9 -459.2 -508.1 175.9 185.6 -508.1 371.3 -205.2 -29.31 762.1 68.39 -537.4 -576.5 -263.8 -156.3
5.03 -410.4 -214.9 -576.5 -224.7 -644.8 -439.7 -498.3 -361.5 136.8 244.3 -586.2 342 -381 9.77 615.5 195.4 -655.1 -527.6 -302.9 -283.3
5.035 -420.1 -293.1 -625.3 -107.5 -683.9 -302.9 -527.6 -166.1 195.4 439.7 -723 371.3 -488.5 9.77 527.6 517.8 -674.6 -410.4 -263.8 -429.9
5.04 -459.2 68.39 -752.3 -175.9 -801.2 -556.9 -566.7 -254 117.2 469 -625.3 429.9 -586.2 -254 556.9 517.8 -723 -469 -273.6 -420.1
5.045 -459.2 58.62 -674.6 -117.2 -703.5 -527.6 -508.1 -136.8 156.3 508.1 -713.2 459.2 -517.8 -214.9 478.7 547.1 -644.8 -478.7 -244.3 -273.6
5.05 -263.8 146.6 -723 -224.7 -850 -605.8 -635.6 -185.6 68.39 576.5 -596 420.1 -576.5 -322.4 439.7 410.4 -586.2 -596 -381 -234.5
5.055 -263.8 214.9 -556.9 -205.2 -762.1 -390.8 -586.2 -146.6 205.2 576.5 -703.5 498.3 -547.6 -127 576.5 537.4 -449.4 -478.7 -283.3 -156.3
5.06 -312.7 -29.31 -683.9 -273.6 -830.5 -283.3 -644.8 -107.5 214.9 654.6 -674.6 381 -674.6 -146.6 605.8 449.4 -527.6 -429.9 -283.3 -205.2
5.065 -342 -224.7 -547.6 -371.3 -713.2 -273.6 -586.2 -175.9 185.6 420.1 -655.1 146.6 -635.6 -214.9 771.9 420.1 -449.4 -469 -263.8 -39.08
5.07 -459.2 -400.6 -625.3 -429.9 -713.2 -312.7 -556.9 39.08 107.5 449.4 -615.5 166.1 -713.2 -214.9 742.6 469 -439.7 -420.1 -254 -78.16
5.075 -762.1 -537.4 -508.1 -273.6 -615.5 -390.8 -469 48.85 -48.85 214.9 -459.2 117.2 -527.6 -156.3 683.9 488.5 -351.7 -342 -254 0
5.08 -723 -429.9 -312.7 -68.39 -488.5 -420.1 -342 175.9 29.31 224.7 -322.4 78.16 -469 -156.3 566.7 459.2 -156.3 -146.6 -205.2 -97.7
5.085 -674.6 -791.4 -254 -136.8 -351.7 -459.2 -205.2 136.8 254 136.8 -322.4 48.85 -410.4 -117.2 635.1 537.4 -48.85 -224.7 -9.77 127
5.09 -420.1 -273.6 -166.1 -9.77 -332.2 -371.3 -195.4 166.1 214.9 68.39 -234.5 19.54 -322.4 -146.6 674.2 576.5 -19.54 -78.16 -29.31 58.62
5.095 97.7 29.31 166.1 97.7 9.77 68.39 97.7 537.4 488.5 469 -68.39 214.9 -195.4 58.62 977 889.1 224.7 205.2 244.3 68.39
5.1 -48.85 78.16 -146.6 -146.6 -205.2 19.54 -117.2 547.1 214.9 273.6 -283.3 87.93 -254 39.08 859.8 947.7 -19.54 273.6 29.31 -185.6
5.105 58.62 312.7 68.39 68.39 68.39 224.7 19.54 654.6 205.2 234.5 -293.1 136.8 -87.93 175.9 1016 918.4 322.4 420.1 97.7 -107.5
5.11 -214.9 19.54 -58.62 195.4 -97.7 205.2 -146.6 801.2 0 195.4 -498.3 78.16 -185.6 107.5 820.7 859.8 205.2 498.3 -19.54 -263.8
5.115 -302.9 -146.6 -58.62 224.7 -97.7 254 -166.1 791.4 -136.8 29.31 -723 87.93 -234.5 68.39 781.6 752.3 156.3 517.8 -127 -342
5.12 -469 -273.6 -146.6 263.8 -127 351.7 -312.7 840.3 -195.4 -19.54 -703.5 39.08 -224.7 -9.77 556.9 576.5 87.93 703.5 -127 -547.6
5.125 -586.2 -244.3 -185.6 -9.77 -117.2 381 -322.4 781.6 -136.8 58.62 -752.3 0 -322.4 -29.31 351.7 537.4 -48.85 556.9 -107.5 -527.6
5.13 -556.9 -400.6 -175.9 -97.7 -263.8 410.4 -420.1 556.9 -205.2 58.62 -655.1 -185.6 -293.1 -9.77 39.08 449.4 -224.7 478.7 -175.9 -547.6
5.135 -146.6 -107.5 -283.3 -283.3 -459.2 234.5 -263.8 332.2 -342 293.1 -410.4 -429.9 -429.9 410.4 -361.5 117.2 -420.1 224.7 -312.7 -459.2
5.14 -302.9 156.3 -273.6 -195.4 -283.3 205.2 -136.8 302.9 -254 254 -469 -469 -351.7 488.5 -342 175.9 -420.1 175.9 -312.7 -410.4
5.145 -449.4 214.9 -322.4 -195.4 -410.4 127 -127 332.2 -175.9 302.9 -332.2 -469 -390.8 449.4 -342 342 -469 146.6 -351.7 -449.4
5.15 -400.6 488.5 -185.6 68.39 -263.8 156.3 -58.62 371.3 68.39 429.9 -107.5 -371.3 -166.1 400.6 -254 400.6 -390.8 166.1 -175.9 -478.7
5.155 -439.7 703.5 -283.3 -48.85 -469 -87.93 -166.1 244.3 -29.31 371.3 -117.2 -381 -351.7 254 -342 361.5 -449.4 48.85 -234.5 -478.7
5.16 -185.6 459.2 -342 58.62 -517.8 -136.8 -224.7 283.3 -9.77 439.7 -166.1 -293.1 -420.1 214.9 -361.5 498.3 -342 87.93 -234.5 -429.9
5.165 -146.6 351.7 -556.9 -87.93 -674.6 -322.4 -439.7 58.62 -166.1 302.9 -302.9 -332.2 -566.7 156.3 -556.9 332.2 -517.8 -146.6 -459.2 -429.9
5.17 -175.9 224.7 -576.5 -293.1 -674.6 -459.2 -537.4 -136.8 -224.7 244.3 -381 -449.4 -605.8 19.54 -517.8 283.3 -527.6 -273.6 -586.2 -371.3
5.175 -351.7 156.3 -420.1 -205.2 -713.2 -488.5 -566.7 -175.9 -302.9 254 -263.8 -449.4 -537.4 87.93 -605.8 146.6 -517.8 -156.3 -683.9 -439.7
5.18 -527.6 58.62 -332.2 -254 -596 -508.1 -517.8 -224.7 -156.3 283.3 -58.62 -439.7 -410.4 9.77 -459.2 107.5 -439.7 -175.9 -752.3 -469
5.185 -488.5 195.4 -263.8 -263.8 -517.8 -517.8 -527.6 -302.9 -156.3 244.3 29.31 -371.3 -410.4 -58.62 -527.6 -68.39 -498.3 -156.3 -752.3 -420.1
5.19 -478.7 117.2 -302.9 19.54 -537.4 -361.5 -478.7 -263.8 9.77 342 136.8 -175.9 -488.5 -68.39 -400.6 87.93 -410.4 -127 -615.5 -410.4
5.195 -381 127 -400.6 -205.2 -469 -234.5 -498.3 -302.9 -58.62 263.8 107.5 -166.1 -537.4 -87.93 -429.9 127 -420.1 -156.3 -576.5 -429.9
5.2 -107.5 469 -342 0 -439.7 -136.8 -429.9 -322.4 48.85 273.6 205.2 -19.54 -517.8 -136.8 -342 117.2 -351.7 -205.2 -469 -302.9
5.205 -78.16 332.2 -234.5 0 -332.2 -156.3 -429.9 -283.3 19.54 254 312.7 19.54 -527.6 -58.62 -293.1 87.93 -342 -205.2 -596 -361.5
5.21 0 332.2 -175.9 87.93 -263.8 -156.3 -400.6 -322.4 -19.54 146.6 381 9.77 -596 -136.8 -166.1 -107.5 -351.7 -273.6 -547.6 -214.9
5.215 78.16 517.8 -175.9 29.31 -175.9 -78.16 -371.3 -234.5 19.54 244.3 478.7 58.62 -605.8 29.31 -117.2 -97.7 -371.3 -68.39 -576.5 -420.1
