    T[sec] Fp1 Fp2 F3  F4  C3  C4  P3  P4  O1  O2  F7  F8  T3  T4  T5  T6  Fz  Cz  Pz  A2 
30 1000 1000 1000 1000 1000 1000 1000 1000 1000 1000 1000 1000 1000 1000 1000 1000 1000 1000 1000 1000
0.625 234.5 185.6 48.85 146.6 -39.08 87.93 -48.85 39.08 -78.16 -9.77 166.1 107.5 127 97.7 117.2 322.4 39.08 -195.4 -214.9 -39.08
0.63 214.9 127 78.16 9.77 -48.85 0 -146.6 -136.8 -156.3 -78.16 224.7 136.8 166.1 166.1 68.39 342 48.85 -254 -283.3 -29.31
0.635 244.3 156.3 58.62 -29.31 -58.62 -48.85 -146.6 -58.62 -224.7 -117.2 263.8 68.39 224.7 185.6 48.85 371.3 9.77 -205.2 -381 -78.16
0.64 224.7 107.5 156.3 -87.93 9.77 -78.16 -58.62 -9.77 -146.6 19.54 312.7 -87.93 234.5 234.5 68.39 449.4 29.31 -87.93 -244.3 -107.5
0.645 273.6 29.31 107.5 -127 58.62 -195.4 48.85 -19.54 -117.2 58.62 283.3 -107.5 312.7 68.39 97.7 361.5 0 -87.93 -205.2 -87.93
0.65 351.7 136.8 185.6 -29.31 175.9 -127 224.7 107.5 -19.54 107.5 429.9 -29.31 429.9 78.16 273.6 332.2 166.1 58.62 29.31 -39.08
0.655 390.8 -68.39 156.3 -166.1 205.2 -254 361.5 -58.62 136.8 -39.08 371.3 -39.08 449.4 -107.5 400.6 19.54 166.1 -156.3 175.9 254
0.66 127 -48.85 68.39 -136.8 127 -117.2 322.4 -58.62 127 -48.85 234.5 234.5 410.4 -87.93 400.6 -78.16 166.1 -273.6 254 322.4
0.665 127 -136.8 -166.1 -283.3 -78.16 -136.8 166.1 -107.5 107.5 -107.5 -58.62 136.8 195.4 -78.16 342 -117.2 -29.31 -302.9 117.2 244.3
0.67 -351.7 -322.4 -332.2 -390.8 -283.3 -127 9.77 -146.6 87.93 -146.6 -244.3 117.2 107.5 -87.93 234.5 -156.3 -293.1 -420.1 -39.08 146.6
0.675 -166.1 -371.3 -410.4 -449.4 -390.8 -244.3 -87.93 -234.5 127 -185.6 -390.8 39.08 -68.39 -19.54 175.9 -87.93 -283.3 -410.4 -146.6 97.7
0.68 -283.3 -547.6 -508.1 -605.8 -498.3 -429.9 -224.7 -459.2 107.5 -429.9 -371.3 -146.6 -107.5 -127 58.62 -136.8 -371.3 -644.8 -312.7 224.7
0.685 -273.6 -459.2 -478.7 -469 -498.3 -400.6 -293.1 -429.9 97.7 -420.1 -351.7 -48.85 -87.93 -39.08 9.77 -58.62 -312.7 -566.7 -390.8 166.1
0.69 -39.08 -400.6 -283.3 -410.4 -342 -361.5 -205.2 -420.1 175.9 -459.2 -175.9 48.85 39.08 0 19.54 9.77 -166.1 -527.6 -224.7 283.3
0.695 -29.31 -371.3 -234.5 -410.4 -342 -390.8 -312.7 -420.1 19.54 -517.8 -214.9 9.77 -58.62 -48.85 -87.93 -29.31 -136.8 -556.9 -312.7 273.6
0.7 146.6 -351.7 87.93 -302.9 19.54 -322.4 29.31 -322.4 234.5 -488.5 48.85 19.54 195.4 -78.16 156.3 -58.62 214.9 -400.6 136.8 547.1
0.705 9.77 -224.7 78.16 -97.7 39.08 -166.1 48.85 -175.9 166.1 -361.5 48.85 156.3 156.3 9.77 87.93 -9.77 175.9 -136.8 87.93 283.3
0.71 -29.31 -87.93 244.3 58.62 224.7 0 146.6 -9.77 263.8 -205.2 136.8 224.7 283.3 117.2 205.2 29.31 322.4 166.1 283.3 205.2
0.715 -146.6 -87.93 254 136.8 312.7 97.7 195.4 58.62 293.1 -117.2 205.2 302.9 283.3 117.2 224.7 19.54 312.7 293.1 381 156.3
0.72 -195.4 29.31 185.6 263.8 244.3 205.2 97.7 175.9 195.4 58.62 195.4 420.1 263.8 185.6 117.2 48.85 175.9 302.9 273.6 29.31
0.725 -39.08 -107.5 195.4 136.8 263.8 166.1 107.5 78.16 224.7 0 234.5 371.3 273.6 87.93 117.2 -48.85 205.2 127 263.8 166.1
0.73 -97.7 -127 156.3 136.8 195.4 205.2 185.6 205.2 263.8 185.6 214.9 371.3 273.6 136.8 107.5 9.77 127 195.4 244.3 68.39
0.735 -127 -459.2 -58.62 -58.62 87.93 127 97.7 166.1 205.2 214.9 68.39 117.2 117.2 -29.31 29.31 -9.77 -78.16 0 166.1 156.3
0.74 0 -342 -48.85 78.16 107.5 283.3 195.4 420.1 332.2 429.9 68.39 214.9 166.1 127 136.8 195.4 -78.16 214.9 244.3 -9.77
0.745 -166.1 -449.4 -195.4 19.54 87.93 273.6 185.6 478.7 342 556.9 -9.77 87.93 107.5 87.93 97.7 244.3 -166.1 254 234.5 -68.39
0.75 -185.6 -429.9 -146.6 9.77 175.9 214.9 254 390.8 469 527.6 78.16 58.62 195.4 48.85 175.9 224.7 -156.3 302.9 214.9 -87.93
0.755 -244.3 -342 -332.2 -29.31 -58.62 97.7 48.85 254 224.7 400.6 -156.3 -19.54 -166.1 -19.54 -48.85 156.3 -312.7 185.6 -87.93 -322.4
0.76 -224.7 -322.4 -156.3 -68.39 48.85 0 78.16 19.54 214.9 214.9 166.1 -78.16 107.5 -107.5 58.62 -29.31 -224.7 87.93 -78.16 -195.4
0.765 -234.5 -293.1 -127 -156.3 9.77 -185.6 19.54 -244.3 97.7 -68.39 156.3 -195.4 78.16 -302.9 0 -244.3 -214.9 -87.93 -166.1 -97.7
0.77 -185.6 -9.77 87.93 156.3 166.1 136.8 136.8 19.54 244.3 107.5 420.1 97.7 312.7 -39.08 175.9 -175.9 -97.7 283.3 39.08 -254
0.775 -19.54 -29.31 175.9 244.3 332.2 214.9 205.2 -19.54 302.9 -29.31 459.2 185.6 439.7 -29.31 166.1 -342 87.93 371.3 97.7 -136.8
0.78 244.3 205.2 390.8 586.2 478.7 498.3 342 205.2 381 87.93 537.4 439.7 469 166.1 214.9 -263.8 351.7 547.1 312.7 -136.8
0.785 146.6 156.3 351.7 576.5 332.2 429.9 127 68.39 224.7 -87.93 390.8 390.8 283.3 87.93 9.77 -429.9 302.9 439.7 127 -97.7
0.79 234.5 302.9 234.5 508.1 175.9 332.2 -39.08 39.08 127 -146.6 302.9 400.6 185.6 117.2 -48.85 -420.1 312.7 312.7 68.39 -136.8
0.795 0 68.39 0 234.5 -97.7 0 -244.3 -205.2 -19.54 -273.6 107.5 185.6 -58.62 -39.08 -185.6 -488.5 58.62 9.77 -224.7 -107.5
0.8 0 -87.93 -195.4 -58.62 -254 -205.2 -293.1 -312.7 0 -332.2 68.39 78.16 -97.7 -117.2 -68.39 -449.4 -107.5 -302.9 -283.3 58.62
0.805 -78.16 -361.5 -381 -312.7 -371.3 -390.8 -332.2 -449.4 -48.85 -381 -87.93 -29.31 -146.6 -195.4 -58.62 -342 -283.3 -449.4 -410.4 127
0.81 -68.39 -488.5 -439.7 -371.3 -390.8 -420.1 -312.7 -478.7 -58.62 -400.6 -117.2 -87.93 -175.9 -224.7 -19.54 -254 -342 -459.2 -420.1 87.93
0.815 -117.2 -556.9 -439.7 -459.2 -371.3 -498.3 -244.3 -508.1 -117.2 -469 -175.9 -48.85 -175.9 -205.2 -9.77 -224.7 -322.4 -547.6 -371.3 205.2
0.82 -156.3 -586.2 -302.9 -459.2 -254 -400.6 -166.1 -361.5 -68.39 -371.3 -214.9 -234.5 -293.1 -224.7 39.08 -175.9 -234.5 -644.8 -156.3 361.5
0.825 -185.6 -488.5 -175.9 -420.1 -87.93 -224.7 -97.7 -156.3 -9.77 -156.3 -97.7 -146.6 -19.54 -19.54 87.93 48.85 -127 -429.9 -39.08 381
0.83 39.08 -293.1 -87.93 -361.5 -19.54 -58.62 -19.54 117.2 87.93 58.62 -127 -58.62 -58.62 78.16 156.3 185.6 -9.77 -273.6 87.93 244.3
0.835 -58.62 -361.5 -127 -400.6 0 -58.62 -39.08 195.4 166.1 185.6 -224.7 -185.6 9.77 97.7 107.5 156.3 -48.85 -244.3 136.8 254
0.84 -58.62 -136.8 -195.4 -263.8 -58.62 -19.54 -78.16 302.9 195.4 322.4 -244.3 -19.54 -19.54 146.6 48.85 107.5 -127 -156.3 156.3 127
0.845 78.16 -420.1 -263.8 -410.4 -19.54 -293.1 48.85 68.39 361.5 185.6 -342 -185.6 -29.31 -58.62 146.6 -146.6 -97.7 -342 263.8 342
0.85 -19.54 -361.5 -205.2 -351.7 9.77 -381 107.5 107.5 469 214.9 -244.3 -166.1 29.31 -39.08 224.7 -234.5 -58.62 -322.4 371.3 332.2
0.855 146.6 -381 -97.7 -342 48.85 -478.7 107.5 -58.62 420.1 58.62 -293.1 -273.6 39.08 -166.1 185.6 -429.9 -29.31 -371.3 312.7 361.5
0.86 166.1 -224.7 -97.7 -234.5 9.77 -400.6 78.16 29.31 371.3 97.7 -381 -117.2 -19.54 -19.54 127 -381 -78.16 -283.3 205.2 254
0.865 234.5 -342 58.62 -342 29.31 -537.4 19.54 -234.5 381 -185.6 -312.7 -156.3 78.16 -205.2 166.1 -596 19.54 -351.7 87.93 342
0.87 -48.85 -429.9 -97.7 -439.7 -136.8 -566.7 -146.6 -273.6 195.4 -244.3 -449.4 -390.8 -107.5 -302.9 29.31 -635.6 -156.3 -322.4 -87.93 175.9
0.875 -508.1 -127 -439.7 -205.2 -429.9 -205.2 -537.4 -166.1 -449.4 29.31 -439.7 -146.6 -312.7 -263.8 -459.2 -205.2 -371.3 -214.9 -439.7 -87.93
0.88 -332.2 -19.54 -185.6 -78.16 -273.6 -136.8 -508.1 -302.9 -605.8 -136.8 -351.7 -39.08 -439.7 -254 -517.8 -332.2 -185.6 -136.8 -478.7 -166.1
0.885 -156.3 175.9 117.2 107.5 -117.2 -87.93 -439.7 -478.7 -635.6 -390.8 0 19.54 -87.93 -224.7 -429.9 -459.2 58.62 19.54 -517.8 -107.5
0.89 -244.3 136.8 136.8 136.8 -146.6 -136.8 -527.6 -683.9 -771.9 -586.2 -58.62 9.77 -234.5 -254 -517.8 -537.4 87.93 68.39 -655.1 -244.3
0.895 -136.8 410.4 224.7 449.4 -48.85 117.2 -381 -488.5 -635.6 -429.9 -68.39 293.1 -117.2 -29.31 -351.7 -342 195.4 390.8 -566.7 -381
0.9 -263.8 263.8 48.85 410.4 -185.6 29.31 -410.4 -527.6 -625.3 -439.7 -205.2 185.6 -48.85 -39.08 -263.8 -342 39.08 254 -655.1 -449.4
0.905 -371.3 283.3 -29.31 410.4 -244.3 58.62 -371.3 -420.1 -498.3 -312.7 -156.3 263.8 -68.39 39.08 -146.6 -214.9 -87.93 273.6 -683.9 -596
0.91 -273.6 332.2 -58.62 508.1 -234.5 136.8 -254 -136.8 -351.7 -127 -29.31 244.3 0 87.93 19.54 19.54 -117.2 283.3 -566.7 -635.6
0.915 -400.6 371.3 -9.77 498.3 -166.1 224.7 -136.8 166.1 -175.9 87.93 9.77 224.7 29.31 107.5 195.4 127 -127 312.7 -302.9 -547.6
0.92 -127 390.8 39.08 488.5 -78.16 322.4 -9.77 400.6 0 205.2 -19.54 205.2 58.62 146.6 263.8 234.5 -87.93 302.9 -87.93 -410.4
0.925 -332.2 78.16 -39.08 166.1 -127 68.39 9.77 351.7 78.16 127 -146.6 -9.77 29.31 -68.39 273.6 117.2 -185.6 78.16 107.5 -205.2
0.93 -293.1 -19.54 -166.1 -19.54 -117.2 -9.77 29.31 342 185.6 117.2 -244.3 -87.93 -29.31 -175.9 283.3 48.85 -312.7 -19.54 234.5 -127
0.935 -488.5 -254 -322.4 -263.8 -312.7 -234.5 -58.62 224.7 136.8 0 -234.5 -234.5 -68.39 -283.3 185.6 -97.7 -508.1 -371.3 127 -19.54
0.94 -420.1 -312.7 -400.6 -459.2 -371.3 -361.5 -78.16 156.3 156.3 -48.85 -244.3 -342 -68.39 -381 185.6 -146.6 -586.2 -527.6 107.5 48.85
0.945 -459.2 -263.8 -273.6 -371.3 -312.7 -224.7 39.08 273.6 224.7 78.16 -107.5 -302.9 -19.54 -224.7 224.7 48.85 -517.8 -420.1 166.1 -29.31
0.95 -87.93 -175.9 -166.1 -332.2 -293.1 -283.3 29.31 214.9 224.7 9.77 9.77 -332.2 39.08 -254 156.3 -9.77 -371.3 -410.4 136.8 19.54
0.955 -29.31 -449.4 -185.6 -508.1 -312.7 -517.8 0 -29.31 117.2 -263.8 -87.93 -508.1 -48.85 -410.4 58.62 -166.1 -351.7 -576.5 127 224.7
0.96 58.62 -68.39 -136.8 -214.9 -293.1 -283.3 -97.7 117.2 -78.16 -156.3 -78.16 -312.7 -87.93 -244.3 -78.16 68.39 -332.2 -293.1 -39.08 -29.31
0.965 -156.3 -371.3 -312.7 -469 -410.4 -527.6 -293.1 -175.9 -224.7 -429.9 -322.4 -420.1 -214.9 -381 -234.5 -166.1 -469 -508.1 -166.1 97.7
0.97 -29.31 -205.2 -205.2 -390.8 -312.7 -381 -332.2 -136.8 -371.3 -390.8 -214.9 -371.3 -244.3 -244.3 -312.7 0 -459.2 -312.7 -283.3 -48.85
0.975 -283.3 -332.2 -302.9 -576.5 -361.5 -498.3 -469 -469 -547.6 -655.1 -254 -449.4 -283.3 -332.2 -420.1 -175.9 -517.8 -615.5 -429.9 146.6
0.98 -48.85 -136.8 -146.6 -498.3 -244.3 -429.9 -400.6 -527.6 -644.8 -781.6 -127 -332.2 -146.6 -205.2 -449.4 -205.2 -332.2 -556.9 -449.4 234.5
0.985 58.62 -9.77 0 -342 -117.2 -381 -400.6 -527.6 -683.9 -791.4 -29.31 -166.1 -87.93 -97.7 -410.4 -205.2 -136.8 -439.7 -371.3 273.6
0.99 146.6 166.1 19.54 -136.8 -78.16 -175.9 -342 -381 -683.9 -674.6 -39.08 0 -78.16 19.54 -381 -166.1 -29.31 -146.6 -312.7 117.2
0.995 361.5 273.6 224.7 68.39 214.9 -78.16 -58.62 -273.6 -459.2 -615.5 156.3 107.5 97.7 87.93 -205.2 -175.9 273.6 29.31 68.39 332.2
1 136.8 224.7 146.6 127 185.6 -9.77 -9.77 -175.9 -371.3 -586.2 48.85 87.93 39.08 58.62 -156.3 -293.1 234.5 87.93 156.3 390.8
1.005 146.6 429.9 273.6 361.5 371.3 293.1 254 156.3 -127 -312.7 214.9 244.3 175.9 214.9 -19.54 -156.3 312.7 478.7 429.9 58.62
1.01 -87.93 400.6 136.8 293.1 302.9 312.7 322.4 195.4 -87.93 -361.5 97.7 146.6 117.2 97.7 -78.16 -283.3 136.8 429.9 390.8 -68.39
1.015 9.77 381 283.3 224.7 459.2 312.7 498.3 205.2 78.16 -302.9 263.8 58.62 234.5 58.62 87.93 -293.1 185.6 439.7 547.1 -58.62
1.02 58.62 371.3 263.8 214.9 478.7 361.5 556.9 322.4 195.4 -224.7 234.5 48.85 244.3 78.16 117.2 -156.3 97.7 390.8 625.3 -48.85
1.025 127 156.3 185.6 0 459.2 224.7 537.4 234.5 224.7 -322.4 166.1 -78.16 214.9 9.77 127 -166.1 39.08 263.8 683.9 29.31
1.03 -19.54 214.9 136.8 39.08 400.6 302.9 508.1 381 195.4 -136.8 136.8 39.08 214.9 185.6 166.1 117.2 19.54 351.7 683.9 9.77
1.035 -244.3 48.85 -9.77 -58.62 244.3 293.1 400.6 381 156.3 -87.93 19.54 -9.77 127 214.9 146.6 166.1 -127 224.7 683.9 19.54
1.04 -420.1 214.9 -127 48.85 117.2 361.5 263.8 429.9 68.39 9.77 -107.5 78.16 -19.54 263.8 156.3 273.6 -166.1 263.8 547.1 -78.16
1.045 -175.9 58.62 107.5 -19.54 283.3 234.5 371.3 312.7 224.7 -9.77 87.93 -29.31 273.6 214.9 381 205.2 58.62 195.4 625.3 127
1.05 -117.2 254 107.5 214.9 283.3 371.3 244.3 410.4 127 97.7 78.16 78.16 175.9 293.1 322.4 224.7 97.7 371.3 508.1 -48.85
1.055 -107.5 146.6 136.8 185.6 273.6 263.8 244.3 381 195.4 175.9 97.7 -9.77 205.2 263.8 322.4 234.5 58.62 322.4 478.7 -68.39
1.06 -78.16 205.2 78.16 146.6 166.1 254 185.6 361.5 97.7 205.2 146.6 -39.08 195.4 293.1 283.3 244.3 -78.16 312.7 312.7 -214.9
1.065 -342 -19.54 -78.16 -136.8 -9.77 0 87.93 185.6 39.08 87.93 78.16 -214.9 58.62 68.39 195.4 136.8 -371.3 78.16 185.6 -214.9
1.07 -136.8 97.7 -127 -146.6 -97.7 -19.54 48.85 224.7 -58.62 117.2 39.08 -156.3 9.77 39.08 117.2 97.7 -420.1 58.62 78.16 -273.6
1.075 -214.9 9.77 -68.39 -283.3 -78.16 -185.6 78.16 68.39 -39.08 19.54 48.85 -205.2 39.08 -87.93 87.93 9.77 -429.9 -185.6 68.39 -58.62
1.08 -263.8 39.08 -9.77 -175.9 -117.2 -146.6 -68.39 48.85 -254 -19.54 -9.77 -166.1 -97.7 -107.5 -136.8 -29.31 -381 -117.2 -78.16 -136.8
1.085 -78.16 117.2 263.8 9.77 87.93 -58.62 -9.77 9.77 -205.2 -107.5 205.2 -48.85 19.54 -78.16 -107.5 -29.31 0 0 58.62 9.77
1.09 -58.62 195.4 322.4 78.16 127 -78.16 -127 -87.93 -332.2 -283.3 166.1 -39.08 -39.08 -146.6 -224.7 -185.6 136.8 78.16 -48.85 19.54
1.095 273.6 381 615.5 342 322.4 87.93 -19.54 -9.77 -224.7 -244.3 410.4 87.93 107.5 -19.54 -127 -136.8 439.7 214.9 97.7 136.8
1.1 214.9 459.2 556.9 381 205.2 107.5 -87.93 -29.31 -332.2 -283.3 302.9 107.5 19.54 -48.85 -205.2 -214.9 429.9 263.8 -48.85 -39.08
1.105 390.8 664.4 674.2 605.8 361.5 351.7 68.39 205.2 -166.1 -78.16 410.4 234.5 127 127 -58.62 -107.5 566.7 498.3 97.7 -156.3
1.11 459.2 683.9 644.8 654.6 361.5 498.3 136.8 390.8 -127 78.16 410.4 224.7 127 263.8 -19.54 -58.62 547.1 693.7 146.6 -302.9
1.115 273.6 537.4 508.1 556.9 322.4 556.9 156.3 449.4 -48.85 166.1 214.9 136.8 -48.85 234.5 -19.54 0 381 723 224.7 -371.3
1.12 429.9 478.7 674.2 615.5 586.2 654.6 449.4 596 175.9 312.7 459.2 175.9 302.9 361.5 185.6 87.93 537.4 840.3 488.5 -205.2
1.125 498.3 478.7 683.9 703.5 683.9 771.9 586.2 752.3 312.7 537.4 361.5 254 312.7 449.4 283.3 185.6 635.1 986.8 713.2 -214.9
1.13 351.7 429.9 674.2 762.1 674.2 742.6 693.7 781.6 469 683.9 410.4 214.9 449.4 390.8 312.7 254 683.9 1026 723 -234.5
1.135 400.6 537.4 615.5 918.4 674.2 830.5 762.1 889.1 596 908.6 429.9 332.2 527.6 498.3 361.5 488.5 732.8 986.8 781.6 -254
1.14 166.1 566.7 351.7 879.3 390.8 752.3 683.9 938 596 1065 224.7 234.5 322.4 469 293.1 576.5 556.9 810.9 703.5 -322.4
1.145 -19.54 263.8 146.6 517.8 195.4 469 527.6 771.9 635.1 977 48.85 87.93 127 361.5 156.3 566.7 371.3 469 566.7 -214.9
1.15 -19.54 136.8 -214.9 185.6 -117.2 224.7 273.6 596 537.4 840.3 -205.2 -68.39 -146.6 205.2 -19.54 478.7 107.5 146.6 420.1 -58.62
1.155 87.93 19.54 -166.1 78.16 -29.31 185.6 234.5 439.7 596 820.7 -87.93 -58.62 -146.6 175.9 9.77 449.4 156.3 19.54 429.9 127
1.16 68.39 -156.3 -185.6 -9.77 -58.62 78.16 195.4 205.2 586.2 556.9 -146.6 -117.2 -166.1 87.93 39.08 273.6 136.8 -127 371.3 283.3
1.165 400.6 9.77 146.6 195.4 214.9 234.5 361.5 97.7 664.4 498.3 117.2 39.08 48.85 175.9 214.9 254 508.1 9.77 488.5 459.2
1.17 332.2 68.39 244.3 361.5 322.4 351.7 410.4 68.39 605.8 508.1 19.54 68.39 58.62 195.4 224.7 214.9 596 312.7 439.7 293.1
1.175 410.4 146.6 381 439.7 537.4 312.7 547.1 9.77 547.1 342 107.5 166.1 166.1 195.4 254 107.5 791.4 322.4 478.7 449.4
1.18 527.6 97.7 459.2 371.3 605.8 185.6 586.2 -97.7 508.1 234.5 195.4 87.93 185.6 68.39 234.5 -39.08 820.7 312.7 517.8 439.7
1.185 547.1 273.6 332.2 469 566.7 244.3 547.1 0 342 322.4 214.9 214.9 166.1 146.6 175.9 58.62 713.2 449.4 429.9 234.5
1.19 302.9 146.6 283.3 293.1 498.3 87.93 537.4 -117.2 302.9 146.6 234.5 68.39 195.4 19.54 117.2 -166.1 605.8 361.5 400.6 195.4
1.195 302.9 234.5 136.8 342 322.4 97.7 361.5 -117.2 117.2 107.5 87.93 117.2 -58.62 48.85 -19.54 -117.2 400.6 283.3 254 78.16
1.2 97.7 136.8 68.39 234.5 273.6 97.7 302.9 -195.4 39.08 48.85 146.6 58.62 58.62 58.62 -58.62 -185.6 381 195.4 244.3 136.8
1.205 244.3 19.54 -19.54 117.2 117.2 -9.77 78.16 -263.8 9.77 -68.39 -58.62 29.31 -254 19.54 -185.6 -156.3 254 19.54 97.7 156.3
1.21 166.1 -127 -78.16 -48.85 -39.08 -127 -107.5 -390.8 -136.8 -146.6 -117.2 -58.62 -332.2 -48.85 -293.1 -166.1 205.2 -146.6 -87.93 195.4
1.215 390.8 -39.08 78.16 9.77 58.62 -19.54 -68.39 -263.8 -29.31 9.77 -9.77 78.16 -263.8 97.7 -175.9 29.31 302.9 -117.2 -68.39 224.7
1.22 410.4 -156.3 -68.39 -234.5 -175.9 -205.2 -293.1 -429.9 -127 -107.5 -117.2 -19.54 -439.7 -58.62 -322.4 -58.62 136.8 -332.2 -293.1 283.3
1.225 283.3 -29.31 -48.85 -97.7 -107.5 -48.85 -244.3 -273.6 -19.54 78.16 -97.7 68.39 -420.1 68.39 -195.4 68.39 195.4 -175.9 -195.4 273.6
1.23 214.9 -9.77 -195.4 -146.6 -156.3 48.85 -146.6 -175.9 68.39 175.9 -175.9 48.85 -420.1 97.7 -185.6 146.6 127 -117.2 -136.8 205.2
1.235 263.8 29.31 -263.8 -146.6 -29.31 48.85 58.62 -39.08 293.1 312.7 -254 39.08 -293.1 244.3 -39.08 195.4 97.7 -185.6 39.08 293.1
1.24 244.3 146.6 -293.1 -9.77 87.93 244.3 322.4 244.3 488.5 674.2 -185.6 136.8 -107.5 517.8 185.6 429.9 97.7 39.08 263.8 127
1.245 48.85 19.54 -381 -58.62 97.7 224.7 439.7 381 635.1 889.1 -146.6 29.31 78.16 537.4 351.7 478.7 9.77 39.08 351.7 68.39
1.25 127 0 -332.2 -117.2 107.5 117.2 469 283.3 742.6 918.4 -9.77 -19.54 175.9 459.2 420.1 420.1 39.08 -19.54 332.2 39.08
1.255 48.85 -48.85 -293.1 -127 39.08 9.77 342 136.8 674.2 869.6 58.62 -9.77 175.9 312.7 410.4 381 -9.77 -175.9 224.7 117.2
1.26 48.85 -19.54 -234.5 -175.9 -9.77 -117.2 185.6 0 547.1 742.6 19.54 -39.08 -9.77 166.1 342 322.4 78.16 -263.8 68.39 195.4
1.265 322.4 39.08 -68.39 -136.8 0 -156.3 97.7 -127 429.9 586.2 117.2 -9.77 117.2 97.7 254 234.5 117.2 -244.3 19.54 146.6
1.27 -29.31 -58.62 -244.3 -224.7 -146.6 -185.6 -127 -214.9 224.7 508.1 -195.4 -29.31 -107.5 9.77 78.16 293.1 -19.54 -195.4 -156.3 29.31
1.275 127 0 -136.8 -156.3 -127 -156.3 -146.6 -146.6 127 449.4 -117.2 9.77 -48.85 19.54 -9.77 263.8 -29.31 -146.6 -175.9 29.31
1.28 136.8 -78.16 -224.7 -205.2 -146.6 -205.2 -205.2 -244.3 19.54 322.4 -205.2 -29.31 -68.39 -117.2 -48.85 185.6 -29.31 -156.3 -175.9 87.93
1.285 263.8 78.16 -214.9 -48.85 -175.9 -78.16 -254 -195.4 -58.62 283.3 -127 107.5 -107.5 -39.08 -97.7 224.7 58.62 -29.31 -127 -9.77
1.29 410.4 175.9 -48.85 58.62 -78.16 -107.5 -195.4 -332.2 -78.16 58.62 0 107.5 -68.39 -156.3 -87.93 68.39 156.3 9.77 -185.6 58.62
1.295 205.2 97.7 -224.7 0 -244.3 -166.1 -332.2 -469 -185.6 -156.3 -68.39 68.39 -166.1 -224.7 -185.6 -9.77 58.62 -87.93 -332.2 39.08
1.3 -78.16 0 -263.8 -78.16 -302.9 -127 -371.3 -527.6 -214.9 -254 -78.16 9.77 -214.9 -263.8 -175.9 -9.77 -58.62 -48.85 -478.7 -68.39
1.305 -302.9 -263.8 -449.4 -322.4 -400.6 -224.7 -420.1 -615.5 -273.6 -342 -175.9 -185.6 -254 -342 -263.8 -78.16 -351.7 -117.2 -703.5 -205.2
1.31 -420.1 -322.4 -381 -371.3 -293.1 -127 -312.7 -576.5 -244.3 -234.5 -87.93 -214.9 -156.3 -332.2 -185.6 -39.08 -332.2 -9.77 -635.6 -234.5
1.315 -322.4 -361.5 -283.3 -381 -146.6 -117.2 -175.9 -469 -234.5 -175.9 29.31 -117.2 39.08 -244.3 -68.39 9.77 -224.7 -39.08 -488.5 -87.93
1.32 -254 -361.5 -273.6 -400.6 -146.6 -166.1 -185.6 -439.7 -273.6 -156.3 29.31 -185.6 97.7 -254 -19.54 0 -224.7 -175.9 -410.4 -9.77
1.325 -58.62 -342 -127 -390.8 -87.93 -214.9 -97.7 -381 -214.9 -185.6 48.85 -214.9 117.2 -312.7 48.85 -19.54 -156.3 -283.3 -273.6 136.8
1.33 -263.8 -361.5 -234.5 -420.1 -273.6 -351.7 -254 -332.2 -273.6 -175.9 -97.7 -234.5 117.2 -371.3 -19.54 -58.62 -254 -342 -351.7 107.5
1.335 -107.5 -283.3 -312.7 -410.4 -351.7 -361.5 -390.8 -273.6 -351.7 -58.62 -254 -205.2 -195.4 -371.3 -107.5 -19.54 -302.9 -371.3 -459.2 58.62
1.34 29.31 -273.6 -214.9 -556.9 -254 -527.6 -283.3 -420.1 -205.2 -127 -166.1 -322.4 -29.31 -488.5 -39.08 -127 -244.3 -498.3 -439.7 224.7
1.345 0 -97.7 -185.6 -410.4 -166.1 -400.6 -263.8 -214.9 -146.6 185.6 -39.08 -58.62 87.93 -322.4 19.54 127 -293.1 -302.9 -459.2 -117.2
1.35 58.62 -156.3 -205.2 -605.8 -97.7 -566.7 -97.7 -381 97.7 175.9 9.77 -175.9 136.8 -508.1 107.5 0 -263.8 -498.3 -400.6 19.54
1.355 9.77 -39.08 -205.2 -449.4 -78.16 -410.4 9.77 -127 254 478.7 39.08 -107.5 117.2 -410.4 175.9 195.4 -361.5 -381 -263.8 -78.16
1.36 -332.2 -175.9 -517.8 -527.6 -429.9 -547.6 -224.7 -205.2 166.1 390.8 -254 -195.4 -136.8 -459.2 -68.39 97.7 -635.6 -508.1 -439.7 -195.4
1.365 -283.3 -205.2 -410.4 -478.7 -381 -449.4 -136.8 -214.9 224.7 322.4 -214.9 -175.9 -127 -400.6 -29.31 97.7 -537.4 -498.3 -312.7 -117.2
1.37 -596 -273.6 -439.7 -537.4 -420.1 -498.3 -205.2 -351.7 127 185.6 -293.1 -273.6 -185.6 -439.7 -185.6 -48.85 -605.8 -498.3 -351.7 -107.5
1.375 -224.7 -351.7 -97.7 -498.3 -166.1 -429.9 -58.62 -449.4 214.9 -29.31 -19.54 -293.1 -29.31 -439.7 -68.39 -244.3 -273.6 -488.5 -156.3 205.2
1.38 -371.3 -263.8 9.77 -332.2 -136.8 -283.3 -78.16 -469 78.16 -185.6 107.5 -293.1 -39.08 -420.1 -175.9 -332.2 -166.1 -449.4 -175.9 156.3
1.385 -263.8 -254 -107.5 -283.3 -214.9 -214.9 -205.2 -420.1 -29.31 -205.2 -87.93 -263.8 -254 -400.6 -302.9 -351.7 -254 -283.3 -293.1 -29.31
1.39 -58.62 -9.77 9.77 -19.54 -48.85 58.62 -156.3 -312.7 -97.7 -205.2 -39.08 9.77 -78.16 -205.2 -273.6 -312.7 -107.5 -48.85 -205.2 -68.39
1.395 -97.7 -48.85 -166.1 -68.39 -214.9 9.77 -273.6 -371.3 -263.8 -351.7 -146.6 -48.85 -87.93 -302.9 -351.7 -420.1 -263.8 -136.8 -312.7 -78.16
1.4 97.7 97.7 -58.62 78.16 68.39 205.2 -87.93 -205.2 -136.8 -302.9 -29.31 156.3 166.1 -127 -78.16 -283.3 -68.39 87.93 -127 -87.93
1.405 58.62 58.62 -107.5 39.08 19.54 175.9 -175.9 -273.6 -263.8 -439.7 -78.16 136.8 156.3 -205.2 -58.62 -351.7 -146.6 87.93 -214.9 -205.2
1.41 136.8 146.6 58.62 146.6 234.5 254 -19.54 -156.3 -156.3 -420.1 185.6 166.1 351.7 -117.2 117.2 -214.9 39.08 234.5 -78.16 -224.7
1.415 -87.93 87.93 -117.2 156.3 9.77 244.3 -156.3 -205.2 -263.8 -439.7 48.85 185.6 166.1 -68.39 68.39 -156.3 -146.6 185.6 -136.8 -273.6
1.42 -205.2 293.1 58.62 429.9 166.1 488.5 0 136.8 -195.4 -195.4 136.8 342 312.7 166.1 166.1 107.5 9.77 488.5 19.54 -332.2
1.425 -224.7 273.6 -9.77 439.7 117.2 576.5 9.77 273.6 -175.9 -117.2 107.5 420.1 224.7 263.8 97.7 234.5 9.77 576.5 117.2 -390.8
1.43 -263.8 263.8 146.6 459.2 254 683.9 117.2 400.6 -97.7 0 117.2 439.7 312.7 302.9 136.8 283.3 87.93 742.6 185.6 -478.7
1.435 -185.6 400.6 146.6 576.5 263.8 830.5 195.4 605.8 -117.2 175.9 48.85 547.1 283.3 439.7 78.16 381 68.39 781.6 312.7 -488.5
1.44 -78.16 420.1 283.3 527.6 429.9 879.3 351.7 683.9 9.77 302.9 117.2 508.1 342 498.3 166.1 361.5 136.8 762.1 400.6 -420.1
1.445 -58.62 195.4 166.1 371.3 400.6 703.5 390.8 625.3 19.54 302.9 166.1 429.9 410.4 478.7 205.2 429.9 97.7 664.4 439.7 -361.5
1.45 58.62 439.7 127 469 342 723 420.1 713.2 48.85 488.5 9.77 469 254 537.4 214.9 576.5 48.85 644.8 420.1 -439.7
1.455 -58.62 107.5 224.7 263.8 459.2 400.6 596 459.2 224.7 302.9 273.6 283.3 566.7 381 381 498.3 214.9 342 596 -29.31
1.46 -127 234.5 117.2 342 263.8 439.7 420.1 537.4 146.6 332.2 156.3 371.3 342 400.6 312.7 615.5 97.7 273.6 420.1 -136.8
1.465 -68.39 68.39 136.8 185.6 185.6 175.9 361.5 332.2 205.2 136.8 224.7 224.7 400.6 273.6 273.6 469 156.3 78.16 400.6 87.93
1.47 68.39 19.54 195.4 58.62 127 97.7 234.5 205.2 127 0 283.3 185.6 361.5 214.9 146.6 459.2 166.1 39.08 273.6 87.93
1.475 302.9 19.54 127 -29.31 -19.54 19.54 29.31 117.2 -19.54 -39.08 166.1 107.5 175.9 166.1 29.31 459.2 29.31 -68.39 127 58.62
1.48 351.7 0 87.93 -97.7 -136.8 -58.62 -117.2 68.39 -156.3 -127 29.31 48.85 -48.85 87.93 -146.6 410.4 -78.16 -117.2 -29.31 -29.31
1.485 244.3 -39.08 146.6 -136.8 -117.2 -117.2 -166.1 -68.39 -244.3 -234.5 9.77 97.7 -78.16 29.31 -166.1 332.2 -78.16 -107.5 -87.93 -48.85
1.49 234.5 -78.16 205.2 -185.6 -87.93 -244.3 -175.9 -156.3 -361.5 -469 39.08 0 -185.6 -87.93 -224.7 48.85 -48.85 -302.9 -175.9 127
1.495 78.16 87.93 97.7 -39.08 -127 -136.8 -224.7 -146.6 -508.1 -508.1 -39.08 97.7 -175.9 -48.85 -263.8 48.85 -97.7 -185.6 -175.9 0
1.5 136.8 195.4 127 136.8 -9.77 -9.77 -185.6 -117.2 -527.6 -586.2 78.16 195.4 -127 0 -185.6 -48.85 48.85 -58.62 -156.3 39.08
1.505 273.6 312.7 224.7 273.6 185.6 146.6 -19.54 29.31 -449.4 -527.6 195.4 205.2 29.31 39.08 -29.31 -58.62 214.9 214.9 39.08 29.31
1.51 214.9 312.7 87.93 420.1 87.93 361.5 -107.5 175.9 -547.6 -400.6 97.7 254 -58.62 107.5 -117.2 -19.54 87.93 488.5 9.77 -244.3
1.515 273.6 302.9 371.3 488.5 429.9 556.9 254 478.7 -175.9 -166.1 361.5 263.8 234.5 263.8 156.3 185.6 302.9 703.5 361.5 -87.93
1.52 449.4 293.1 410.4 342 400.6 547.1 214.9 488.5 -127 -185.6 332.2 205.2 244.3 302.9 166.1 166.1 283.3 576.5 342 -9.77
1.525 361.5 244.3 508.1 244.3 498.3 556.9 332.2 527.6 107.5 -58.62 390.8 185.6 371.3 381 312.7 312.7 381 605.8 488.5 78.16
1.53 332.2 87.93 537.4 97.7 449.4 322.4 293.1 361.5 107.5 -166.1 351.7 58.62 322.4 224.7 263.8 205.2 342 361.5 351.7 254
1.535 400.6 97.7 478.7 -97.7 322.4 19.54 146.6 29.31 78.16 -390.8 293.1 58.62 195.4 117.2 166.1 58.62 244.3 -39.08 136.8 459.2
1.54 -117.2 29.31 185.6 -87.93 -68.39 -29.31 -214.9 -9.77 -166.1 -332.2 9.77 -9.77 -68.39 39.08 -58.62 78.16 -19.54 -146.6 -244.3 224.7
1.545 -107.5 -263.8 -29.31 -420.1 -302.9 -351.7 -332.2 -263.8 -195.4 -508.1 -87.93 -234.5 -293.1 -185.6 -185.6 -136.8 -263.8 -517.8 -429.9 273.6
1.55 -322.4 -263.8 -273.6 -390.8 -478.7 -263.8 -390.8 -78.16 -185.6 -312.7 -175.9 -195.4 -322.4 -117.2 -234.5 9.77 -420.1 -410.4 -517.8 68.39
1.555 -508.1 -508.1 -214.9 -527.6 -390.8 -361.5 -156.3 -107.5 78.16 -273.6 -78.16 -400.6 -136.8 -234.5 -19.54 -58.62 -429.9 -556.9 -244.3 283.3
1.56 -302.9 -293.1 0 -254 -117.2 -39.08 195.4 244.3 410.4 97.7 29.31 -146.6 78.16 9.77 283.3 175.9 -214.9 -214.9 29.31 156.3
1.565 -302.9 -185.6 156.3 -48.85 87.93 185.6 371.3 381 605.8 302.9 214.9 19.54 283.3 127 488.5 254 -48.85 87.93 244.3 58.62
1.57 -146.6 78.16 224.7 244.3 146.6 410.4 390.8 566.7 615.5 488.5 97.7 234.5 293.1 283.3 478.7 420.1 68.39 371.3 283.3 -117.2
1.575 -48.85 214.9 166.1 420.1 78.16 556.9 342 664.4 517.8 635.1 58.62 371.3 224.7 439.7 381 625.3 58.62 400.6 302.9 -254
1.58 48.85 244.3 48.85 371.3 -87.93 390.8 175.9 517.8 224.7 537.4 -117.2 312.7 39.08 449.4 156.3 615.5 -29.31 244.3 146.6 -254
1.585 156.3 195.4 244.3 302.9 9.77 263.8 195.4 429.9 302.9 449.4 78.16 254 127 410.4 166.1 625.3 136.8 87.93 263.8 -29.31
1.59 97.7 58.62 205.2 146.6 -117.2 9.77 0 146.6 58.62 146.6 -58.62 117.2 -19.54 234.5 -68.39 429.9 195.4 -146.6 78.16 127
1.595 205.2 195.4 234.5 263.8 -205.2 19.54 -263.8 9.77 -234.5 -39.08 -78.16 156.3 -195.4 214.9 -263.8 322.4 254 -214.9 -166.1 175.9
1.6 -205.2 136.8 293.1 214.9 -312.7 -29.31 -508.1 -166.1 -527.6 -263.8 -156.3 87.93 -263.8 97.7 -459.2 127 302.9 -283.3 -371.3 244.3
1.605 -9.77 283.3 175.9 254 -459.2 0 -664.4 -185.6 -703.5 -322.4 -351.7 136.8 -420.1 87.93 -537.4 39.08 185.6 -195.4 -615.5 -9.77
1.61 -146.6 48.85 9.77 68.39 -537.4 -117.2 -683.9 -224.7 -693.7 -420.1 -439.7 -9.77 -498.3 -39.08 -429.9 -68.39 39.08 -351.7 -615.5 19.54
1.615 -107.5 -185.6 -48.85 -175.9 -439.7 -273.6 -449.4 -214.9 -469 -420.1 -361.5 -185.6 -332.2 -127 -185.6 -195.4 -107.5 -469 -420.1 166.1
1.62 58.62 -156.3 -58.62 -185.6 -244.3 -185.6 -127 -107.5 -175.9 -293.1 -87.93 -136.8 -117.2 -68.39 78.16 -146.6 -146.6 -439.7 -205.2 185.6
1.625 166.1 -205.2 127 -263.8 -29.31 -283.3 136.8 -117.2 9.77 -302.9 136.8 -166.1 146.6 -127 224.7 -263.8 -58.62 -361.5 -39.08 205.2
1.63 87.93 78.16 195.4 29.31 29.31 -117.2 127 -9.77 -9.77 -205.2 205.2 48.85 107.5 9.77 175.9 -224.7 29.31 -107.5 -87.93 29.31
1.635 234.5 224.7 322.4 175.9 68.39 -68.39 97.7 -58.62 -19.54 -185.6 234.5 224.7 87.93 29.31 97.7 -322.4 68.39 -29.31 -78.16 -68.39
1.64 39.08 156.3 68.39 117.2 -117.2 -175.9 -175.9 -293.1 -185.6 -332.2 68.39 29.31 -117.2 -166.1 -136.8 -527.6 -87.93 -175.9 -273.6 -107.5
1.645 9.77 97.7 -48.85 58.62 -283.3 -254 -312.7 -342 -244.3 -371.3 -68.39 19.54 -263.8 -214.9 -351.7 -547.6 -234.5 -224.7 -273.6 -146.6
1.65 -283.3 -234.5 -302.9 -234.5 -586.2 -400.6 -576.5 -517.8 -302.9 -517.8 -166.1 -195.4 -449.4 -371.3 -478.7 -693.7 -439.7 -537.4 -429.9 -68.39
1.655 -762.1 -312.7 -478.7 -342 -859.8 -517.8 -889.1 -615.5 -547.6 -615.5 -342 -254 -683.9 -469 -713.2 -723 -635.6 -801.2 -644.8 -58.62
1.66 -517.8 -478.7 -527.6 -498.3 -1036 -635.6 -1045 -713.2 -693.7 -732.8 -371.3 -342 -781.6 -439.7 -801.2 -674.6 -674.6 -996.6 -791.4 78.16
1.665 -556.9 -566.7 -459.2 -625.3 -1025 -713.2 -1085 -771.9 -742.6 -869.6 -342 -469 -713.2 -498.3 -762.1 -635.6 -655.1 -1172 -859.8 263.8
1.67 -214.9 -166.1 -410.4 -302.9 -889.1 -342 -1006 -351.7 -781.6 -547.6 -205.2 -107.5 -615.5 -97.7 -703.5 -224.7 -527.6 -625.3 -810.9 -136.8
1.675 9.77 -283.3 -302.9 -361.5 -635.6 -420.1 -771.9 -361.5 -703.5 -576.5 -97.7 -224.7 -381 -127 -478.7 -205.2 -390.8 -644.8 -723 58.62
1.68 -185.6 -322.4 -195.4 -361.5 -439.7 -429.9 -566.7 -381 -605.8 -527.6 9.77 -205.2 -254 -146.6 -322.4 -273.6 -381 -683.9 -674.6 185.6
1.685 -195.4 -214.9 -156.3 -254 -244.3 -420.1 -439.7 -302.9 -517.8 -390.8 58.62 -68.39 -87.93 0 -185.6 -214.9 -400.6 -478.7 -683.9 19.54
1.69 -439.7 -449.4 -234.5 -420.1 -312.7 -674.6 -410.4 -498.3 -537.4 -527.6 39.08 -244.3 0 -166.1 -195.4 -439.7 -488.5 -742.6 -752.3 87.93
1.695 -478.7 -508.1 -302.9 -508.1 -449.4 -850 -527.6 -596 -576.5 -615.5 -19.54 -342 -136.8 -234.5 -234.5 -478.7 -576.5 -820.7 -850 58.62
1.7 -293.1 -351.7 -214.9 -410.4 -537.4 -859.8 -703.5 -655.1 -664.4 -723 -87.93 -351.7 -205.2 -312.7 -293.1 -527.6 -478.7 -938 -928.2 136.8
1.705 -322.4 -97.7 -254 -117.2 -674.6 -596 -908.6 -381 -801.2 -517.8 -234.5 -136.8 -371.3 -68.39 -390.8 -283.3 -429.9 -596 -1036 -224.7
1.71 -234.5 -78.16 48.85 -97.7 -556.9 -498.3 -850 -322.4 -655.1 -429.9 -166.1 -107.5 -332.2 -68.39 -234.5 -322.4 -136.8 -469 -820.7 -29.31
1.715 -195.4 -185.6 39.08 -87.93 -537.4 -283.3 -801.2 -68.39 -498.3 -234.5 -283.3 -29.31 -371.3 39.08 -214.9 -244.3 -166.1 -351.7 -655.1 -58.62
1.72 -224.7 -263.8 -58.62 -127 -508.1 -117.2 -547.6 195.4 -263.8 19.54 -273.6 -29.31 -371.3 78.16 -58.62 -185.6 -175.9 -205.2 -381 19.54
1.725 -293.1 -469 -29.31 -283.3 -459.2 -156.3 -322.4 381 -58.62 195.4 -234.5 -117.2 -322.4 19.54 48.85 -195.4 -322.4 -166.1 -224.7 -78.16
1.73 -29.31 -302.9 29.31 -156.3 -273.6 -39.08 39.08 644.8 205.2 351.7 -87.93 -9.77 -195.4 117.2 224.7 -146.6 -263.8 -87.93 68.39 -39.08
1.735 29.31 -244.3 224.7 -136.8 -78.16 -48.85 293.1 752.3 488.5 488.5 -87.93 39.08 19.54 214.9 381 -146.6 -136.8 -68.39 312.7 19.54
1.74 -273.6 -224.7 136.8 -97.7 -58.62 -29.31 312.7 830.5 537.4 459.2 -205.2 29.31 -175.9 205.2 342 -146.6 -195.4 -175.9 371.3 39.08
1.745 -166.1 -332.2 185.6 -244.3 48.85 -166.1 429.9 674.2 615.5 342 -117.2 -107.5 78.16 127 342 -244.3 -205.2 -166.1 400.6 48.85
1.75 -371.3 -283.3 224.7 -195.4 185.6 -185.6 508.1 605.8 596 234.5 -29.31 -146.6 97.7 58.62 351.7 -302.9 -117.2 -78.16 420.1 68.39
1.755 -87.93 -302.9 205.2 -205.2 234.5 -332.2 439.7 332.2 488.5 19.54 107.5 -224.7 205.2 -97.7 293.1 -449.4 -166.1 -39.08 342 39.08
1.76 -117.2 -263.8 302.9 -185.6 361.5 -332.2 478.7 156.3 439.7 -78.16 263.8 -195.4 400.6 -166.1 332.2 -556.9 -68.39 19.54 263.8 87.93
1.765 -29.31 -205.2 234.5 -195.4 283.3 -332.2 293.1 29.31 283.3 -58.62 195.4 -68.39 302.9 -244.3 254 -537.4 -175.9 78.16 0 -175.9
1.77 19.54 -351.7 127 -469 146.6 -566.7 58.62 -283.3 39.08 -293.1 58.62 -263.8 195.4 -439.7 136.8 -801.2 -293.1 -244.3 -214.9 29.31
1.775 -185.6 -302.9 0 -439.7 -97.7 -547.6 -293.1 -381 -244.3 -283.3 -58.62 -136.8 -39.08 -400.6 -97.7 -713.2 -400.6 -381 -527.6 -107.5
1.78 -254 -400.6 -156.3 -625.3 -381 -723 -781.6 -625.3 -723 -576.5 -244.3 -283.3 -322.4 -547.6 -449.4 -889.1 -576.5 -674.6 -938 -48.85
1.785 -332.2 -185.6 -87.93 -342 -459.2 -537.4 -1094 -576.5 -1085 -655.1 -361.5 -185.6 -566.7 -390.8 -683.9 -830.5 -361.5 -449.4 -1094 -156.3
1.79 -273.6 97.7 195.4 48.85 -244.3 -322.4 -1075 -478.7 -1182 -703.5 -263.8 -48.85 -478.7 -312.7 -732.8 -771.9 0 -136.8 -1085 -185.6
1.795 58.62 342 420.1 420.1 -39.08 -107.5 -977.5 -439.7 -1192 -683.9 -263.8 87.93 -420.1 -214.9 -723 -703.5 390.8 195.4 -957.5 -127
1.8 615.5 625.3 889.1 791.4 410.4 107.5 -508.1 -283.3 -801.2 -556.9 97.7 244.3 -9.77 -117.2 -361.5 -547.6 928.2 488.5 -498.3 87.93
1.805 791.4 537.4 957.5 762.1 693.7 58.62 -48.85 -205.2 -390.8 -400.6 312.7 254 302.9 -29.31 -48.85 -439.7 1026 547.1 -146.6 195.4
1.81 859.8 527.6 986.8 732.8 947.7 97.7 410.4 68.39 136.8 -146.6 449.4 332.2 556.9 175.9 312.7 -195.4 1094 586.2 351.7 254
1.815 635.1 214.9 820.7 410.4 1045 48.85 791.4 263.8 556.9 87.93 478.7 224.7 683.9 234.5 537.4 19.54 908.6 429.9 771.9 410.4
1.82 469 68.39 596 185.6 986.8 117.2 918.4 429.9 732.8 263.8 439.7 146.6 664.4 312.7 635.1 185.6 625.3 322.4 938 390.8
1.825 117.2 -39.08 390.8 9.77 830.5 205.2 918.4 625.3 762.1 429.9 117.2 39.08 332.2 351.7 537.4 312.7 449.4 400.6 1036 224.7
1.83 322.4 9.77 322.4 -9.77 703.5 410.4 791.4 771.9 693.7 664.4 283.3 -107.5 381 429.9 469 498.3 420.1 625.3 947.7 -9.77
1.835 244.3 332.2 136.8 244.3 381 664.4 517.8 1036 527.6 996.6 9.77 -39.08 0 527.6 254 683.9 195.4 732.8 723 -429.9
1.84 78.16 87.93 -48.85 107.5 117.2 449.4 381 840.3 596 1026 -48.85 -234.5 -29.31 381 312.7 625.3 117.2 537.4 566.7 -400.6
1.845 78.16 205.2 -263.8 214.9 -146.6 361.5 214.9 732.8 586.2 1075 -146.6 -195.4 -185.6 254 244.3 556.9 -68.39 371.3 263.8 -605.8
1.85 -322.4 -146.6 -674.6 -97.7 -547.6 -87.93 -87.93 214.9 420.1 742.6 -361.5 -410.4 -420.1 -136.8 48.85 195.4 -498.3 -58.62 -234.5 -655.1
1.855 -605.8 -293.1 -859.8 -146.6 -615.5 -234.5 -185.6 -117.2 302.9 488.5 -400.6 -410.4 -449.4 -312.7 -9.77 9.77 -655.1 -342 -381 -547.6
1.86 -371.3 -556.9 -781.6 -342 -429.9 -508.1 -136.8 -488.5 273.6 39.08 -205.2 -635.6 -332.2 -605.8 -39.08 -342 -469 -517.8 -332.2 -97.7
1.865 -234.5 -312.7 -752.3 -48.85 -234.5 -185.6 -136.8 -351.7 29.31 48.85 -205.2 -420.1 -361.5 -429.9 -214.9 -361.5 -332.2 -107.5 -342 -332.2
1.87 97.7 -156.3 -381 97.7 68.39 19.54 9.77 -332.2 -48.85 -48.85 -29.31 -449.4 -166.1 -469 -224.7 -420.1 78.16 283.3 -136.8 -224.7
1.875 410.4 58.62 -78.16 371.3 351.7 312.7 127 -97.7 -185.6 -9.77 -48.85 -283.3 -87.93 -312.7 -195.4 -439.7 361.5 664.4 78.16 -224.7
1.88 263.8 234.5 -48.85 508.1 342 410.4 78.16 -39.08 -371.3 -48.85 19.54 -175.9 -29.31 -234.5 -244.3 -439.7 322.4 820.7 9.77 -351.7
1.885 439.7 263.8 -19.54 459.2 381 361.5 117.2 -78.16 -439.7 -117.2 48.85 -87.93 39.08 -136.8 -166.1 -420.1 351.7 791.4 175.9 -302.9
1.89 371.3 293.1 -136.8 498.3 283.3 342 107.5 -87.93 -478.7 -166.1 -58.62 58.62 -195.4 9.77 -136.8 -312.7 254 713.2 156.3 -273.6
1.895 420.1 410.4 -146.6 586.2 283.3 420.1 205.2 -39.08 -351.7 -58.62 185.6 244.3 39.08 273.6 -58.62 -107.5 234.5 664.4 322.4 -195.4
1.9 332.2 400.6 -302.9 615.5 175.9 449.4 127 -87.93 -371.3 -136.8 58.62 381 -185.6 381 -117.2 -48.85 185.6 508.1 273.6 -87.93
1.905 293.1 381 -234.5 605.8 224.7 527.6 195.4 -68.39 -205.2 -48.85 39.08 400.6 -78.16 469 -107.5 87.93 244.3 478.7 390.8 9.77
1.91 -97.7 48.85 -566.7 302.9 48.85 410.4 97.7 -214.9 -175.9 -127 -87.93 214.9 -156.3 244.3 -185.6 87.93 68.39 263.8 312.7 48.85
1.915 -9.77 -117.2 -556.9 175.9 78.16 478.7 214.9 -87.93 48.85 48.85 -39.08 156.3 -48.85 205.2 -29.31 263.8 29.31 195.4 508.1 127
1.92 19.54 -195.4 -556.9 97.7 146.6 566.7 390.8 205.2 361.5 371.3 -39.08 78.16 68.39 224.7 166.1 566.7 19.54 224.7 693.7 117.2
1.925 -48.85 -283.3 -508.1 107.5 224.7 693.7 527.6 517.8 576.5 703.5 -9.77 78.16 146.6 263.8 351.7 879.3 -107.5 381 791.4 -19.54
1.93 -214.9 -283.3 -410.4 107.5 293.1 683.9 664.4 664.4 791.4 879.3 68.39 19.54 234.5 263.8 488.5 996.6 -19.54 449.4 947.7 0
1.935 -185.6 -78.16 -273.6 244.3 371.3 840.3 713.2 840.3 928.2 1143 -48.85 146.6 234.5 449.4 527.6 1192 19.54 615.5 996.6 -156.3
1.94 -127 -68.39 -146.6 224.7 478.7 713.2 781.6 791.4 1055 1133 -39.08 107.5 283.3 478.7 586.2 1182 97.7 566.7 996.6 -9.77
1.945 -205.2 0 -117.2 146.6 459.2 625.3 732.8 732.8 1036 1114 -39.08 58.62 283.3 478.7 566.7 1143 58.62 527.6 938 -87.93
1.95 48.85 -107.5 -29.31 0 429.9 410.4 654.6 469 1006 869.6 -97.7 -107.5 224.7 293.1 556.9 908.6 127 361.5 830.5 19.54
1.955 58.62 29.31 -117.2 78.16 273.6 322.4 469 371.3 752.3 752.3 -97.7 -39.08 127 273.6 390.8 732.8 78.16 351.7 586.2 -97.7
1.96 97.7 48.85 -78.16 39.08 146.6 78.16 244.3 58.62 449.4 410.4 -136.8 -48.85 -68.39 78.16 195.4 342 146.6 263.8 293.1 -97.7
1.965 214.9 283.3 -87.93 214.9 78.16 -78.16 48.85 -166.1 78.16 185.6 -97.7 127 -87.93 39.08 0 58.62 205.2 342 -29.31 -302.9
1.97 185.6 254 -39.08 166.1 97.7 -342 29.31 -517.8 0 -175.9 -68.39 29.31 -117.2 -175.9 -68.39 -390.8 234.5 244.3 -127 -127
1.975 205.2 429.9 -224.7 224.7 -58.62 -322.4 -195.4 -655.1 -371.3 -273.6 -166.1 127 -146.6 -175.9 -263.8 -537.4 -9.77 117.2 -400.6 -234.5
1.98 -205.2 195.4 -429.9 48.85 -185.6 -322.4 -342 -752.3 -527.6 -429.9 -224.7 48.85 -97.7 -175.9 -381 -635.6 -224.7 19.54 -586.2 -244.3
1.985 -175.9 136.8 -556.9 29.31 -302.9 -195.4 -537.4 -771.9 -918.4 -537.4 -312.7 127 -214.9 -78.16 -664.4 -644.8 -420.1 58.62 -781.6 -332.2
1.99 -87.93 58.62 -400.6 -58.62 -234.5 -97.7 -615.5 -928.2 -1124 -771.9 -254 117.2 -185.6 -39.08 -771.9 -635.6 -205.2 107.5 -850 -205.2
1.995 146.6 0 -205.2 0 -68.39 -29.31 -664.4 -1055 -1270 -1045 -78.16 97.7 -127 -97.7 -820.7 -655.1 -19.54 29.31 -791.4 48.85
2 459.2 156.3 87.93 136.8 136.8 107.5 -586.2 -1045 -1192 -1075 146.6 107.5 58.62 -9.77 -683.9 -508.1 263.8 254 -664.4 107.5
2.005 498.3 244.3 166.1 195.4 136.8 68.39 -488.5 -947.7 -996.6 -1006 175.9 87.93 87.93 -48.85 -488.5 -361.5 361.5 254 -527.6 97.7
2.01 166.1 156.3 117.2 175.9 156.3 136.8 -224.7 -615.5 -615.5 -635.6 156.3 117.2 127 -9.77 -244.3 -175.9 224.7 322.4 -283.3 -87.93
2.015 48.85 127 97.7 87.93 175.9 117.2 97.7 -293.1 -97.7 -127 156.3 0 146.6 -9.77 78.16 68.39 58.62 224.7 -19.54 -87.93
2.02 -195.4 -107.5 -97.7 -136.8 97.7 87.93 400.6 9.77 381 351.7 68.39 -117.2 146.6 -19.54 322.4 234.5 -175.9 87.93 283.3 -68.39
2.025 -263.8 -322.4 -214.9 -381 68.39 -58.62 664.4 214.9 879.3 683.9 9.77 -234.5 146.6 -117.2 537.4 312.7 -302.9 -29.31 566.7 9.77
2.03 -214.9 -312.7 -302.9 -381 -9.77 -48.85 762.1 469 1182 1016 39.08 -175.9 156.3 -117.2 615.5 381 -361.5 29.31 771.9 -29.31
2.035 -342 -488.5 -527.6 -508.1 -205.2 -185.6 703.5 537.4 1378 1202 -156.3 -273.6 29.31 -195.4 556.9 400.6 -566.7 -185.6 820.7 -29.31
2.04 -224.7 -498.3 -703.5 -537.4 -381 -342 654.6 478.7 1563 1212 -185.6 -312.7 -9.77 -322.4 537.4 371.3 -527.6 -322.4 840.3 29.31
2.045 -312.7 -498.3 -947.7 -615.5 -644.8 -459.2 361.5 361.5 1417 1124 -371.3 -429.9 -175.9 -400.6 312.7 293.1 -810.9 -537.4 547.1 -107.5
2.05 -469 -683.9 -1163 -898.9 -898.9 -801.2 0 39.08 1241 830.5 -566.7 -596 -488.5 -566.7 19.54 87.93 -996.6 -889.1 136.8 -107.5
2.055 -361.5 -683.9 -1045 -1055 -918.4 -1025 -254 -361.5 977 469 -439.7 -644.8 -371.3 -674.6 -107.5 -97.7 -957.5 -1133 -97.7 48.85
2.06 -439.7 -752.3 -918.4 -1036 -850 -1124 -527.6 -625.3 605.8 146.6 -517.8 -576.5 -488.5 -615.5 -312.7 -234.5 -830.5 -1250 -322.4 254
2.065 -185.6 -586.2 -478.7 -820.7 -566.7 -987.3 -527.6 -703.5 361.5 -117.2 -195.4 -400.6 -234.5 -478.7 -361.5 -293.1 -410.4 -1036 -263.8 381
2.07 166.1 -596 -156.3 -683.9 -342 -879.8 -556.9 -889.1 -9.77 -478.7 -78.16 -332.2 -78.16 -469 -547.6 -410.4 -29.31 -879.8 -283.3 566.7
2.075 449.4 -302.9 205.2 -390.8 -39.08 -615.5 -439.7 -781.6 -302.9 -635.6 146.6 -244.3 -29.31 -332.2 -556.9 -400.6 302.9 -635.6 -127 683.9
2.08 283.3 -410.4 175.9 -400.6 -117.2 -508.1 -605.8 -840.3 -781.6 -898.9 97.7 -302.9 -87.93 -381 -791.4 -498.3 234.5 -586.2 -312.7 644.8
2.085 644.8 78.16 302.9 -48.85 97.7 -87.93 -508.1 -527.6 -850 -644.8 234.5 -39.08 -39.08 -127 -674.6 -322.4 342 -156.3 -312.7 302.9
2.09 429.9 29.31 117.2 -78.16 -127 -78.16 -635.6 -469 -1045 -703.5 166.1 -9.77 -48.85 -117.2 -576.5 -332.2 107.5 -175.9 -517.8 68.39
2.095 644.8 332.2 156.3 146.6 -19.54 29.31 -400.6 -234.5 -752.3 -459.2 293.1 166.1 97.7 19.54 -254 -156.3 107.5 0 -459.2 -117.2
2.1 644.8 214.9 0 58.62 -107.5 -117.2 -302.9 -166.1 -527.6 -400.6 214.9 -29.31 97.7 -87.93 -9.77 -127 -9.77 -156.3 -439.7 -58.62
2.105 644.8 273.6 78.16 78.16 19.54 -166.1 -19.54 -29.31 -97.7 -146.6 283.3 -58.62 273.6 -29.31 322.4 0 107.5 -78.16 -156.3 9.77
2.11 556.9 273.6 107.5 97.7 97.7 -97.7 185.6 136.8 156.3 78.16 254 -58.62 214.9 9.77 361.5 156.3 117.2 29.31 29.31 -39.08
2.115 420.1 205.2 166.1 205.2 195.4 117.2 381 420.1 469 371.3 205.2 58.62 224.7 166.1 420.1 312.7 195.4 117.2 381 68.39
2.12 361.5 -214.9 166.1 -234.5 312.7 -175.9 586.2 195.4 703.5 205.2 97.7 -87.93 185.6 -39.08 410.4 117.2 244.3 -166.1 693.7 517.8
2.125 214.9 39.08 195.4 107.5 381 234.5 703.5 654.6 810.9 713.2 87.93 185.6 195.4 254 332.2 351.7 254 68.39 889.1 263.8
2.13 97.7 -214.9 78.16 -205.2 312.7 0 713.2 449.4 771.9 576.5 -9.77 0 156.3 68.39 283.3 117.2 166.1 -175.9 977 498.3
2.135 146.6 -87.93 58.62 -127 410.4 87.93 781.6 605.8 850 850 68.39 48.85 283.3 146.6 390.8 273.6 136.8 -146.6 1036 420.1
2.14 263.8 -39.08 117.2 -214.9 420.1 -58.62 762.1 478.7 752.3 742.6 107.5 -78.16 371.3 0 449.4 156.3 78.16 -254 918.4 508.1
2.145 175.9 -117.2 146.6 -410.4 478.7 -195.4 752.3 400.6 771.9 664.4 175.9 -195.4 478.7 -117.2 596 175.9 39.08 -273.6 859.8 537.4
2.15 0 -185.6 175.9 -469 517.8 -136.8 771.9 400.6 801.2 615.5 156.3 -244.3 537.4 -127 703.5 263.8 39.08 -107.5 762.1 410.4
2.155 -39.08 -117.2 332.2 -420.1 527.6 -68.39 830.5 342 928.2 517.8 244.3 -166.1 615.5 -117.2 830.5 322.4 205.2 -97.7 771.9 517.8
2.16 -429.9 48.85 107.5 -254 214.9 -58.62 586.2 175.9 713.2 390.8 58.62 -9.77 381 -19.54 693.7 332.2 127 -156.3 459.2 351.7
2.165 -361.5 58.62 58.62 -234.5 136.8 -127 498.3 -58.62 713.2 146.6 97.7 107.5 381 -48.85 635.1 234.5 156.3 -322.4 302.9 439.7
2.17 -420.1 273.6 -97.7 78.16 -87.93 -48.85 185.6 -195.4 361.5 -39.08 -19.54 283.3 166.1 68.39 263.8 185.6 87.93 -175.9 -48.85 127
2.175 -302.9 185.6 58.62 -48.85 -29.31 -175.9 68.39 -488.5 224.7 -429.9 68.39 156.3 224.7 -78.16 87.93 0 205.2 -390.8 -117.2 420.1
2.18 -351.7 293.1 9.77 58.62 -78.16 -9.77 -195.4 -400.6 -166.1 -547.6 -29.31 214.9 39.08 9.77 -322.4 29.31 195.4 -175.9 -283.3 205.2
2.185 -293.1 351.7 195.4 146.6 97.7 156.3 -244.3 -381 -478.7 -635.6 58.62 195.4 -9.77 107.5 -527.6 87.93 234.5 19.54 -224.7 97.7
2.19 -214.9 312.7 351.7 78.16 156.3 107.5 -332.2 -478.7 -810.9 -820.7 78.16 185.6 -39.08 68.39 -781.6 -9.77 351.7 127 -263.8 107.5
2.195 -293.1 478.7 556.9 263.8 361.5 283.3 -244.3 -410.4 -987.3 -859.8 156.3 312.7 -9.77 78.16 -840.3 -9.77 478.7 185.6 -175.9 127
2.2 -78.16 508.1 693.7 293.1 517.8 312.7 -87.93 -429.9 -987.3 -947.7 283.3 381 214.9 87.93 -615.5 -166.1 654.6 254 -29.31 302.9
2.205 -97.7 644.8 664.4 469 508.1 478.7 -29.31 -224.7 -1016 -840.3 283.3 527.6 283.3 185.6 -527.6 -87.93 664.4 429.9 -39.08 166.1
2.21 -39.08 605.8 556.9 478.7 420.1 596 -9.77 -87.93 -918.4 -742.6 224.7 586.2 302.9 234.5 -342 -58.62 605.8 527.6 -48.85 117.2
2.215 -156.3 390.8 459.2 322.4 342 566.7 87.93 68.39 -703.5 -596 244.3 381 322.4 195.4 -185.6 68.39 498.3 420.1 87.93 224.7
2.22 -97.7 459.2 185.6 459.2 175.9 771.9 107.5 459.2 -517.8 -127 68.39 517.8 117.2 410.4 -146.6 371.3 351.7 537.4 107.5 19.54
2.225 -205.2 224.7 117.2 195.4 78.16 605.8 273.6 566.7 -166.1 136.8 0 302.9 87.93 342 -29.31 488.5 263.8 361.5 254 127
2.23 -136.8 87.93 -68.39 117.2 -39.08 547.1 283.3 723 127 488.5 -175.9 312.7 -68.39 410.4 87.93 703.5 205.2 439.7 361.5 29.31
2.235 29.31 87.93 39.08 39.08 -29.31 410.4 410.4 742.6 439.7 625.3 -68.39 244.3 58.62 361.5 283.3 781.6 332.2 195.4 498.3 302.9
2.24 -488.5 87.93 -410.4 9.77 -449.4 234.5 -19.54 674.2 273.6 791.4 -390.8 254 -214.9 361.5 58.62 918.4 -87.93 39.08 87.93 -48.85
2.245 -322.4 244.3 -117.2 185.6 -293.1 293.1 -9.77 723 508.1 938 -166.1 371.3 -9.77 420.1 322.4 1016 39.08 58.62 127 -29.31
2.25 -987.3 312.7 -439.7 244.3 -674.6 420.1 -459.2 771.9 273.6 1124 -381 478.7 -244.3 556.9 68.39 1143 -332.2 214.9 -322.4 -586.2
2.255 -742.6 156.3 -351.7 68.39 -547.6 293.1 -498.3 556.9 273.6 977 -273.6 293.1 -175.9 400.6 156.3 928.2 -371.3 29.31 -400.6 -420.1
2.26 -850 127 -263.8 78.16 -478.7 342 -596 469 166.1 830.5 -214.9 244.3 -136.8 381 127 674.2 -361.5 136.8 -498.3 -459.2
2.265 -655.1 175.9 -175.9 107.5 -351.7 371.3 -556.9 283.3 127 547.1 -205.2 234.5 -58.62 283.3 175.9 351.7 -254 224.7 -508.1 -469
2.27 -205.2 127 87.93 97.7 -107.5 224.7 -312.7 -78.16 224.7 9.77 -19.54 156.3 166.1 0 361.5 -117.2 58.62 175.9 -371.3 -146.6
2.275 -439.7 234.5 -117.2 283.3 -254 234.5 -400.6 -244.3 39.08 -293.1 -293.1 273.6 48.85 -78.16 322.4 -420.1 -127 185.6 -566.7 -293.1
2.28 -439.7 175.9 -117.2 254 -205.2 175.9 -205.2 -478.7 68.39 -576.5 -195.4 263.8 195.4 -234.5 429.9 -693.7 -87.93 146.6 -478.7 -224.7
2.285 -498.3 156.3 -195.4 136.8 -332.2 -48.85 -244.3 -635.6 -58.62 -781.6 -342 263.8 68.39 -381 342 -898.9 -273.6 0 -615.5 -332.2
2.29 -517.8 0 -156.3 -78.16 -283.3 -342 -205.2 -869.6 -166.1 -1016 -244.3 48.85 9.77 -596 185.6 -1036 -283.3 -156.3 -556.9 -224.7
2.295 -87.93 127 58.62 -146.6 -195.4 -527.6 -205.2 -938 -254 -1085 -234.5 19.54 -195.4 -586.2 68.39 -967.8 -127 -224.7 -527.6 -175.9
2.3 9.77 381 420.1 -58.62 87.93 -566.7 -87.93 -889.1 -127 -996.6 39.08 58.62 78.16 -527.6 19.54 -732.8 185.6 -205.2 -302.9 39.08
2.305 29.31 420.1 615.5 -117.2 185.6 -655.1 -97.7 -830.5 -175.9 -977.5 19.54 29.31 -78.16 -469 -68.39 -674.6 332.2 -156.3 -214.9 68.39
2.31 312.7 586.2 771.9 146.6 342 -342 97.7 -459.2 58.62 -596 293.1 254 156.3 -205.2 29.31 -351.7 429.9 107.5 9.77 -19.54
2.315 78.16 156.3 586.2 -127 234.5 -351.7 136.8 -390.8 234.5 -556.9 166.1 29.31 136.8 -254 48.85 -420.1 263.8 -97.7 205.2 224.7
2.32 127 87.93 351.7 -48.85 195.4 9.77 293.1 0 390.8 -224.7 97.7 185.6 87.93 9.77 87.93 -185.6 39.08 87.93 390.8 78.16
2.325 97.7 -68.39 58.62 -127 68.39 127 322.4 234.5 488.5 -97.7 -87.93 107.5 -39.08 39.08 68.39 -214.9 -205.2 146.6 488.5 -39.08
2.33 -107.5 -185.6 195.4 -107.5 273.6 224.7 605.8 390.8 723 -58.62 -117.2 97.7 97.7 48.85 214.9 -283.3 -19.54 283.3 752.3 78.16
2.335 -205.2 -342 224.7 -78.16 244.3 29.31 478.7 664.4 654.6 127 283.3 -205.2 283.3 87.93 283.3 29.31 29.31 175.9 703.5 127
2.34 -48.85 -527.6 175.9 -244.3 254 -146.6 469 439.7 742.6 0 263.8 -293.1 234.5 -58.62 263.8 -9.77 29.31 0 596 273.6
2.345 -9.77 -586.2 214.9 -205.2 234.5 -127 381 400.6 723 58.62 244.3 -312.7 156.3 -39.08 234.5 107.5 68.39 -19.54 429.9 234.5
2.35 -175.9 -664.4 175.9 -371.3 107.5 -293.1 175.9 185.6 625.3 -97.7 -29.31 -312.7 -97.7 -146.6 127 9.77 -29.31 -342 166.1 439.7
2.355 -205.2 -655.1 214.9 -400.6 166.1 -322.4 185.6 68.39 566.7 -175.9 107.5 -273.6 48.85 -107.5 185.6 48.85 29.31 -361.5 97.7 439.7
2.36 -97.7 -625.3 175.9 -459.2 68.39 -342 9.77 -19.54 410.4 -283.3 0 -263.8 -78.16 -136.8 107.5 -48.85 -48.85 -429.9 -97.7 420.1
2.365 -175.9 -488.5 234.5 -361.5 156.3 -302.9 9.77 -9.77 302.9 -195.4 146.6 -175.9 97.7 -127 107.5 -97.7 0 -273.6 -136.8 293.1
2.37 -78.16 -469 175.9 -302.9 146.6 -381 -68.39 -97.7 175.9 -302.9 136.8 -273.6 39.08 -263.8 -9.77 -342 48.85 -381 -136.8 390.8
2.375 146.6 -214.9 293.1 -87.93 156.3 -185.6 -19.54 78.16 29.31 -146.6 224.7 -166.1 107.5 -146.6 -68.39 -312.7 48.85 -87.93 -68.39 97.7
2.38 -9.77 -97.7 273.6 48.85 195.4 -97.7 19.54 166.1 -78.16 -146.6 205.2 -166.1 58.62 -136.8 -117.2 -390.8 97.7 87.93 9.77 -19.54
2.385 283.3 -107.5 410.4 58.62 254 -58.62 156.3 205.2 -117.2 -273.6 205.2 -195.4 175.9 -136.8 -97.7 -459.2 224.7 68.39 195.4 175.9
2.39 361.5 78.16 488.5 322.4 351.7 214.9 175.9 488.5 -175.9 -127 302.9 87.93 146.6 195.4 -78.16 -195.4 400.6 302.9 322.4 39.08
2.395 459.2 -127 635.1 234.5 410.4 58.62 214.9 332.2 -127 -283.3 322.4 48.85 205.2 117.2 -29.31 -234.5 547.1 185.6 420.1 351.7
2.4 371.3 -48.85 771.9 273.6 488.5 87.93 214.9 342 -136.8 -312.7 400.6 175.9 283.3 166.1 29.31 -127 635.1 293.1 400.6 283.3
2.405 400.6 -29.31 762.1 302.9 517.8 68.39 175.9 273.6 -136.8 -293.1 508.1 185.6 312.7 185.6 19.54 -107.5 635.1 293.1 390.8 312.7
2.41 263.8 -48.85 674.2 302.9 449.4 -9.77 146.6 234.5 -166.1 -293.1 390.8 87.93 254 87.93 9.77 -195.4 449.4 205.2 254 234.5
2.415 293.1 -48.85 439.7 273.6 254 48.85 127 283.3 -205.2 -224.7 312.7 19.54 97.7 58.62 48.85 -68.39 273.6 224.7 185.6 58.62
2.42 234.5 -19.54 302.9 195.4 146.6 58.62 107.5 439.7 -244.3 -87.93 361.5 -97.7 185.6 78.16 39.08 -97.7 58.62 283.3 48.85 -185.6
2.425 234.5 68.39 322.4 273.6 136.8 136.8 185.6 664.4 -185.6 127 371.3 -29.31 166.1 68.39 214.9 48.85 107.5 293.1 156.3 -224.7
2.43 97.7 -29.31 361.5 156.3 156.3 78.16 273.6 723 -156.3 234.5 400.6 -156.3 273.6 58.62 263.8 214.9 87.93 214.9 205.2 -107.5
2.435 234.5 -19.54 508.1 87.93 371.3 48.85 469 801.2 127 400.6 449.4 -146.6 429.9 19.54 439.7 293.1 312.7 175.9 469 127
2.44 205.2 -97.7 459.2 19.54 322.4 58.62 400.6 850 127 547.1 302.9 -175.9 273.6 39.08 361.5 469 234.5 156.3 439.7 136.8
2.445 244.3 -68.39 469 -29.31 254 19.54 263.8 820.7 136.8 654.6 205.2 -146.6 214.9 68.39 302.9 478.7 195.4 58.62 351.7 146.6
2.45 410.4 -48.85 469 -87.93 195.4 -19.54 175.9 762.1 107.5 693.7 205.2 -195.4 136.8 68.39 195.4 537.4 97.7 -87.93 214.9 175.9
2.455 58.62 29.31 263.8 -156.3 -9.77 -39.08 -78.16 644.8 -87.93 625.3 107.5 -195.4 -9.77 19.54 48.85 459.2 -195.4 -224.7 -78.16 -19.54
2.46 136.8 39.08 273.6 -214.9 -97.7 -136.8 -156.3 420.1 -214.9 478.7 156.3 -156.3 0 48.85 68.39 332.2 -205.2 -254 -244.3 -117.2
2.465 -185.6 -185.6 0 -410.4 -273.6 -312.7 -332.2 166.1 -420.1 234.5 39.08 -390.8 -127 -136.8 -87.93 166.1 -508.1 -361.5 -390.8 -283.3
2.47 -224.7 -97.7 -48.85 -322.4 -342 -312.7 -361.5 19.54 -508.1 78.16 29.31 -351.7 -205.2 -97.7 -175.9 9.77 -537.4 -263.8 -420.1 -351.7
2.475 -9.77 19.54 19.54 -87.93 -244.3 -136.8 -273.6 -9.77 -586.2 19.54 68.39 -273.6 -68.39 -58.62 -214.9 -107.5 -410.4 -9.77 -273.6 -449.4
2.48 58.62 127 19.54 9.77 -273.6 -117.2 -312.7 -175.9 -752.3 -195.4 68.39 -244.3 -156.3 -97.7 -342 -312.7 -254 19.54 -302.9 -439.7
2.485 234.5 420.1 263.8 439.7 -29.31 195.4 -156.3 -107.5 -762.1 -127 195.4 19.54 29.31 48.85 -302.9 -283.3 48.85 293.1 -136.8 -459.2
2.49 283.3 322.4 322.4 439.7 87.93 127 -214.9 -351.7 -889.1 -361.5 254 0 58.62 -48.85 -322.4 -478.7 175.9 244.3 -175.9 -293.1
2.495 351.7 508.1 351.7 644.8 97.7 312.7 -254 -293.1 -1006 -273.6 107.5 107.5 -117.2 29.31 -371.3 -429.9 156.3 459.2 -302.9 -537.4
2.5 283.3 332.2 302.9 527.6 78.16 254 -283.3 -351.7 -1036 -361.5 175.9 78.16 -127 -29.31 -361.5 -410.4 107.5 517.8 -361.5 -537.4
2.505 527.6 429.9 293.1 508.1 58.62 273.6 -263.8 -302.9 -996.6 -293.1 185.6 205.2 -146.6 97.7 -371.3 -195.4 107.5 517.8 -361.5 -508.1
2.51 146.6 146.6 9.77 283.3 -156.3 136.8 -322.4 -371.3 -1006 -361.5 127 127 -195.4 78.16 -390.8 -136.8 -97.7 263.8 -439.7 -332.2
2.515 244.3 97.7 -146.6 273.6 -205.2 185.6 -283.3 -351.7 -928.2 -254 117.2 166.1 -244.3 117.2 -351.7 -9.77 -87.93 214.9 -381 -244.3
2.52 312.7 156.3 -166.1 390.8 -146.6 312.7 -185.6 -136.8 -791.4 0 19.54 244.3 -195.4 244.3 -273.6 185.6 -48.85 332.2 -234.5 -293.1
2.525 97.7 205.2 -332.2 517.8 -244.3 449.4 -273.6 9.77 -801.2 205.2 -156.3 322.4 -332.2 342 -429.9 400.6 -39.08 469 -293.1 -488.5
2.53 342 273.6 -156.3 625.3 19.54 537.4 -107.5 166.1 -605.8 410.4 -146.6 312.7 -234.5 400.6 -351.7 508.1 156.3 469 -146.6 -332.2
2.535 244.3 439.7 -136.8 810.9 58.62 654.6 -68.39 400.6 -488.5 674.2 -97.7 449.4 -175.9 596 -302.9 703.5 156.3 644.8 -136.8 -537.4
2.54 127 351.7 -9.77 752.3 214.9 664.4 117.2 459.2 -185.6 781.6 68.39 498.3 9.77 635.1 -58.62 820.7 273.6 664.4 -29.31 -449.4
2.545 117.2 293.1 -87.93 635.1 156.3 664.4 107.5 420.1 -48.85 859.8 39.08 420.1 -107.5 576.5 78.16 830.5 214.9 517.8 -9.77 -361.5
2.55 87.93 273.6 -97.7 674.2 146.6 732.8 166.1 439.7 19.54 918.4 146.6 488.5 87.93 674.2 205.2 869.6 166.1 459.2 -19.54 -351.7
2.555 273.6 185.6 -127 459.2 107.5 556.9 156.3 205.2 48.85 742.6 224.7 332.2 29.31 517.8 244.3 713.2 107.5 273.6 -58.62 -234.5
2.56 87.93 234.5 -517.8 429.9 -166.1 537.4 -107.5 107.5 -224.7 713.2 39.08 371.3 -127 498.3 39.08 644.8 -175.9 312.7 -332.2 -498.3
2.565 166.1 234.5 -683.9 302.9 -322.4 381 -244.3 -68.39 -332.2 508.1 -29.31 263.8 -254 410.4 -78.16 410.4 -371.3 185.6 -478.7 -586.2
2.57 -97.7 58.62 -820.7 107.5 -400.6 244.3 -342 -234.5 -302.9 332.2 -68.39 166.1 -312.7 244.3 -58.62 205.2 -517.8 68.39 -547.6 -517.8
2.575 -273.6 127 -879.8 58.62 -488.5 254 -410.4 -342 -322.4 166.1 -205.2 166.1 -410.4 185.6 -175.9 58.62 -547.6 117.2 -586.2 -537.4
2.58 -136.8 117.2 -644.8 97.7 -293.1 293.1 -273.6 -302.9 -156.3 127 -19.54 195.4 -234.5 185.6 -39.08 0 -332.2 254 -351.7 -449.4
2.585 273.6 195.4 19.54 156.3 -381 48.85 -293.1 117.2 -87.93 156.3 -156.3 -29.31 -361.5 214.9 -117.2 48.85 19.54 -283.3 -166.1 9.77
2.59 166.1 117.2 87.93 -68.39 -254 -175.9 -205.2 -146.6 -68.39 0 -136.8 -244.3 -342 78.16 -175.9 -107.5 -58.62 -537.4 -156.3 185.6
2.595 39.08 78.16 87.93 -58.62 -166.1 -68.39 -127 -58.62 19.54 136.8 -58.62 -195.4 -283.3 97.7 -214.9 -39.08 -97.7 -449.4 -117.2 117.2
2.6 -205.2 -224.7 -78.16 -185.6 -185.6 -136.8 -107.5 -39.08 -9.77 136.8 -361.5 -244.3 -390.8 19.54 -273.6 -78.16 -283.3 -371.3 -127 -39.08
2.605 -117.2 9.77 -107.5 -146.6 -68.39 -48.85 0 9.77 78.16 185.6 -361.5 -117.2 -361.5 97.7 -185.6 -48.85 -234.5 -322.4 -58.62 0
2.61 -195.4 -9.77 -244.3 -146.6 -117.2 -68.39 78.16 0 107.5 39.08 -351.7 -136.8 -283.3 48.85 -78.16 -107.5 -293.1 -429.9 -29.31 68.39
2.615 -19.54 -29.31 -361.5 -185.6 -273.6 -185.6 -19.54 -234.5 68.39 -136.8 -342 -214.9 -459.2 -39.08 -58.62 -244.3 -263.8 -586.2 -97.7 263.8
2.62 9.77 -58.62 -322.4 -195.4 -312.7 -185.6 -127 -322.4 97.7 -205.2 -439.7 -234.5 -410.4 -58.62 -39.08 -244.3 -117.2 -547.6 -117.2 293.1
2.625 390.8 -127 -39.08 -175.9 -234.5 -214.9 -78.16 -351.7 107.5 -283.3 -19.54 -214.9 -400.6 -68.39 -19.54 -342 107.5 -488.5 -19.54 410.4
2.63 283.3 -78.16 -136.8 -185.6 -381 -166.1 -263.8 -351.7 -9.77 -283.3 -214.9 -175.9 -527.6 -146.6 -175.9 -332.2 -9.77 -429.9 -136.8 322.4
2.635 381 -9.77 127 -136.8 -68.39 -29.31 -48.85 -234.5 107.5 -166.1 0 -39.08 -273.6 9.77 -19.54 -205.2 195.4 -244.3 48.85 302.9
2.64 371.3 0 78.16 -263.8 -68.39 -127 -48.85 -273.6 29.31 -214.9 -48.85 -107.5 -283.3 -19.54 -107.5 -234.5 58.62 -293.1 19.54 254
2.645 312.7 39.08 -29.31 -342 -9.77 -136.8 29.31 -234.5 117.2 -127 -78.16 -48.85 -146.6 9.77 29.31 -127 -29.31 -322.4 58.62 224.7
2.65 -19.54 -146.6 -136.8 -390.8 29.31 -185.6 58.62 -224.7 146.6 -87.93 -156.3 -156.3 -136.8 -29.31 87.93 -87.93 -117.2 -410.4 19.54 254
2.655 -107.5 -175.9 -302.9 -439.7 -68.39 -146.6 78.16 -244.3 166.1 -39.08 -312.7 -127 -117.2 -78.16 195.4 -68.39 -283.3 -517.8 19.54 185.6
2.66 -596 -459.2 -615.5 -605.8 -244.3 -332.2 -29.31 -351.7 68.39 -195.4 -439.7 -254 -205.2 -263.8 127 -136.8 -566.7 -713.2 -146.6 175.9
2.665 -713.2 -263.8 -674.6 -469 -361.5 -244.3 -68.39 -214.9 29.31 -39.08 -351.7 -224.7 -254 -283.3 48.85 -87.93 -566.7 -596 -175.9 19.54
2.67 -371.3 -117.2 -625.3 -400.6 -439.7 -263.8 -175.9 -214.9 -19.54 -127 -459.2 -214.9 -371.3 -283.3 -78.16 -97.7 -517.8 -644.8 -254 58.62
2.675 19.54 87.93 -312.7 -312.7 -283.3 -214.9 -39.08 -136.8 127 -87.93 -127 -127 -273.6 -263.8 39.08 -58.62 -136.8 -459.2 9.77 234.5
2.68 381 254 -136.8 -117.2 -254 19.54 -97.7 39.08 136.8 19.54 -224.7 -48.85 -263.8 -136.8 29.31 58.62 9.77 -244.3 19.54 136.8
2.685 420.1 48.85 -136.8 -302.9 -263.8 -107.5 -175.9 -117.2 127 -146.6 -166.1 -195.4 -273.6 -254 19.54 -78.16 -9.77 -293.1 -9.77 224.7
2.69 371.3 117.2 -87.93 -214.9 -185.6 -19.54 -185.6 -29.31 68.39 -107.5 -263.8 -117.2 -381 -136.8 -19.54 -29.31 -19.54 -185.6 -68.39 58.62
2.695 -136.8 -48.85 -234.5 -351.7 -195.4 -146.6 -283.3 -195.4 -107.5 -224.7 -175.9 -254 -351.7 -263.8 -136.8 -166.1 -302.9 -342 -244.3 -29.31
2.7 -156.3 97.7 -283.3 -293.1 -205.2 -68.39 -273.6 -146.6 -107.5 -175.9 -351.7 -195.4 -234.5 -244.3 -136.8 -166.1 -312.7 -263.8 -302.9 -205.2
2.705 9.77 166.1 -283.3 -175.9 -58.62 -68.39 -156.3 -185.6 -9.77 -97.7 -302.9 -97.7 -146.6 -244.3 0 -166.1 -283.3 -234.5 -166.1 -156.3
2.71 156.3 68.39 -185.6 -234.5 107.5 -97.7 78.16 -117.2 214.9 -97.7 -254 -224.7 156.3 -332.2 146.6 -166.1 -185.6 -214.9 48.85 29.31
2.715 78.16 87.93 -136.8 -156.3 156.3 -48.85 263.8 -58.62 322.4 -19.54 -48.85 -214.9 381 -244.3 312.7 -78.16 -19.54 -195.4 293.1 185.6
2.72 136.8 -302.9 -127 -332.2 39.08 -205.2 166.1 -146.6 302.9 -127 29.31 -371.3 322.4 -371.3 214.9 -146.6 -127 -283.3 273.6 234.5
2.725 195.4 -156.3 -136.8 -332.2 -156.3 -214.9 39.08 -87.93 195.4 -117.2 97.7 -283.3 195.4 -351.7 97.7 -107.5 -166.1 -293.1 214.9 166.1
2.73 -19.54 -312.7 -185.6 -381 -351.7 -302.9 -156.3 -185.6 78.16 -254 -9.77 -332.2 117.2 -381 -78.16 -224.7 -175.9 -420.1 68.39 263.8
2.735 527.6 -9.77 -87.93 -224.7 -293.1 -244.3 -283.3 -244.3 9.77 -332.2 78.16 -214.9 48.85 -381 -175.9 -273.6 -97.7 -361.5 -58.62 234.5
2.74 488.5 263.8 58.62 -97.7 -166.1 -175.9 -263.8 -302.9 39.08 -420.1 29.31 -87.93 -9.77 -332.2 -175.9 -254 58.62 -244.3 -107.5 175.9
2.745 576.5 508.1 342 175.9 175.9 68.39 -58.62 -87.93 117.2 -195.4 371.3 48.85 185.6 -175.9 29.31 -117.2 244.3 87.93 19.54 39.08
2.75 420.1 283.3 439.7 19.54 302.9 -39.08 19.54 -136.8 127 -273.6 127 -117.2 107.5 -283.3 48.85 -234.5 185.6 9.77 9.77 117.2
2.755 293.1 469 400.6 263.8 381 283.3 136.8 273.6 234.5 87.93 234.5 78.16 254 -68.39 234.5 68.39 156.3 273.6 146.6 -175.9
2.76 -9.77 146.6 48.85 -9.77 195.4 68.39 136.8 166.1 185.6 58.62 -97.7 -107.5 156.3 -156.3 234.5 -78.16 -87.93 78.16 117.2 -87.93
2.765 -302.9 234.5 -185.6 107.5 29.31 185.6 117.2 381 263.8 273.6 -156.3 97.7 68.39 29.31 214.9 136.8 -205.2 195.4 127 -351.7
2.77 -449.4 29.31 -332.2 68.39 -224.7 87.93 19.54 166.1 195.4 136.8 -342 0 -400.6 -48.85 97.7 29.31 -254 -97.7 0 -87.93
2.775 -283.3 283.3 -224.7 254 -195.4 224.7 58.62 332.2 244.3 283.3 29.31 175.9 29.31 117.2 127 214.9 -107.5 39.08 136.8 -127
2.78 -107.5 234.5 -48.85 273.6 -205.2 224.7 -39.08 293.1 195.4 224.7 -78.16 166.1 -146.6 68.39 48.85 166.1 -29.31 107.5 48.85 -166.1
2.785 293.1 381 195.4 400.6 -19.54 332.2 48.85 371.3 107.5 185.6 -19.54 263.8 146.6 117.2 58.62 136.8 146.6 283.3 68.39 -185.6
2.79 185.6 322.4 205.2 381 146.6 410.4 127 420.1 87.93 244.3 -29.31 283.3 205.2 156.3 58.62 166.1 166.1 390.8 136.8 -205.2
2.795 214.9 312.7 254 420.1 312.7 478.7 244.3 478.7 48.85 322.4 -117.2 322.4 195.4 214.9 9.77 263.8 136.8 429.9 107.5 -205.2
2.8 68.39 136.8 97.7 263.8 381 361.5 351.7 449.4 205.2 332.2 -127 244.3 146.6 185.6 136.8 244.3 127 361.5 254 -87.93
2.805 87.93 244.3 166.1 322.4 517.8 439.7 547.1 615.5 332.2 547.1 117.2 332.2 273.6 371.3 244.3 429.9 117.2 459.2 420.1 -117.2
2.81 205.2 9.77 283.3 87.93 615.5 205.2 683.9 449.4 469 332.2 195.4 127 498.3 185.6 449.4 224.7 195.4 156.3 576.5 263.8
2.815 312.7 -19.54 390.8 48.85 664.4 136.8 801.2 371.3 586.2 283.3 429.9 87.93 605.8 195.4 566.7 185.6 312.7 127 615.5 342
2.82 283.3 -78.16 400.6 39.08 586.2 68.39 693.7 205.2 459.2 48.85 351.7 -9.77 527.6 68.39 459.2 39.08 381 97.7 537.4 420.1
2.825 107.5 -48.85 293.1 156.3 361.5 117.2 517.8 234.5 390.8 87.93 322.4 -19.54 322.4 117.2 322.4 78.16 302.9 224.7 332.2 146.6
2.83 -19.54 166.1 381 420.1 371.3 322.4 429.9 332.2 312.7 175.9 205.2 214.9 205.2 244.3 166.1 205.2 478.7 420.1 332.2 117.2
2.835 97.7 127 283.3 371.3 283.3 293.1 312.7 302.9 224.7 166.1 166.1 97.7 48.85 214.9 -9.77 117.2 410.4 439.7 254 0
2.84 -39.08 185.6 146.6 332.2 175.9 302.9 156.3 293.1 136.8 205.2 -283.3 107.5 -342 214.9 -156.3 127 254 469 78.16 -107.5
2.845 244.3 136.8 166.1 254 283.3 332.2 273.6 263.8 146.6 175.9 -185.6 205.2 -68.39 263.8 -117.2 146.6 244.3 517.8 127 -117.2
2.85 -48.85 -429.9 -156.3 0 97.7 146.6 136.8 97.7 107.5 58.62 -351.7 48.85 -283.3 117.2 -117.2 39.08 -39.08 263.8 -19.54 -39.08
2.855 -117.2 -136.8 -97.7 19.54 107.5 127 136.8 19.54 156.3 -48.85 -185.6 68.39 -58.62 107.5 -29.31 48.85 -29.31 214.9 -9.77 39.08
2.86 -322.4 -371.3 78.16 0 224.7 -29.31 185.6 -146.6 214.9 -166.1 117.2 68.39 117.2 39.08 136.8 -39.08 146.6 273.6 19.54 117.2
2.865 -117.2 175.9 117.2 175.9 97.7 9.77 68.39 -205.2 117.2 -214.9 0 146.6 214.9 29.31 146.6 -19.54 224.7 332.2 -136.8 19.54
2.87 -68.39 234.5 371.3 244.3 312.7 -29.31 185.6 -302.9 244.3 -312.7 234.5 68.39 361.5 -19.54 381 -48.85 478.7 361.5 -39.08 195.4
2.875 -29.31 224.7 175.9 244.3 97.7 -29.31 29.31 -254 97.7 -293.1 78.16 87.93 332.2 58.62 302.9 68.39 429.9 322.4 -127 136.8
2.88 -39.08 -97.7 0 19.54 -87.93 -175.9 -146.6 -342 29.31 -322.4 -107.5 -136.8 166.1 -58.62 214.9 9.77 224.7 156.3 -254 87.93
2.885 -127 -371.3 -175.9 -254 -234.5 -332.2 -254 -429.9 0 -293.1 -205.2 -195.4 146.6 -58.62 78.16 19.54 48.85 -29.31 -283.3 136.8
2.89 -214.9 -459.2 -214.9 -381 -244.3 -429.9 -293.1 -498.3 -185.6 -381 -68.39 -214.9 48.85 -97.7 -48.85 -19.54 -58.62 -214.9 -293.1 214.9
2.895 -263.8 -635.6 -293.1 -469 -224.7 -508.1 -273.6 -586.2 -127 -371.3 -175.9 -234.5 -29.31 -117.2 -97.7 -68.39 -97.7 -332.2 -263.8 302.9
2.9 -244.3 -537.4 -273.6 -429.9 -195.4 -566.7 -322.4 -693.7 -263.8 -390.8 39.08 -254 117.2 -146.6 -205.2 -78.16 -117.2 -332.2 -371.3 214.9
2.905 -185.6 -566.7 -156.3 -332.2 0 -566.7 -166.1 -655.1 -97.7 -312.7 185.6 -283.3 195.4 -146.6 -78.16 -68.39 -39.08 -244.3 -332.2 205.2
2.91 -214.9 -615.5 -263.8 -371.3 -58.62 -605.8 -185.6 -655.1 -97.7 -342 39.08 -410.4 244.3 -244.3 -39.08 -175.9 -107.5 -254 -322.4 136.8
2.915 -185.6 -488.5 -283.3 -254 -97.7 -508.1 -146.6 -547.6 -87.93 -195.4 29.31 -371.3 254 -224.7 -48.85 -127 -146.6 -195.4 -254 9.77
2.92 -449.4 -644.8 -410.4 -332.2 -185.6 -459.2 -117.2 -449.4 58.62 -78.16 78.16 -498.3 273.6 -263.8 -39.08 -97.7 -214.9 -117.2 -244.3 -136.8
2.925 -527.6 -517.8 -537.4 -254 -351.7 -410.4 -166.1 -293.1 58.62 48.85 -166.1 -361.5 -9.77 -224.7 -117.2 -87.93 -293.1 -117.2 -166.1 -185.6
2.93 -469 -683.9 -556.9 -312.7 -371.3 -390.8 -156.3 -293.1 107.5 29.31 -244.3 -390.8 -48.85 -214.9 -117.2 -48.85 -283.3 -117.2 -146.6 -97.7
2.935 -488.5 -400.6 -576.5 -97.7 -498.3 -214.9 -312.7 -195.4 -48.85 39.08 -136.8 -97.7 -224.7 -68.39 -263.8 -78.16 -332.2 -19.54 -312.7 -293.1
2.94 -371.3 -371.3 -556.9 -78.16 -488.5 -234.5 -469 -214.9 -205.2 -107.5 -381 -58.62 -244.3 -48.85 -322.4 -127 -273.6 -19.54 -342 -283.3
2.945 -78.16 -273.6 -429.9 -68.39 -400.6 -273.6 -469 -302.9 -254 -195.4 -87.93 19.54 -9.77 -29.31 -293.1 -97.7 -254 -29.31 -390.8 -234.5
2.95 -273.6 -459.2 -459.2 -136.8 -439.7 -351.7 -449.4 -351.7 -322.4 -273.6 -254 -29.31 -97.7 -68.39 -381 -78.16 -312.7 -156.3 -439.7 -156.3
2.955 -117.2 -400.6 -381 -185.6 -254 -371.3 -244.3 -420.1 -166.1 -312.7 -9.77 -78.16 195.4 -68.39 -214.9 -39.08 -263.8 -283.3 -244.3 87.93
2.96 -371.3 -429.9 -596 19.54 -459.2 -166.1 -371.3 -224.7 -283.3 -39.08 -244.3 48.85 -87.93 87.93 -283.3 136.8 -556.9 -58.62 -459.2 -400.6
2.965 -478.7 -273.6 -488.5 117.2 -381 -58.62 -205.2 -58.62 29.31 136.8 -156.3 136.8 117.2 244.3 -117.2 293.1 -312.7 39.08 -224.7 -312.7
2.97 -361.5 68.39 -527.6 439.7 -488.5 234.5 -342 185.6 -68.39 361.5 -302.9 371.3 9.77 410.4 -146.6 469 -410.4 214.9 -332.2 -644.8
2.975 -371.3 97.7 -576.5 429.9 -547.6 254 -381 302.9 -9.77 469 -185.6 361.5 -97.7 449.4 -127 576.5 -400.6 205.2 -312.7 -644.8
2.98 -576.5 -117.2 -703.5 175.9 -644.8 29.31 -469 97.7 -146.6 302.9 -605.8 195.4 -508.1 214.9 -254 361.5 -586.2 -9.77 -498.3 -527.6
2.985 -498.3 -78.16 -547.6 68.39 -410.4 -19.54 -351.7 48.85 -117.2 254 -136.8 136.8 -146.6 136.8 -195.4 214.9 -469 29.31 -371.3 -410.4
2.99 -596 -214.9 -400.6 68.39 -244.3 -195.4 -293.1 -97.7 -175.9 0 -224.7 68.39 -283.3 -29.31 -254 58.62 -293.1 -39.08 -302.9 -166.1
2.995 -293.1 -254 -234.5 -19.54 -29.31 -263.8 -127 -302.9 -185.6 -224.7 -146.6 -29.31 -87.93 -195.4 -117.2 -97.7 -97.7 -107.5 -185.6 146.6
3 -58.62 -156.3 -29.31 293.1 205.2 0 -19.54 -117.2 -146.6 -136.8 107.5 185.6 117.2 -9.77 -68.39 29.31 195.4 127 -107.5 68.39
3.005 195.4 -9.77 48.85 244.3 185.6 19.54 29.31 -127 -214.9 -127 136.8 166.1 68.39 -29.31 -107.5 78.16 234.5 78.16 -68.39 127
3.01 127 -244.3 107.5 127 224.7 29.31 127 -39.08 -68.39 -39.08 293.1 136.8 146.6 29.31 -9.77 175.9 224.7 9.77 48.85 185.6
3.015 -136.8 -302.9 -185.6 -29.31 -136.8 -48.85 -97.7 -87.93 -254 -39.08 -97.7 19.54 -214.9 -9.77 -254 29.31 -136.8 -136.8 -78.16 107.5
3.02 -263.8 -351.7 -175.9 -136.8 -127 -166.1 -39.08 -166.1 -244.3 -136.8 19.54 -19.54 -205.2 -107.5 -244.3 -107.5 -87.93 -136.8 -48.85 127
3.025 -390.8 -58.62 -58.62 107.5 -58.62 68.39 29.31 68.39 -127 -29.31 -156.3 195.4 -195.4 78.16 -244.3 -19.54 -29.31 87.93 9.77 9.77
3.03 -566.7 -214.9 -39.08 68.39 19.54 -19.54 -9.77 -146.6 -166.1 -273.6 -234.5 195.4 -224.7 -58.62 -283.3 -273.6 136.8 117.2 9.77 107.5
3.035 -283.3 39.08 322.4 312.7 420.1 107.5 195.4 -117.2 9.77 -342 9.77 293.1 -29.31 9.77 -117.2 -283.3 478.7 244.3 185.6 293.1
3.04 -293.1 -68.39 439.7 263.8 517.8 185.6 224.7 -107.5 9.77 -371.3 -68.39 263.8 9.77 -58.62 -48.85 -351.7 566.7 351.7 283.3 234.5
3.045 -97.7 -273.6 302.9 58.62 429.9 29.31 68.39 -224.7 -146.6 -508.1 -29.31 127 -234.5 -136.8 -185.6 -517.8 361.5 214.9 166.1 185.6
3.05 -175.9 -263.8 322.4 -156.3 459.2 -9.77 127 -234.5 -97.7 -459.2 -19.54 -39.08 -39.08 -224.7 -127 -566.7 234.5 185.6 185.6 146.6
3.055 -351.7 -527.6 127 -381 244.3 -107.5 19.54 -283.3 -195.4 -517.8 -97.7 -224.7 -185.6 -254 -195.4 -566.7 -9.77 9.77 58.62 127
3.06 -469 -410.4 58.62 -429.9 97.7 -78.16 -19.54 -254 -263.8 -576.5 48.85 -214.9 -166.1 -283.3 -254 -527.6 -107.5 19.54 -146.6 58.62
3.065 -498.3 -410.4 -78.16 -390.8 -39.08 -107.5 -195.4 -342 -302.9 -644.8 0 -234.5 -244.3 -244.3 -342 -459.2 -127 -107.5 -293.1 87.93
3.07 -400.6 -195.4 39.08 -234.5 -39.08 -107.5 -146.6 -312.7 -263.8 -517.8 136.8 -78.16 -224.7 -185.6 -263.8 -400.6 -127 -175.9 -302.9 87.93
3.075 -517.8 -488.5 -87.93 -429.9 -78.16 -234.5 -234.5 -400.6 -254 -547.6 -48.85 -175.9 -283.3 -214.9 -263.8 -400.6 -254 -371.3 -361.5 205.2
3.08 -429.9 -459.2 -78.16 -469 -39.08 -244.3 -136.8 -371.3 -214.9 -449.4 185.6 -97.7 -175.9 -166.1 -156.3 -351.7 -205.2 -381 -302.9 205.2
3.085 -693.7 -586.2 -214.9 -537.4 -127 -312.7 -195.4 -371.3 -254 -439.7 -156.3 -146.6 -185.6 -185.6 -117.2 -293.1 -351.7 -478.7 -410.4 156.3
3.09 -576.5 -693.7 -488.5 -762.1 -439.7 -517.8 -254 -576.5 97.7 -254 -478.7 -351.7 -244.3 -459.2 -146.6 -371.3 -556.9 -596 -185.6 107.5
3.095 -429.9 -586.2 -498.3 -693.7 -459.2 -410.4 -185.6 -429.9 166.1 -39.08 -293.1 -283.3 -156.3 -332.2 -87.93 -254 -547.6 -478.7 -78.16 87.93
3.1 -517.8 -547.6 -410.4 -674.6 -332.2 -420.1 -68.39 -361.5 195.4 39.08 -254 -351.7 -146.6 -293.1 -68.39 -156.3 -400.6 -478.7 58.62 156.3
3.105 -244.3 -332.2 -361.5 -508.1 -332.2 -263.8 -68.39 -166.1 68.39 185.6 -342 -244.3 -224.7 -156.3 -127 -29.31 -400.6 -175.9 -58.62 -156.3
3.11 -342 -156.3 -302.9 -263.8 -351.7 -78.16 -185.6 -29.31 -156.3 254 -439.7 -58.62 -332.2 -29.31 -244.3 87.93 -371.3 -29.31 -205.2 -342
3.115 -29.31 -78.16 -97.7 -175.9 -185.6 -97.7 -205.2 -205.2 -195.4 -39.08 -312.7 -87.93 -234.5 -68.39 -195.4 -9.77 -68.39 -146.6 -185.6 -48.85
3.12 244.3 156.3 29.31 58.62 -78.16 78.16 -166.1 -107.5 -254 -107.5 -136.8 107.5 -87.93 39.08 -156.3 78.16 68.39 9.77 -166.1 -39.08
3.125 283.3 19.54 -29.31 -97.7 -97.7 -39.08 -234.5 -283.3 -254 -322.4 -234.5 136.8 -68.39 -87.93 -166.1 -39.08 97.7 -107.5 -68.39 175.9
3.13 234.5 332.2 -166.1 166.1 -175.9 302.9 -293.1 136.8 -371.3 -9.77 -39.08 283.3 -136.8 185.6 -283.3 293.1 -78.16 273.6 -146.6 -293.1
3.135 -136.8 244.3 -234.5 224.7 -195.4 410.4 -263.8 371.3 -293.1 254 58.62 283.3 -68.39 263.8 -195.4 478.7 -185.6 390.8 -39.08 -469
3.14 -48.85 439.7 -273.6 293.1 -351.7 488.5 -302.9 508.1 -322.4 449.4 -87.93 332.2 -185.6 283.3 -205.2 635.1 -342 449.4 -146.6 -781.6
3.145 -166.1 361.5 -273.6 136.8 -420.1 214.9 -283.3 332.2 -244.3 410.4 -68.39 166.1 -107.5 146.6 -107.5 449.4 -322.4 273.6 -146.6 -674.6
3.15 273.6 527.6 39.08 117.2 -78.16 175.9 58.62 371.3 136.8 478.7 19.54 195.4 175.9 156.3 156.3 449.4 -39.08 254 97.7 -400.6
3.155 87.93 517.8 -87.93 78.16 -185.6 97.7 -78.16 224.7 78.16 488.5 -254 136.8 9.77 29.31 29.31 244.3 -185.6 146.6 -48.85 -381
3.16 156.3 605.8 -117.2 136.8 -185.6 107.5 -146.6 254 58.62 517.8 -244.3 244.3 -29.31 127 -58.62 214.9 -156.3 293.1 -29.31 -498.3
3.165 175.9 400.6 9.77 -78.16 -78.16 -127 -127 -68.39 97.7 117.2 -146.6 -29.31 -87.93 -166.1 -68.39 -136.8 -48.85 29.31 48.85 -136.8
3.17 302.9 723 -48.85 263.8 -195.4 205.2 -293.1 117.2 -48.85 312.7 -156.3 302.9 -185.6 146.6 -234.5 78.16 -39.08 351.7 -136.8 -508.1
3.175 381 586.2 -9.77 97.7 -293.1 -68.39 -381 -351.7 -214.9 -136.8 -127 127 -214.9 -48.85 -254 -205.2 9.77 -97.7 -244.3 -68.39
3.18 381 488.5 29.31 87.93 -244.3 29.31 -342 -342 -117.2 -97.7 -175.9 166.1 -224.7 9.77 -224.7 -166.1 68.39 -29.31 -195.4 -117.2
3.185 283.3 410.4 -29.31 68.39 -263.8 0 -351.7 -332.2 -166.1 -87.93 -136.8 127 -156.3 29.31 -166.1 -39.08 78.16 58.62 -156.3 -156.3
3.19 293.1 244.3 0 -117.2 -185.6 -166.1 -254 -420.1 -9.77 -175.9 -146.6 0 -87.93 -87.93 -136.8 -175.9 39.08 -146.6 -48.85 39.08
3.195 361.5 156.3 0 -234.5 -48.85 -263.8 -87.93 -478.7 97.7 -146.6 87.93 -29.31 19.54 -175.9 68.39 -224.7 68.39 -214.9 68.39 166.1
3.2 312.7 312.7 58.62 -87.93 -78.16 -97.7 -9.77 -214.9 127 78.16 58.62 107.5 87.93 -19.54 78.16 -58.62 117.2 -19.54 136.8 -9.77
3.205 107.5 244.3 -68.39 -97.7 -214.9 -117.2 -166.1 -224.7 -78.16 117.2 -146.6 117.2 -48.85 -58.62 -127 -68.39 -146.6 -117.2 -78.16 -156.3
3.21 68.39 322.4 68.39 9.77 -127 -29.31 -224.7 -146.6 -136.8 117.2 -205.2 156.3 -19.54 -29.31 -146.6 -117.2 -48.85 -39.08 -39.08 -185.6
3.215 -39.08 205.2 117.2 -48.85 -58.62 -58.62 -136.8 -146.6 -146.6 68.39 -224.7 39.08 29.31 0 -107.5 -107.5 9.77 -39.08 117.2 29.31
3.22 -214.9 58.62 29.31 -78.16 -58.62 -48.85 -224.7 -146.6 -205.2 107.5 -117.2 -9.77 9.77 9.77 -146.6 -127 -78.16 39.08 68.39 -117.2
3.225 -234.5 -48.85 87.93 -166.1 0 -68.39 -166.1 -136.8 -214.9 -29.31 -39.08 -39.08 -107.5 9.77 -39.08 -166.1 0 58.62 146.6 29.31
3.23 58.62 214.9 214.9 97.7 175.9 254 29.31 156.3 -68.39 254 273.6 205.2 195.4 254 19.54 127 87.93 371.3 293.1 -166.1
3.235 68.39 97.7 283.3 -9.77 195.4 156.3 156.3 -9.77 9.77 -29.31 48.85 78.16 9.77 117.2 39.08 -117.2 273.6 156.3 420.1 185.6
3.24 156.3 195.4 332.2 195.4 283.3 371.3 263.8 273.6 97.7 195.4 78.16 205.2 127 312.7 87.93 107.5 351.7 410.4 576.5 48.85
3.245 175.9 175.9 371.3 117.2 342 273.6 312.7 214.9 97.7 78.16 9.77 19.54 185.6 175.9 117.2 0 390.8 283.3 596 224.7
3.25 39.08 68.39 371.3 136.8 342 293.1 263.8 283.3 29.31 224.7 9.77 -58.62 224.7 127 136.8 87.93 322.4 342 566.7 127
3.255 39.08 342 420.1 273.6 342 429.9 224.7 459.2 -39.08 390.8 48.85 19.54 254 195.4 146.6 166.1 293.1 469 488.5 -78.16
3.26 224.7 127 361.5 117.2 361.5 234.5 312.7 371.3 87.93 332.2 175.9 -146.6 293.1 48.85 283.3 117.2 234.5 293.1 488.5 0
3.265 644.8 273.6 635.1 195.4 576.5 234.5 556.9 439.7 342 371.3 429.9 -58.62 527.6 87.93 547.1 58.62 449.4 302.9 644.8 117.2
3.27 810.9 224.7 635.1 146.6 605.8 156.3 635.1 371.3 498.3 283.3 478.7 -58.62 556.9 58.62 586.2 58.62 556.9 195.4 664.4 293.1
3.275 1026 224.7 781.6 48.85 742.6 19.54 820.7 322.4 742.6 273.6 644.8 -87.93 742.6 9.77 762.1 19.54 713.2 117.2 889.1 644.8
3.28 810.9 205.2 762.1 -19.54 683.9 78.16 771.9 420.1 723 410.4 429.9 -127 654.6 58.62 664.4 146.6 566.7 234.5 771.9 381
3.285 478.7 205.2 723 68.39 644.8 107.5 762.1 498.3 762.1 556.9 351.7 -107.5 615.5 58.62 674.2 205.2 527.6 361.5 762.1 293.1
3.29 508.1 400.6 732.8 58.62 498.3 -19.54 508.1 361.5 576.5 449.4 400.6 -107.5 449.4 -78.16 488.5 68.39 371.3 254 459.2 107.5
3.295 205.2 332.2 527.6 48.85 312.7 -58.62 381 302.9 400.6 439.7 342 -127 361.5 -87.93 351.7 0 127 127 273.6 -9.77
3.3 400.6 596 488.5 136.8 224.7 -48.85 283.3 254 332.2 361.5 478.7 58.62 351.7 -68.39 302.9 9.77 127 39.08 127 -48.85
3.305 302.9 410.4 273.6 -58.62 107.5 -185.6 283.3 244.3 410.4 361.5 420.1 -19.54 273.6 -146.6 381 9.77 -78.16 -127 136.8 29.31
3.31 273.6 214.9 205.2 -185.6 97.7 -273.6 371.3 273.6 547.1 312.7 410.4 -78.16 293.1 -146.6 439.7 19.54 -19.54 -351.7 322.4 302.9
3.315 -29.31 9.77 9.77 -322.4 -146.6 -283.3 214.9 371.3 429.9 400.6 302.9 -214.9 107.5 -117.2 322.4 146.6 -332.2 -459.2 234.5 214.9
3.32 -78.16 29.31 19.54 -400.6 -263.8 -254 48.85 439.7 214.9 322.4 156.3 -205.2 -9.77 -78.16 127 175.9 -351.7 -508.1 58.62 127
3.325 156.3 107.5 224.7 -351.7 -185.6 -322.4 -29.31 449.4 117.2 254 390.8 -234.5 146.6 -97.7 107.5 205.2 -166.1 -527.6 -29.31 234.5
3.33 175.9 361.5 410.4 -117.2 -136.8 -136.8 -175.9 488.5 -127 87.93 146.6 0 19.54 58.62 -87.93 224.7 -9.77 -390.8 -166.1 195.4
3.335 488.5 498.3 869.6 0 361.5 -146.6 97.7 400.6 48.85 -127 410.4 29.31 429.9 29.31 185.6 117.2 547.1 -420.1 156.3 713.2
3.34 469 576.5 810.9 185.6 302.9 29.31 -39.08 517.8 -195.4 -146.6 322.4 185.6 332.2 195.4 9.77 156.3 517.8 -127 9.77 390.8
3.345 322.4 664.4 781.6 342 342 127 -29.31 566.7 -224.7 -48.85 381 254 371.3 244.3 19.54 156.3 527.6 39.08 48.85 214.9
3.35 361.5 586.2 693.7 381 410.4 254 78.16 732.8 -166.1 136.8 439.7 322.4 381 361.5 97.7 293.1 400.6 224.7 78.16 -19.54
3.355 537.4 732.8 723 566.7 498.3 390.8 254 850 -68.39 351.7 439.7 361.5 459.2 371.3 263.8 254 449.4 429.9 205.2 -87.93
3.36 469 742.6 635.1 566.7 527.6 361.5 332.2 801.2 -29.31 244.3 488.5 332.2 420.1 273.6 342 127 459.2 449.4 205.2 -78.16
3.365 566.7 801.2 801.2 625.3 615.5 351.7 371.3 644.8 19.54 107.5 556.9 381 302.9 244.3 312.7 19.54 693.7 517.8 273.6 68.39
3.37 390.8 820.7 693.7 703.5 517.8 361.5 234.5 537.4 0 19.54 459.2 322.4 166.1 234.5 254 -29.31 693.7 459.2 175.9 68.39
3.375 342 576.5 635.1 547.1 449.4 224.7 146.6 351.7 -9.77 -107.5 322.4 195.4 107.5 175.9 156.3 -156.3 625.3 371.3 87.93 87.93
3.38 185.6 576.5 381 664.4 244.3 332.2 -9.77 410.4 -39.08 78.16 107.5 302.9 -185.6 224.7 48.85 -78.16 429.9 381 -39.08 -87.93
3.385 175.9 185.6 390.8 322.4 322.4 58.62 156.3 156.3 136.8 -87.93 156.3 39.08 146.6 39.08 117.2 -234.5 478.7 107.5 78.16 195.4
3.39 136.8 283.3 254 449.4 263.8 156.3 214.9 322.4 195.4 87.93 97.7 205.2 -9.77 87.93 97.7 -107.5 381 175.9 127 87.93
3.395 58.62 381 234.5 478.7 351.7 244.3 390.8 322.4 332.2 127 254 224.7 146.6 127 156.3 -29.31 429.9 97.7 273.6 234.5
3.4 -117.2 195.4 293.1 381 498.3 195.4 478.7 293.1 449.4 107.5 400.6 214.9 244.3 136.8 283.3 48.85 400.6 166.1 302.9 166.1
3.405 -78.16 195.4 136.8 332.2 381 195.4 429.9 283.3 400.6 117.2 244.3 146.6 156.3 97.7 214.9 58.62 195.4 107.5 205.2 68.39
3.41 -224.7 -9.77 -9.77 175.9 293.1 97.7 234.5 185.6 234.5 58.62 205.2 -29.31 58.62 9.77 127 39.08 -48.85 39.08 39.08 -19.54
3.415 156.3 -117.2 -136.8 -29.31 195.4 -68.39 146.6 39.08 224.7 -58.62 127 -136.8 39.08 -97.7 78.16 -9.77 -195.4 -78.16 -29.31 39.08
3.42 214.9 -263.8 -166.1 -127 156.3 -214.9 136.8 -58.62 224.7 -224.7 166.1 -273.6 68.39 -156.3 127 -136.8 -156.3 -195.4 -19.54 146.6
3.425 -9.77 -175.9 -224.7 -29.31 -48.85 -205.2 -19.54 -127 97.7 -244.3 87.93 -146.6 -117.2 -97.7 -29.31 -97.7 -195.4 -166.1 -136.8 0
3.43 -58.62 -283.3 -293.1 -48.85 -87.93 -244.3 -9.77 -273.6 48.85 -381 -78.16 -195.4 -166.1 -97.7 -48.85 -175.9 -127 -322.4 -117.2 205.2
3.435 -156.3 -166.1 -332.2 9.77 -195.4 -166.1 -117.2 -195.4 -78.16 -312.7 -68.39 -48.85 -263.8 -58.62 -107.5 -117.2 -185.6 -322.4 -214.9 48.85
3.44 -117.2 -254 -342 -68.39 -175.9 -195.4 -107.5 -293.1 -78.16 -342 19.54 -78.16 -146.6 -107.5 -68.39 -205.2 -146.6 -361.5 -136.8 146.6
3.445 -156.3 -273.6 -293.1 -78.16 -117.2 -117.2 -39.08 -87.93 -39.08 -185.6 78.16 -19.54 -58.62 0 48.85 -117.2 -205.2 -195.4 -9.77 58.62
3.45 175.9 -283.3 -68.39 -29.31 136.8 -9.77 127 48.85 205.2 19.54 351.7 9.77 205.2 117.2 244.3 87.93 -19.54 -97.7 195.4 146.6
3.455 48.85 -302.9 -68.39 -39.08 107.5 48.85 127 107.5 234.5 9.77 459.2 0 48.85 214.9 254 156.3 -87.93 -97.7 234.5 127
3.46 214.9 -107.5 -136.8 136.8 87.93 244.3 136.8 234.5 293.1 175.9 361.5 127 87.93 312.7 312.7 293.1 -9.77 68.39 273.6 78.16
3.465 136.8 -87.93 -185.6 58.62 78.16 273.6 185.6 263.8 312.7 146.6 293.1 39.08 -48.85 322.4 342 351.7 -78.16 107.5 293.1 -48.85
3.47 -107.5 -146.6 -351.7 -19.54 -9.77 214.9 136.8 146.6 205.2 29.31 127 -48.85 -136.8 166.1 205.2 146.6 -244.3 -39.08 156.3 -19.54
3.475 9.77 -254 -205.2 -166.1 175.9 214.9 342 117.2 342 58.62 127 -107.5 136.8 146.6 361.5 136.8 -156.3 -58.62 342 107.5
3.48 -29.31 -166.1 -214.9 -117.2 185.6 273.6 332.2 224.7 312.7 175.9 136.8 19.54 127 185.6 332.2 195.4 -214.9 -29.31 390.8 48.85
3.485 117.2 -205.2 -283.3 -214.9 107.5 166.1 283.3 107.5 283.3 136.8 87.93 -19.54 58.62 146.6 254 175.9 -263.8 -146.6 390.8 87.93
3.49 234.5 -146.6 -390.8 -195.4 9.77 117.2 244.3 136.8 312.7 146.6 214.9 39.08 -29.31 127 166.1 156.3 -254 -175.9 361.5 87.93
3.495 263.8 78.16 -342 48.85 68.39 312.7 351.7 293.1 429.9 361.5 19.54 146.6 -97.7 263.8 156.3 390.8 -136.8 9.77 517.8 9.77
3.5 312.7 9.77 -302.9 -19.54 19.54 127 322.4 87.93 449.4 127 87.93 -9.77 -68.39 19.54 107.5 127 -58.62 -146.6 488.5 214.9
3.505 322.4 -9.77 -224.7 19.54 87.93 244.3 429.9 205.2 527.6 293.1 29.31 117.2 9.77 97.7 166.1 214.9 48.85 87.93 556.9 78.16
3.51 78.16 -185.6 -244.3 -19.54 -29.31 195.4 293.1 127 410.4 244.3 -58.62 29.31 -107.5 39.08 107.5 127 -87.93 87.93 410.4 -9.77
3.515 48.85 -420.1 -214.9 -234.5 -68.39 9.77 273.6 -39.08 420.1 156.3 -68.39 -87.93 -78.16 -58.62 195.4 58.62 -166.1 -166.1 342 117.2
3.52 -312.7 -410.4 -381 -205.2 -254 29.31 107.5 19.54 234.5 156.3 -166.1 -29.31 -312.7 19.54 68.39 58.62 -351.7 -107.5 127 -136.8
3.525 -293.1 -302.9 -283.3 -195.4 -136.8 -19.54 185.6 9.77 322.4 127 -87.93 -48.85 -205.2 29.31 234.5 68.39 -156.3 -97.7 322.4 39.08
3.53 -185.6 -302.9 -312.7 -244.3 -166.1 -78.16 156.3 -205.2 175.9 -136.8 -156.3 -68.39 -234.5 -107.5 205.2 -97.7 -146.6 -205.2 214.9 107.5
3.535 -195.4 -146.6 -312.7 -127 -195.4 -78.16 136.8 -195.4 29.31 -166.1 -9.77 -48.85 -332.2 -78.16 254 -97.7 -107.5 -156.3 205.2 117.2
3.54 -127 -39.08 -166.1 0 0 39.08 224.7 -175.9 39.08 -136.8 -29.31 68.39 68.39 -48.85 293.1 -97.7 87.93 39.08 293.1 136.8
3.545 19.54 -9.77 -254 127 -156.3 68.39 68.39 -117.2 -195.4 -58.62 -97.7 97.7 -146.6 -19.54 107.5 -29.31 -39.08 205.2 127 -136.8
3.55 39.08 9.77 -244.3 136.8 -127 29.31 -29.31 -205.2 -254 -175.9 -234.5 58.62 -136.8 -97.7 -48.85 -29.31 78.16 156.3 107.5 -9.77
3.555 273.6 78.16 -195.4 224.7 -107.5 136.8 -29.31 -185.6 -322.4 -224.7 -156.3 127 -97.7 -19.54 -97.7 29.31 117.2 97.7 68.39 0
3.56 390.8 87.93 -185.6 195.4 -185.6 97.7 -156.3 -273.6 -429.9 -400.6 -224.7 87.93 -117.2 -48.85 -214.9 -87.93 214.9 -9.77 -58.62 87.93
3.565 449.4 -29.31 -97.7 127 -185.6 -9.77 -195.4 -390.8 -459.2 -586.2 -78.16 107.5 -175.9 -78.16 -214.9 -117.2 293.1 -78.16 -146.6 166.1
3.57 361.5 87.93 -19.54 293.1 -127 156.3 -127 -273.6 -332.2 -400.6 -87.93 214.9 -58.62 -9.77 -107.5 -87.93 390.8 9.77 -87.93 175.9
3.575 361.5 48.85 -68.39 166.1 -293.1 9.77 -263.8 -390.8 -459.2 -498.3 -283.3 87.93 -127 -136.8 -195.4 -195.4 293.1 -97.7 -224.7 185.6
3.58 -107.5 58.62 -146.6 224.7 -342 19.54 -283.3 -312.7 -498.3 -371.3 -263.8 156.3 -146.6 -78.16 -293.1 -117.2 234.5 0 -283.3 9.77
3.585 -48.85 127 -19.54 9.77 -459.2 -117.2 -556.9 68.39 -332.2 -48.85 -185.6 -68.39 -166.1 -97.7 -293.1 107.5 -39.08 -87.93 -361.5 -107.5
3.59 97.7 58.62 19.54 -97.7 -508.1 -146.6 -635.6 19.54 -439.7 -166.1 -234.5 -156.3 -214.9 -146.6 -351.7 48.85 -68.39 -146.6 -449.4 -87.93
3.595 -97.7 136.8 -58.62 -78.16 -478.7 -68.39 -615.5 97.7 -517.8 -97.7 -166.1 -156.3 -254 -78.16 -361.5 87.93 -195.4 -68.39 -459.2 -214.9
3.6 19.54 48.85 107.5 -146.6 -146.6 -97.7 -410.4 78.16 -351.7 -107.5 185.6 -234.5 48.85 -127 -205.2 29.31 -48.85 9.77 -351.7 -29.31
3.605 -166.1 166.1 254 -29.31 78.16 -39.08 -244.3 214.9 -244.3 68.39 205.2 -58.62 127 -29.31 -97.7 97.7 -19.54 156.3 -332.2 -107.5
3.61 78.16 107.5 312.7 -87.93 195.4 -87.93 -136.8 87.93 -107.5 29.31 322.4 -107.5 273.6 -107.5 29.31 -9.77 78.16 48.85 -342 -9.77
3.615 -48.85 19.54 322.4 -39.08 234.5 58.62 39.08 195.4 117.2 175.9 263.8 29.31 322.4 29.31 175.9 87.93 127 39.08 -166.1 127
3.62 -87.93 19.54 185.6 48.85 87.93 205.2 48.85 312.7 166.1 312.7 -39.08 87.93 254 68.39 146.6 136.8 48.85 78.16 -117.2 19.54
3.625 0 -29.31 58.62 48.85 -9.77 273.6 136.8 410.4 322.4 488.5 -9.77 117.2 205.2 78.16 244.3 214.9 -39.08 156.3 39.08 -87.93
3.63 -381 -185.6 -9.77 9.77 -68.39 185.6 146.6 429.9 420.1 527.6 -58.62 19.54 39.08 29.31 107.5 254 -146.6 205.2 0 -205.2
3.635 -146.6 -185.6 117.2 -97.7 48.85 -117.2 185.6 146.6 420.1 322.4 68.39 -136.8 146.6 -156.3 175.9 39.08 0 0 39.08 39.08
3.64 -371.3 -127 205.2 -78.16 87.93 -254 136.8 68.39 361.5 214.9 146.6 -166.1 117.2 -302.9 166.1 -97.7 -9.77 -29.31 -97.7 9.77
3.645 -293.1 -48.85 459.2 -97.7 185.6 -390.8 136.8 -68.39 273.6 68.39 19.54 -214.9 254 -400.6 146.6 -195.4 127 19.54 -156.3 19.54
3.65 -439.7 -97.7 547.1 -107.5 244.3 -390.8 48.85 -195.4 107.5 -97.7 107.5 -214.9 244.3 -439.7 68.39 -302.9 224.7 -19.54 -195.4 136.8
3.655 -87.93 146.6 527.6 87.93 146.6 -127 -29.31 -9.77 -87.93 19.54 136.8 -19.54 205.2 -273.6 -39.08 -136.8 234.5 195.4 -273.6 -78.16
3.66 -39.08 -19.54 400.6 48.85 97.7 -29.31 -146.6 0 -185.6 -39.08 224.7 -39.08 117.2 -234.5 -224.7 -146.6 146.6 166.1 -234.5 -48.85
3.665 -117.2 -68.39 156.3 0 -29.31 39.08 -136.8 78.16 -273.6 9.77 166.1 -107.5 107.5 -195.4 -224.7 -97.7 -9.77 205.2 -254 -214.9
3.67 117.2 146.6 234.5 205.2 127 312.7 107.5 332.2 -48.85 254 302.9 146.6 273.6 19.54 -19.54 185.6 117.2 361.5 39.08 -234.5
3.675 -244.3 -19.54 166.1 87.93 117.2 146.6 117.2 234.5 -107.5 87.93 263.8 -9.77 342 -97.7 58.62 68.39 0 195.4 9.77 -87.93
3.68 -312.7 185.6 332.2 332.2 244.3 302.9 127 381 -127 175.9 322.4 234.5 312.7 39.08 107.5 185.6 87.93 351.7 19.54 -254
3.685 -166.1 390.8 420.1 420.1 224.7 244.3 19.54 254 -195.4 -9.77 146.6 234.5 117.2 -48.85 29.31 -68.39 127 312.7 -87.93 -254
3.69 -166.1 381 429.9 429.9 185.6 117.2 -127 117.2 -332.2 -195.4 127 273.6 107.5 -127 -127 -244.3 78.16 390.8 -293.1 -410.4
3.695 -263.8 224.7 361.5 351.7 87.93 39.08 -224.7 58.62 -332.2 -185.6 -39.08 87.93 -58.62 -156.3 -224.7 -390.8 -68.39 234.5 -332.2 -410.4
3.7 -195.4 156.3 254 234.5 -29.31 -97.7 -273.6 19.54 -302.9 -283.3 -107.5 -9.77 29.31 -214.9 -185.6 -508.1 -87.93 156.3 -312.7 -371.3
3.705 -185.6 254 205.2 351.7 -58.62 78.16 -205.2 283.3 -224.7 -29.31 -9.77 136.8 9.77 39.08 -175.9 -234.5 -107.5 361.5 -195.4 -556.9
3.71 0 78.16 263.8 97.7 -78.16 -58.62 -244.3 175.9 -214.9 -214.9 78.16 -39.08 39.08 -58.62 -214.9 -351.7 -78.16 68.39 -205.2 -293.1
3.715 -19.54 -39.08 224.7 -87.93 -127 -136.8 -234.5 107.5 -224.7 -283.3 214.9 -195.4 117.2 -127 -166.1 -302.9 -39.08 -19.54 -166.1 -87.93
3.72 400.6 97.7 556.9 -39.08 136.8 -39.08 -87.93 117.2 -87.93 -234.5 605.8 -107.5 293.1 -19.54 -39.08 -146.6 273.6 -78.16 -68.39 175.9
3.725 214.9 -429.9 459.2 -478.7 -48.85 -400.6 -302.9 -263.8 -263.8 -517.8 596 -410.4 127 -293.1 -175.9 -381 87.93 -439.7 -283.3 351.7
3.73 381 -263.8 459.2 -244.3 -87.93 -254 -351.7 -185.6 -283.3 -390.8 459.2 -166.1 39.08 -136.8 -244.3 -224.7 136.8 -332.2 -351.7 234.5
3.735 293.1 -234.5 508.1 -214.9 -87.93 -293.1 -342 -205.2 -224.7 -371.3 410.4 -127 -156.3 -127 -254 -293.1 87.93 -459.2 -371.3 302.9
3.74 -29.31 -156.3 185.6 -205.2 -322.4 -312.7 -469 -273.6 -342 -400.6 -195.4 -78.16 -156.3 -156.3 -361.5 -312.7 -166.1 -469 -527.6 107.5
3.745 -117.2 78.16 97.7 -9.77 -332.2 -156.3 -390.8 -48.85 -224.7 -195.4 -361.5 29.31 -312.7 -48.85 -254 -195.4 -254 -332.2 -410.4 -117.2
3.75 -273.6 -136.8 -146.6 -302.9 -381 -381 -293.1 -156.3 -87.93 -254 -478.7 -185.6 -107.5 -254 -127 -293.1 -371.3 -439.7 -429.9 -68.39
3.755 -205.2 -78.16 -293.1 -283.3 -420.1 -342 -322.4 -87.93 -87.93 -195.4 -429.9 -224.7 -19.54 -234.5 -166.1 -283.3 -508.1 -342 -488.5 -263.8
3.76 -214.9 -459.2 -293.1 -625.3 -302.9 -615.5 -195.4 -273.6 0 -381 -283.3 -527.6 68.39 -459.2 -87.93 -469 -517.8 -586.2 -410.4 87.93
3.765 -146.6 -263.8 -166.1 -410.4 -127 -361.5 -166.1 -58.62 -29.31 -185.6 -68.39 -312.7 87.93 -244.3 -97.7 -283.3 -410.4 -283.3 -390.8 -195.4
3.77 -107.5 -322.4 -146.6 -420.1 -156.3 -322.4 -254 -175.9 -185.6 -273.6 -107.5 -224.7 -97.7 -205.2 -293.1 -312.7 -361.5 -361.5 -469 -48.85
3.775 -439.7 -371.3 -263.8 -371.3 -293.1 -214.9 -429.9 -254 -400.6 -332.2 -48.85 -175.9 -322.4 -127 -537.4 -322.4 -459.2 -469 -556.9 -58.62
3.78 -429.9 -381 -332.2 -322.4 -390.8 -97.7 -508.1 -293.1 -508.1 -361.5 -195.4 -58.62 -400.6 19.54 -664.4 -234.5 -400.6 -508.1 -478.7 87.93
3.785 -703.5 -195.4 -469 -136.8 -625.3 234.5 -605.8 -136.8 -655.1 -214.9 -683.9 107.5 -752.3 263.8 -801.2 -48.85 -439.7 -351.7 -508.1 -117.2
3.79 -576.5 -488.5 -703.5 -508.1 -742.6 -166.1 -703.5 -469 -713.2 -478.7 -928.2 -185.6 -693.7 -48.85 -830.5 -254 -517.8 -683.9 -478.7 166.1
3.795 -342 -175.9 -429.9 -214.9 -449.4 107.5 -254 -195.4 -351.7 -127 -732.8 48.85 -420.1 166.1 -478.7 29.31 -185.6 -410.4 -117.2 205.2
3.8 -205.2 -390.8 -547.6 -429.9 -469 -214.9 -273.6 -459.2 -293.1 -342 -742.6 -175.9 -302.9 -127 -400.6 -185.6 -195.4 -605.8 -127 361.5
3.805 -19.54 -361.5 -342 -273.6 -175.9 -127 -9.77 -371.3 0 -136.8 -390.8 -166.1 -195.4 -39.08 -127 -58.62 -9.77 -390.8 29.31 302.9
3.81 -166.1 -644.8 -107.5 -254 58.62 -234.5 195.4 -429.9 107.5 -244.3 -9.77 -254 -9.77 -87.93 9.77 -185.6 48.85 -361.5 39.08 322.4
3.815 -224.7 -732.8 -48.85 -342 117.2 -244.3 166.1 -478.7 127 -214.9 97.7 -244.3 29.31 -68.39 29.31 -156.3 -19.54 -381 -58.62 224.7
3.82 -420.1 -791.4 -107.5 -371.3 58.62 -312.7 58.62 -469 97.7 -166.1 29.31 -293.1 -19.54 -19.54 -58.62 -87.93 -175.9 -371.3 -156.3 107.5
3.825 -351.7 -928.2 -224.7 -576.5 9.77 -469 29.31 -644.8 127 -224.7 -97.7 -449.4 -39.08 -117.2 -68.39 -175.9 -293.1 -498.3 -166.1 136.8
3.83 -498.3 -810.9 -508.1 -556.9 -224.7 -420.1 -107.5 -635.6 68.39 -156.3 -371.3 -371.3 -224.7 -107.5 -146.6 -136.8 -478.7 -517.8 -234.5 -19.54
3.835 -655.1 -987.3 -655.1 -683.9 -273.6 -537.4 -29.31 -791.4 127 -224.7 -517.8 -420.1 -342 -205.2 -156.3 -254 -508.1 -664.4 -87.93 214.9
3.84 -752.3 -859.8 -781.6 -508.1 -390.8 -293.1 -68.39 -674.6 58.62 -117.2 -566.7 -224.7 -361.5 -107.5 -146.6 -117.2 -508.1 -547.6 -127 87.93
3.845 -674.6 -771.9 -752.3 -381 -371.3 -244.3 -146.6 -703.5 39.08 -136.8 -674.6 -185.6 -498.3 -58.62 -185.6 -39.08 -342 -449.4 -87.93 136.8
3.85 -703.5 -576.5 -605.8 -136.8 -293.1 -39.08 -166.1 -586.2 -39.08 -68.39 -508.1 -87.93 -478.7 87.93 -214.9 166.1 -234.5 -302.9 -146.6 58.62
3.855 -87.93 -244.3 -224.7 87.93 19.54 156.3 -19.54 -459.2 68.39 0 -332.2 -29.31 -195.4 205.2 -39.08 273.6 195.4 -97.7 107.5 293.1
3.86 -342 -439.7 -361.5 -117.2 -185.6 -58.62 -263.8 -644.8 -195.4 -166.1 -214.9 -254 -332.2 19.54 -263.8 146.6 -58.62 -244.3 -107.5 136.8
3.865 -78.16 -586.2 -322.4 -166.1 -117.2 -29.31 -136.8 -596 -107.5 -97.7 -263.8 -273.6 -302.9 -39.08 -156.3 117.2 -9.77 -205.2 48.85 166.1
3.87 -420.1 -674.6 -615.5 -273.6 -332.2 -87.93 -234.5 -596 -322.4 -87.93 -420.1 -322.4 -527.6 -97.7 -322.4 29.31 -361.5 -224.7 -97.7 -48.85
3.875 -830.5 -655.1 -810.9 -263.8 -488.5 -39.08 -302.9 -498.3 -420.1 -29.31 -566.7 -214.9 -586.2 -87.93 -400.6 -29.31 -547.6 -166.1 -107.5 -185.6
3.88 -752.3 -771.9 -801.2 -371.3 -342 -78.16 -136.8 -488.5 -322.4 -39.08 -625.3 -146.6 -625.3 -107.5 -263.8 -87.93 -586.2 -234.5 -9.77 -117.2
3.885 -664.4 -488.5 -527.6 -78.16 19.54 156.3 146.6 -263.8 -107.5 107.5 -342 78.16 -312.7 117.2 -117.2 58.62 -312.7 156.3 293.1 -205.2
3.89 -361.5 -703.5 -351.7 -351.7 175.9 -156.3 224.7 -566.7 -48.85 -244.3 -214.9 -127 -224.7 -107.5 -78.16 -214.9 -127 -58.62 400.6 146.6
3.895 29.31 -332.2 -97.7 48.85 439.7 107.5 400.6 -312.7 87.93 -48.85 -87.93 9.77 29.31 127 48.85 -78.16 205.2 283.3 615.5 127
3.9 97.7 -136.8 87.93 283.3 498.3 224.7 371.3 -283.3 68.39 -58.62 68.39 48.85 107.5 107.5 48.85 -87.93 429.9 498.3 566.7 97.7
3.905 185.6 48.85 97.7 488.5 400.6 263.8 224.7 -302.9 39.08 -78.16 -68.39 97.7 -58.62 127 0 -97.7 469 498.3 400.6 19.54
3.91 146.6 185.6 166.1 791.4 420.1 488.5 273.6 -146.6 156.3 146.6 156.3 273.6 -29.31 273.6 97.7 97.7 566.7 635.1 410.4 -58.62
3.915 156.3 136.8 48.85 723 351.7 459.2 283.3 -156.3 234.5 195.4 136.8 302.9 -156.3 273.6 185.6 166.1 400.6 488.5 439.7 29.31
3.92 78.16 -78.16 -166.1 410.4 156.3 302.9 224.7 -185.6 214.9 205.2 214.9 185.6 -273.6 175.9 136.8 166.1 127 254 322.4 39.08
3.925 -273.6 -175.9 -371.3 185.6 0 244.3 136.8 -19.54 195.4 410.4 -293.1 136.8 -586.2 214.9 29.31 283.3 -127 195.4 254 -146.6
3.93 -224.7 -127 -254 -39.08 58.62 97.7 224.7 19.54 214.9 400.6 -78.16 39.08 -273.6 156.3 68.39 322.4 -224.7 166.1 312.7 -185.6
3.935 -166.1 -97.7 -459.2 -166.1 -58.62 39.08 175.9 78.16 214.9 527.6 -429.9 117.2 -439.7 205.2 107.5 361.5 -351.7 58.62 293.1 -224.7
3.94 -78.16 -39.08 -420.1 -175.9 48.85 29.31 322.4 136.8 351.7 517.8 -254 107.5 -166.1 146.6 244.3 420.1 -361.5 78.16 381 -234.5
3.945 146.6 -19.54 -410.4 -117.2 156.3 0 478.7 78.16 488.5 488.5 -146.6 87.93 127 87.93 420.1 302.9 -254 146.6 537.4 -107.5
3.95 293.1 58.62 -185.6 39.08 361.5 117.2 674.2 224.7 635.1 596 0 146.6 342 146.6 596 381 -68.39 342 723 -146.6
3.955 78.16 58.62 -68.39 39.08 400.6 97.7 654.6 146.6 615.5 527.6 -97.7 -9.77 205.2 107.5 576.5 244.3 48.85 205.2 713.2 68.39
3.96 488.5 175.9 400.6 195.4 703.5 244.3 791.4 244.3 762.1 527.6 254 185.6 498.3 283.3 771.9 342 459.2 371.3 928.2 224.7
3.965 517.8 361.5 361.5 273.6 586.2 332.2 605.8 312.7 683.9 615.5 410.4 263.8 351.7 351.7 576.5 429.9 498.3 449.4 771.9 97.7
3.97 459.2 273.6 332.2 146.6 537.4 244.3 517.8 166.1 537.4 351.7 410.4 185.6 312.7 214.9 449.4 302.9 556.9 332.2 654.6 263.8
3.975 781.6 390.8 263.8 146.6 469 195.4 420.1 146.6 371.3 254 556.9 185.6 205.2 166.1 302.9 283.3 469 312.7 547.1 205.2
3.98 488.5 244.3 127 0 293.1 127 185.6 97.7 136.8 136.8 517.8 58.62 78.16 29.31 136.8 234.5 273.6 214.9 283.3 175.9
3.985 596 166.1 234.5 -107.5 312.7 87.93 283.3 29.31 136.8 97.7 361.5 39.08 87.93 -48.85 175.9 224.7 312.7 214.9 342 273.6
3.99 605.8 78.16 87.93 -156.3 107.5 58.62 19.54 39.08 -58.62 117.2 459.2 -68.39 19.54 -78.16 97.7 263.8 97.7 263.8 117.2 9.77
3.995 371.3 -127 -68.39 -293.1 -97.7 -58.62 -146.6 -175.9 -166.1 -9.77 -39.08 -146.6 -185.6 -156.3 68.39 185.6 -117.2 19.54 -39.08 29.31
4 -29.31 -195.4 -195.4 -214.9 -263.8 -19.54 -244.3 -185.6 -273.6 -19.54 -234.5 -107.5 -195.4 -156.3 -19.54 127 -254 19.54 -195.4 -78.16
4.005 -146.6 -107.5 -146.6 -58.62 -224.7 0 -224.7 -195.4 -254 -58.62 -195.4 -68.39 -224.7 -107.5 19.54 97.7 -195.4 87.93 -234.5 -146.6
4.01 -410.4 0 -78.16 156.3 -117.2 214.9 -78.16 -19.54 -166.1 19.54 -214.9 19.54 -9.77 -29.31 39.08 146.6 -9.77 205.2 -117.2 -97.7
4.015 9.77 263.8 166.1 371.3 224.7 351.7 195.4 136.8 58.62 127 58.62 195.4 185.6 97.7 205.2 156.3 312.7 429.9 117.2 68.39
4.02 127 410.4 78.16 469 166.1 400.6 117.2 234.5 19.54 224.7 107.5 273.6 166.1 107.5 48.85 127 283.3 420.1 117.2 -29.31
4.025 439.7 459.2 39.08 449.4 156.3 351.7 156.3 332.2 87.93 273.6 58.62 263.8 166.1 127 19.54 146.6 332.2 439.7 205.2 -39.08
4.03 293.1 371.3 -97.7 205.2 -9.77 117.2 -78.16 214.9 -87.93 195.4 19.54 156.3 9.77 -9.77 -244.3 -9.77 117.2 214.9 0 -107.5
4.035 361.5 400.6 -9.77 254 9.77 175.9 -19.54 361.5 0 254 48.85 195.4 39.08 87.93 -234.5 68.39 107.5 97.7 39.08 -58.62
4.04 -19.54 -29.31 -254 -205.2 -224.7 -127 -234.5 39.08 -68.39 68.39 -156.3 -39.08 -214.9 -97.7 -302.9 -58.62 -185.6 -293.1 -156.3 58.62
4.045 -29.31 -175.9 -87.93 -332.2 -78.16 -146.6 -136.8 48.85 78.16 136.8 58.62 -39.08 117.2 -48.85 -185.6 -48.85 -205.2 -322.4 -156.3 87.93
4.05 -156.3 -361.5 -342 -547.6 -244.3 -381 -234.5 -195.4 78.16 -87.93 -195.4 -224.7 -87.93 -185.6 -185.6 -214.9 -400.6 -566.7 -312.7 214.9
4.055 -205.2 -429.9 -361.5 -517.8 -224.7 -459.2 -195.4 -322.4 146.6 -146.6 -205.2 -146.6 39.08 -185.6 -29.31 -263.8 -342 -586.2 -342 322.4
4.06 -175.9 -312.7 -586.2 -410.4 -400.6 -390.8 -410.4 -302.9 9.77 -136.8 -439.7 -166.1 -146.6 -185.6 -117.2 -214.9 -488.5 -537.4 -566.7 166.1
4.065 -9.77 -195.4 -605.8 -214.9 -429.9 -351.7 -410.4 -293.1 -48.85 -234.5 -703.5 0 -195.4 -87.93 -97.7 -78.16 -342 -381 -517.8 87.93
4.07 -410.4 -175.9 -752.3 -254 -566.7 -410.4 -596 -469 -361.5 -400.6 -655.1 -195.4 -381 -224.7 -381 -146.6 -498.3 -449.4 -830.5 -29.31
4.075 -58.62 39.08 -410.4 -78.16 -234.5 -263.8 -371.3 -381 -293.1 -420.1 -508.1 -68.39 -146.6 -78.16 -205.2 19.54 -175.9 -283.3 -556.9 87.93
4.08 -175.9 -48.85 -322.4 -205.2 -214.9 -439.7 -429.9 -488.5 -517.8 -576.5 -175.9 -273.6 -146.6 -185.6 -351.7 -68.39 -205.2 -312.7 -674.6 87.93
4.085 185.6 78.16 -107.5 -205.2 29.31 -400.6 -234.5 -420.1 -459.2 -469 -214.9 -205.2 48.85 -117.2 -156.3 29.31 -29.31 -146.6 -459.2 29.31
4.09 537.4 68.39 97.7 -273.6 146.6 -420.1 -97.7 -342 -439.7 -439.7 -39.08 -293.1 29.31 -97.7 -97.7 9.77 68.39 -97.7 -293.1 127
4.095 302.9 214.9 0 -195.4 127 -263.8 -97.7 -156.3 -498.3 -224.7 -254 -107.5 68.39 19.54 -136.8 166.1 9.77 -9.77 -273.6 0
4.1 312.7 312.7 29.31 -97.7 58.62 -156.3 -136.8 -87.93 -527.6 -175.9 -322.4 -58.62 -97.7 39.08 -273.6 214.9 9.77 -9.77 -273.6 -9.77
4.105 185.6 439.7 -117.2 87.93 -107.5 48.85 -254 78.16 -586.2 -9.77 -576.5 39.08 -449.4 136.8 -371.3 332.2 -39.08 136.8 -332.2 -195.4
4.11 312.7 547.1 39.08 273.6 87.93 117.2 -97.7 244.3 -429.9 107.5 -273.6 127 -97.7 166.1 -244.3 371.3 195.4 273.6 -214.9 -146.6
4.115 -78.16 410.4 -283.3 224.7 -234.5 97.7 -302.9 342 -478.7 293.1 -439.7 78.16 -498.3 166.1 -429.9 371.3 -97.7 175.9 -361.5 -283.3
4.12 -156.3 195.4 -127 156.3 -39.08 39.08 -48.85 390.8 -166.1 332.2 -166.1 -48.85 -166.1 48.85 -156.3 263.8 9.77 127 -156.3 -48.85
4.125 -39.08 234.5 -87.93 48.85 19.54 78.16 58.62 498.3 87.93 469 -97.7 -19.54 -29.31 39.08 -9.77 302.9 19.54 175.9 -29.31 -87.93
4.13 -156.3 205.2 -273.6 -9.77 -156.3 -9.77 -29.31 459.2 166.1 478.7 -273.6 -175.9 -156.3 -87.93 -29.31 156.3 -195.4 68.39 -205.2 -224.7
4.135 234.5 312.7 -175.9 -19.54 -166.1 39.08 9.77 293.1 244.3 293.1 -254 -136.8 -58.62 -136.8 19.54 19.54 -97.7 48.85 -146.6 -166.1
4.14 390.8 449.4 -156.3 0 -117.2 68.39 78.16 254 293.1 263.8 -195.4 -205.2 58.62 -146.6 9.77 -107.5 -107.5 39.08 -146.6 -214.9
4.145 146.6 214.9 -312.7 -78.16 -244.3 -39.08 -58.62 97.7 127 68.39 -488.5 -214.9 -107.5 -205.2 -136.8 -214.9 -312.7 -48.85 -234.5 -322.4
4.15 9.77 9.77 -390.8 -263.8 -283.3 -175.9 -107.5 -58.62 -9.77 -107.5 -420.1 -342 -68.39 -273.6 -195.4 -351.7 -488.5 -117.2 -312.7 -332.2
4.155 -342 -234.5 -586.2 -420.1 -410.4 -254 -185.6 -195.4 -107.5 -205.2 -859.8 -234.5 -508.1 -205.2 -234.5 -371.3 -655.1 -234.5 -312.7 -283.3
4.16 -361.5 -547.6 -508.1 -644.8 -420.1 -527.6 -244.3 -527.6 -224.7 -498.3 -478.7 -293.1 -78.16 -322.4 -263.8 -635.6 -713.2 -498.3 -381 9.77
4.165 -508.1 -439.7 -508.1 -566.7 -527.6 -449.4 -351.7 -527.6 -332.2 -547.6 -214.9 -166.1 -244.3 -254 -273.6 -556.9 -664.4 -478.7 -429.9 -9.77
4.17 -302.9 -263.8 -312.7 -371.3 -449.4 -351.7 -332.2 -537.4 -332.2 -576.5 -117.2 -19.54 -136.8 -156.3 -273.6 -449.4 -429.9 -390.8 -400.6 -39.08
4.175 87.93 -68.39 -117.2 -214.9 -410.4 -342 -371.3 -556.9 -351.7 -625.3 -39.08 -29.31 -68.39 -195.4 -214.9 -361.5 -107.5 -332.2 -410.4 78.16
4.18 127 205.2 117.2 127 -283.3 -9.77 -273.6 -254 -244.3 -420.1 -156.3 166.1 -127 29.31 -97.7 -29.31 166.1 -107.5 -332.2 19.54
4.185 97.7 87.93 224.7 117.2 -224.7 0 -254 -195.4 -185.6 -429.9 -351.7 0 -117.2 -9.77 -9.77 48.85 234.5 -29.31 -302.9 107.5
4.19 107.5 136.8 390.8 322.4 19.54 351.7 -9.77 127 19.54 -195.4 -205.2 195.4 29.31 234.5 205.2 361.5 439.7 312.7 -48.85 68.39
4.195 -185.6 -273.6 107.5 19.54 -87.93 136.8 -29.31 29.31 9.77 -351.7 -136.8 -29.31 29.31 136.8 224.7 195.4 214.9 78.16 -29.31 214.9
4.2 -254 -342 29.31 39.08 -58.62 166.1 117.2 156.3 58.62 -293.1 -136.8 -29.31 107.5 195.4 205.2 244.3 58.62 68.39 39.08 214.9
4.205 78.16 -146.6 0 156.3 19.54 175.9 312.7 293.1 107.5 -224.7 29.31 117.2 244.3 273.6 322.4 312.7 127 195.4 254 175.9
4.21 19.54 -107.5 -19.54 97.7 48.85 -19.54 322.4 195.4 19.54 -263.8 107.5 87.93 312.7 127 234.5 175.9 97.7 29.31 254 185.6
4.215 146.6 97.7 205.2 185.6 234.5 -78.16 400.6 263.8 58.62 -117.2 273.6 136.8 469 127 273.6 185.6 283.3 78.16 429.9 195.4
4.22 68.39 97.7 107.5 68.39 39.08 -224.7 39.08 117.2 -263.8 -136.8 342 78.16 263.8 -68.39 -68.39 87.93 87.93 -97.7 48.85 39.08
4.225 156.3 185.6 390.8 39.08 146.6 -302.9 -19.54 78.16 -263.8 -107.5 420.1 48.85 205.2 -87.93 -68.39 29.31 224.7 -87.93 29.31 78.16
4.23 156.3 293.1 381 39.08 -39.08 -234.5 -283.3 58.62 -449.4 -117.2 263.8 166.1 166.1 -19.54 -244.3 -29.31 146.6 39.08 -283.3 -146.6
4.235 48.85 488.5 283.3 156.3 -127 -97.7 -478.7 117.2 -469 9.77 97.7 332.2 -58.62 146.6 -283.3 97.7 97.7 214.9 -449.4 -361.5
4.24 58.62 459.2 273.6 175.9 -156.3 29.31 -420.1 195.4 -361.5 29.31 -39.08 234.5 68.39 166.1 -224.7 -19.54 87.93 185.6 -498.3 -293.1
4.245 -146.6 605.8 166.1 449.4 -136.8 400.6 -302.9 527.6 -68.39 361.5 19.54 459.2 68.39 429.9 -97.7 175.9 58.62 654.6 -302.9 -713.2
4.25 -19.54 664.4 175.9 635.1 -68.39 683.9 -58.62 732.8 146.6 547.1 263.8 527.6 224.7 537.4 127 283.3 58.62 762.1 -97.7 -762.1
4.255 -127 576.5 136.8 654.6 -48.85 615.5 58.62 635.1 234.5 459.2 371.3 517.8 254 469 214.9 117.2 136.8 703.5 87.93 -644.8
4.26 87.93 576.5 332.2 723 205.2 586.2 371.3 439.7 381 254 596 488.5 566.7 293.1 459.2 -136.8 390.8 556.9 322.4 -263.8
4.265 478.7 869.6 566.7 957.5 429.9 625.3 537.4 459.2 342 205.2 1036 625.3 810.9 283.3 596 -136.8 537.4 762.1 390.8 -332.2
4.27 459.2 693.7 742.6 781.6 586.2 351.7 596 205.2 263.8 -127 850 400.6 840.3 29.31 644.8 -381 596 625.3 351.7 -166.1
4.275 664.4 801.2 898.9 820.7 674.2 361.5 654.6 273.6 214.9 -68.39 918.4 351.7 928.2 29.31 674.2 -263.8 664.4 723 400.6 -205.2
4.28 517.8 488.5 830.5 478.7 586.2 117.2 537.4 68.39 175.9 -254 752.3 48.85 771.9 -146.6 537.4 -351.7 449.4 439.7 293.1 -97.7
4.285 429.9 420.1 732.8 469 449.4 234.5 488.5 263.8 224.7 -87.93 605.8 39.08 342 -9.77 488.5 -87.93 390.8 488.5 371.3 -156.3
4.29 381 410.4 625.3 342 400.6 293.1 517.8 400.6 351.7 48.85 615.5 185.6 517.8 136.8 449.4 58.62 273.6 517.8 478.7 -195.4
4.295 293.1 293.1 547.1 302.9 371.3 420.1 586.2 605.8 459.2 234.5 644.8 205.2 429.9 293.1 576.5 293.1 312.7 586.2 732.8 -97.7
4.3 293.1 273.6 420.1 273.6 273.6 469 556.9 742.6 478.7 293.1 449.4 322.4 556.9 390.8 556.9 410.4 332.2 576.5 801.2 0
4.305 195.4 175.9 420.1 214.9 244.3 439.7 449.4 791.4 488.5 322.4 127 283.3 410.4 390.8 478.7 478.7 429.9 488.5 762.1 68.39
4.31 185.6 19.54 371.3 146.6 273.6 400.6 420.1 810.9 498.3 332.2 107.5 224.7 527.6 371.3 498.3 498.3 469 429.9 801.2 175.9
4.315 0 -273.6 371.3 19.54 205.2 302.9 342 801.2 537.4 361.5 214.9 58.62 478.7 302.9 469 576.5 342 254 703.5 263.8
4.32 -351.7 -332.2 244.3 -68.39 78.16 283.3 136.8 801.2 390.8 439.7 146.6 -29.31 371.3 273.6 351.7 703.5 97.7 214.9 488.5 97.7
4.325 -254 -498.3 87.93 -234.5 0 58.62 -39.08 664.4 312.7 478.7 381 -195.4 400.6 107.5 283.3 644.8 -107.5 156.3 156.3 -97.7
4.33 -478.7 -449.4 -9.77 -195.4 -146.6 48.85 -214.9 635.1 156.3 527.6 302.9 -244.3 224.7 58.62 87.93 644.8 -263.8 175.9 -166.1 -332.2
4.335 -97.7 -234.5 175.9 -136.8 58.62 -87.93 -87.93 439.7 175.9 488.5 537.4 -175.9 439.7 -58.62 224.7 508.1 -87.93 68.39 -185.6 -195.4
4.34 -29.31 -254 117.2 -214.9 29.31 -224.7 -68.39 254 68.39 322.4 439.7 -244.3 312.7 -117.2 97.7 312.7 -48.85 -97.7 -302.9 -117.2
4.345 146.6 -78.16 322.4 -87.93 263.8 -136.8 107.5 185.6 136.8 302.9 576.5 -29.31 508.1 -19.54 244.3 263.8 87.93 0 -185.6 -58.62
4.35 -78.16 -224.7 78.16 -322.4 68.39 -449.4 -39.08 -195.4 -97.7 -68.39 234.5 -214.9 205.2 -244.3 19.54 -97.7 -78.16 -224.7 -322.4 -48.85
4.355 -214.9 -244.3 87.93 -283.3 48.85 -488.5 -156.3 -312.7 -234.5 -263.8 48.85 -195.4 254 -244.3 -19.54 -283.3 -175.9 -224.7 -400.6 -107.5
4.36 -87.93 -146.6 107.5 -224.7 78.16 -498.3 -97.7 -478.7 -263.8 -459.2 -39.08 -175.9 195.4 -322.4 -9.77 -508.1 -87.93 -234.5 -410.4 -48.85
4.365 29.31 68.39 293.1 0 195.4 -381 -107.5 -381 -273.6 -459.2 39.08 -87.93 283.3 -244.3 68.39 -508.1 156.3 0 -293.1 -87.93
4.37 39.08 58.62 449.4 9.77 283.3 -342 -117.2 -429.9 -312.7 -596 244.3 -107.5 478.7 -293.1 68.39 -635.6 224.7 0 -263.8 -58.62
4.375 185.6 156.3 644.8 127 381 -254 -97.7 -332.2 -302.9 -566.7 654.6 -58.62 420.1 -254 68.39 -683.9 342 0 -146.6 29.31
4.38 136.8 146.6 596 87.93 342 -214.9 -175.9 -234.5 -351.7 -586.2 478.7 0 332.2 -224.7 19.54 -683.9 351.7 0 -146.6 39.08
4.385 488.5 273.6 683.9 166.1 410.4 -87.93 -97.7 -146.6 -293.1 -556.9 644.8 68.39 273.6 -136.8 39.08 -723 420.1 107.5 -78.16 9.77
4.39 410.4 449.4 762.1 420.1 517.8 166.1 48.85 68.39 -175.9 -400.6 693.7 302.9 371.3 19.54 156.3 -596 586.2 449.4 19.54 -146.6
4.395 654.6 732.8 928.2 830.5 713.2 527.6 312.7 332.2 78.16 -224.7 635.1 498.3 429.9 234.5 390.8 -439.7 830.5 752.3 214.9 -185.6
4.4 390.8 723 762.1 869.6 576.5 547.1 254 322.4 68.39 -205.2 429.9 498.3 420.1 205.2 312.7 -478.7 713.2 723 146.6 -214.9
4.405 429.9 723 713.2 928.2 498.3 625.3 283.3 478.7 224.7 58.62 449.4 390.8 478.7 224.7 322.4 -342 664.4 693.7 214.9 -244.3
4.41 420.1 586.2 576.5 840.3 381 556.9 214.9 596 322.4 263.8 322.4 420.1 429.9 283.3 322.4 -87.93 517.8 556.9 136.8 -234.5
4.415 185.6 195.4 332.2 439.7 136.8 332.2 19.54 527.6 410.4 361.5 224.7 156.3 214.9 175.9 195.4 87.93 244.3 146.6 127 -68.39
4.42 -78.16 -78.16 39.08 68.39 -175.9 185.6 -234.5 498.3 263.8 400.6 117.2 68.39 -87.93 146.6 -87.93 302.9 -87.93 -146.6 -29.31 0
4.425 -332.2 -263.8 -39.08 -195.4 -244.3 87.93 -254 527.6 342 469 48.85 19.54 -117.2 175.9 -39.08 517.8 -185.6 -283.3 0 78.16
4.43 -498.3 -390.8 -195.4 -420.1 -390.8 -117.2 -410.4 439.7 146.6 302.9 -127 -78.16 -322.4 29.31 -224.7 508.1 -400.6 -449.4 -175.9 48.85
4.435 -478.7 -469 -107.5 -547.6 -283.3 -205.2 -302.9 381 175.9 293.1 19.54 -136.8 -58.62 0 -97.7 498.3 -400.6 -605.8 -117.2 234.5
4.44 -498.3 -508.1 -283.3 -498.3 -361.5 -205.2 -312.7 322.4 87.93 302.9 -29.31 -146.6 -68.39 -9.77 -87.93 527.6 -459.2 -537.4 -146.6 156.3
4.445 -420.1 -605.8 -371.3 -508.1 -410.4 -302.9 -420.1 175.9 -29.31 166.1 -107.5 -283.3 -97.7 -78.16 -156.3 420.1 -547.6 -547.6 -254 97.7
4.45 -312.7 -576.5 -361.5 -400.6 -449.4 -293.1 -537.4 97.7 -234.5 -9.77 -78.16 -381 -136.8 -136.8 -283.3 273.6 -537.4 -420.1 -390.8 -29.31
4.455 -166.1 -263.8 -185.6 -68.39 -351.7 -175.9 -596 48.85 -410.4 -117.2 -166.1 -293.1 -107.5 -68.39 -410.4 175.9 -283.3 -293.1 -469 -68.39
4.46 -87.93 -195.4 -117.2 -78.16 -449.4 -390.8 -918.4 -449.4 -791.4 -664.4 -87.93 -351.7 -263.8 -312.7 -732.8 -332.2 -175.9 -527.6 -781.6 87.93
4.465 -263.8 19.54 -166.1 97.7 -596 -302.9 -1143 -547.6 -1124 -762.1 -293.1 -195.4 -478.7 -263.8 -987.3 -556.9 -195.4 -361.5 -996.6 -185.6
4.47 -205.2 -29.31 -273.6 -87.93 -625.3 -547.6 -1260 -957.5 -1290 -1085 -224.7 -224.7 -635.6 -449.4 -1163 -1055 -214.9 -547.6 -1104 -29.31
4.475 -371.3 -175.9 -478.7 -244.3 -703.5 -586.2 -1221 -1075 -1250 -1133 -420.1 -254 -791.4 -556.9 -1094 -1290 -400.6 -586.2 -1025 -39.08
4.48 -400.6 -136.8 -605.8 -234.5 -586.2 -439.7 -1006 -889.1 -957.5 -781.6 -420.1 -175.9 -732.8 -478.7 -908.6 -1250 -508.1 -400.6 -781.6 -127
4.485 -420.1 -117.2 -547.6 -175.9 -400.6 -214.9 -586.2 -605.8 -615.5 -478.7 -410.4 -107.5 -537.4 -332.2 -586.2 -1143 -556.9 -127 -449.4 -254
4.49 -459.2 117.2 -556.9 48.85 -234.5 205.2 -302.9 -175.9 -302.9 58.62 -390.8 97.7 -508.1 -78.16 -322.4 -693.7 -576.5 263.8 -293.1 -547.6
4.495 -449.4 146.6 -478.7 87.93 -166.1 302.9 -97.7 -19.54 -195.4 224.7 -234.5 9.77 -302.9 -9.77 -205.2 -469 -547.6 195.4 -146.6 -469
4.5 -517.8 117.2 -381 97.7 -234.5 390.8 -19.54 68.39 -136.8 322.4 -322.4 -68.39 -390.8 19.54 -166.1 -273.6 -547.6 97.7 -214.9 -439.7
4.505 -166.1 127 -283.3 156.3 -87.93 439.7 78.16 107.5 -9.77 381 29.31 -29.31 -136.8 68.39 -97.7 -146.6 -283.3 136.8 -78.16 -273.6
4.51 -136.8 19.54 -312.7 127 -234.5 332.2 -97.7 0 -39.08 322.4 -78.16 -127 -302.9 39.08 -224.7 -87.93 -244.3 58.62 -205.2 -254
4.515 185.6 -136.8 19.54 146.6 78.16 302.9 146.6 -9.77 283.3 429.9 195.4 -185.6 -68.39 68.39 39.08 68.39 146.6 0 146.6 156.3
4.52 117.2 -68.39 -87.93 234.5 29.31 351.7 48.85 68.39 195.4 556.9 0 -224.7 -302.9 78.16 -107.5 224.7 175.9 146.6 117.2 39.08
4.525 107.5 -39.08 136.8 234.5 205.2 342 195.4 117.2 293.1 644.8 175.9 -224.7 -263.8 146.6 -136.8 351.7 351.7 283.3 312.7 97.7
4.53 -107.5 -78.16 9.77 87.93 68.39 293.1 97.7 166.1 205.2 605.8 -146.6 -332.2 -625.3 117.2 -302.9 410.4 166.1 293.1 214.9 -39.08
4.535 -117.2 58.62 117.2 19.54 117.2 283.3 117.2 175.9 146.6 615.5 -19.54 -254 -449.4 195.4 -371.3 469 19.54 244.3 244.3 -78.16
4.54 58.62 -156.3 -107.5 -390.8 -58.62 -78.16 48.85 -166.1 68.39 342 -127 -400.6 -508.1 9.77 -371.3 234.5 -224.7 -224.7 195.4 87.93
4.545 -283.3 -107.5 -400.6 -449.4 -322.4 -146.6 -205.2 -214.9 -97.7 390.8 -224.7 -449.4 -537.4 -9.77 -469 302.9 -683.9 -361.5 -78.16 -312.7
4.55 -205.2 -332.2 -605.8 -713.2 -537.4 -517.8 -322.4 -596 -185.6 39.08 -185.6 -576.5 -556.9 -322.4 -488.5 -48.85 -859.8 -713.2 -205.2 -117.2
4.555 -283.3 -273.6 -683.9 -615.5 -586.2 -517.8 -439.7 -703.5 -254 -68.39 127 -615.5 -566.7 -351.7 -459.2 -127 -889.1 -655.1 -302.9 -283.3
4.56 97.7 -107.5 -547.6 -332.2 -459.2 -410.4 -322.4 -723 -146.6 -136.8 166.1 -537.4 -459.2 -371.3 -263.8 -244.3 -566.7 -429.9 -234.5 -146.6
4.565 429.9 322.4 -87.93 283.3 -19.54 185.6 87.93 -205.2 283.3 332.2 302.9 -136.8 -185.6 -9.77 87.93 39.08 68.39 342 273.6 -332.2
4.57 488.5 410.4 127 556.9 293.1 439.7 361.5 29.31 459.2 361.5 175.9 9.77 -19.54 127 273.6 107.5 537.4 693.7 596 -195.4
4.575 429.9 732.8 166.1 957.5 351.7 898.9 537.4 488.5 596 723 -136.8 381 -175.9 527.6 254 420.1 654.6 1036 781.6 -381
4.58 488.5 693.7 488.5 850 654.6 801.2 820.7 459.2 723 537.4 78.16 508.1 0 556.9 361.5 293.1 908.6 918.4 1055 39.08
4.585 762.1 508.1 566.7 508.1 703.5 508.1 947.7 175.9 742.6 58.62 97.7 410.4 -156.3 351.7 390.8 -19.54 977 449.4 1143 537.4
4.59 635.1 527.6 498.3 381 615.5 400.6 889.1 87.93 644.8 -19.54 166.1 429.9 -234.5 312.7 302.9 -48.85 781.6 342 1036 498.3
4.595 1085 322.4 674.2 9.77 742.6 78.16 1085 -195.4 674.2 -439.7 429.9 175.9 224.7 117.2 420.1 -234.5 801.2 -107.5 1143 1006
4.6 625.3 439.7 469 97.7 547.1 195.4 977 39.08 586.2 -58.62 439.7 429.9 195.4 342 449.4 166.1 517.8 0 938 605.8
4.605 371.3 508.1 429.9 87.93 478.7 175.9 889.1 175.9 537.4 263.8 517.8 498.3 146.6 459.2 469 488.5 302.9 -29.31 791.4 371.3
4.61 146.6 439.7 254 -39.08 302.9 9.77 683.9 107.5 420.1 293.1 312.7 508.1 195.4 342 449.4 527.6 107.5 -195.4 517.8 302.9
4.615 195.4 547.1 293.1 68.39 263.8 87.93 664.4 332.2 625.3 703.5 166.1 586.2 175.9 459.2 605.8 742.6 195.4 -214.9 527.6 293.1
4.62 127 254 -9.77 -156.3 29.31 -107.5 410.4 127 527.6 508.1 -381 390.8 -87.93 263.8 449.4 537.4 48.85 -527.6 342 469
4.625 58.62 19.54 -39.08 -332.2 -78.16 -185.6 302.9 68.39 556.9 429.9 -283.3 224.7 -156.3 166.1 381 342 87.93 -625.3 351.7 644.8
4.63 283.3 -29.31 -224.7 -283.3 -205.2 9.77 205.2 156.3 566.7 449.4 -449.4 273.6 -400.6 205.2 361.5 322.4 58.62 -478.7 312.7 537.4
4.635 -146.6 -107.5 -224.7 -293.1 -224.7 68.39 97.7 146.6 478.7 459.2 -322.4 254 -263.8 195.4 302.9 293.1 9.77 -439.7 283.3 556.9
4.64 293.1 166.1 -146.6 -19.54 -87.93 293.1 302.9 342 488.5 527.6 -175.9 459.2 -244.3 293.1 361.5 371.3 166.1 -175.9 469 469
4.645 263.8 361.5 -9.77 107.5 78.16 361.5 478.7 400.6 537.4 664.4 -107.5 498.3 39.08 293.1 459.2 400.6 293.1 39.08 625.3 410.4
4.65 527.6 547.1 254 312.7 429.9 449.4 752.3 439.7 625.3 615.5 127 654.6 410.4 312.7 537.4 322.4 420.1 332.2 820.7 234.5
4.655 791.4 586.2 527.6 302.9 723 342 1036 420.1 820.7 605.8 449.4 547.1 596 273.6 683.9 293.1 605.8 342 1124 439.7
4.66 781.6 547.1 566.7 234.5 742.6 224.7 1016 322.4 723 381 537.4 556.9 605.8 175.9 615.5 166.1 517.8 273.6 1016 390.8
4.665 742.6 469 596 205.2 693.7 205.2 889.1 371.3 664.4 390.8 420.1 478.7 586.2 244.3 596 224.7 449.4 390.8 889.1 195.4
4.67 625.3 283.3 605.8 19.54 527.6 29.31 693.7 175.9 478.7 68.39 459.2 322.4 488.5 117.2 527.6 107.5 351.7 244.3 586.2 185.6
4.675 68.39 29.31 361.5 -97.7 127 -107.5 254 -58.62 87.93 -175.9 263.8 244.3 175.9 29.31 244.3 -97.7 39.08 19.54 97.7 58.62
4.68 0 29.31 439.7 -78.16 68.39 -156.3 39.08 -195.4 -87.93 -381 205.2 185.6 195.4 -39.08 293.1 -146.6 68.39 -136.8 -234.5 87.93
4.685 -117.2 58.62 -48.85 -185.6 -332.2 -342 -332.2 -429.9 -420.1 -615.5 -136.8 156.3 0 -136.8 107.5 -263.8 -273.6 -351.7 -674.6 -39.08
4.69 -175.9 19.54 -58.62 -136.8 -244.3 -322.4 -293.1 -508.1 -361.5 -723 -136.8 224.7 136.8 -136.8 312.7 -254 -234.5 -381 -664.4 19.54
4.695 127 -39.08 -322.4 -351.7 -302.9 -469 -214.9 -547.6 -263.8 -810.9 -371.3 107.5 146.6 -214.9 351.7 -361.5 -390.8 -644.8 -635.6 195.4
4.7 -19.54 -224.7 -488.5 -420.1 -156.3 -332.2 87.93 -381 39.08 -693.7 -263.8 58.62 312.7 -117.2 586.2 -234.5 -400.6 -625.3 -312.7 293.1
4.705 -185.6 -342 -596 -605.8 -136.8 -312.7 302.9 -195.4 332.2 -449.4 -459.2 -78.16 185.6 -97.7 596 -97.7 -469 -635.6 39.08 381
4.71 -381 -508.1 -703.5 -664.4 -127 -185.6 400.6 39.08 449.4 -185.6 -439.7 -97.7 205.2 -19.54 517.8 29.31 -498.3 -498.3 263.8 312.7
4.715 -635.6 -498.3 -713.2 -605.8 -127 -127 332.2 273.6 469 107.5 -596 -87.93 87.93 19.54 371.3 254 -517.8 -400.6 420.1 283.3
4.72 -635.6 -478.7 -605.8 -439.7 -107.5 -58.62 166.1 400.6 381 351.7 -410.4 -107.5 -9.77 48.85 146.6 371.3 -439.7 -390.8 390.8 205.2
4.725 -429.9 -410.4 -214.9 -371.3 68.39 -97.7 48.85 361.5 361.5 342 -127 -48.85 39.08 9.77 19.54 351.7 -205.2 -381 371.3 312.7
4.73 -371.3 -293.1 -205.2 -244.3 -146.6 -87.93 -312.7 283.3 107.5 390.8 -312.7 -48.85 -596 -9.77 -263.8 371.3 -244.3 -342 19.54 29.31
4.735 -87.93 -371.3 -19.54 -381 -39.08 -312.7 -390.8 -78.16 87.93 48.85 -185.6 -224.7 -175.9 -224.7 -224.7 97.7 -146.6 -586.2 -87.93 342
4.74 39.08 -234.5 -117.2 -371.3 -224.7 -390.8 -576.5 -322.4 -87.93 -156.3 -508.1 -136.8 -547.6 -273.6 -361.5 -29.31 -175.9 -664.4 -371.3 273.6
4.745 -58.62 -117.2 -97.7 -342 -195.4 -312.7 -517.8 -449.4 -48.85 -214.9 -351.7 -107.5 -234.5 -224.7 -263.8 -97.7 -136.8 -576.5 -420.1 234.5
4.75 -48.85 -175.9 -195.4 -439.7 -136.8 -439.7 -449.4 -683.9 -117.2 -469 -429.9 -234.5 -136.8 -312.7 -205.2 -214.9 -156.3 -605.8 -459.2 351.7
4.755 87.93 -127 -273.6 -420.1 -156.3 -381 -351.7 -752.3 -205.2 -547.6 -263.8 -214.9 -136.8 -273.6 -205.2 -322.4 -166.1 -615.5 -469 361.5
4.76 39.08 58.62 -478.7 -127 -185.6 -29.31 -371.3 -459.2 -400.6 -273.6 -293.1 19.54 -136.8 9.77 -254 -29.31 -312.7 -283.3 -459.2 -9.77
4.765 -68.39 -58.62 -478.7 -273.6 -117.2 -195.4 -342 -576.5 -586.2 -439.7 -254 -146.6 -205.2 -175.9 -332.2 -312.7 -283.3 -283.3 -488.5 19.54
4.77 302.9 429.9 -224.7 332.2 146.6 254 -214.9 -68.39 -586.2 78.16 -97.7 283.3 -39.08 185.6 -273.6 39.08 -58.62 390.8 -332.2 -508.1
4.775 234.5 342 136.8 390.8 351.7 185.6 -78.16 -68.39 -517.8 -87.93 58.62 195.4 -9.77 68.39 -244.3 -156.3 234.5 332.2 -146.6 -175.9
4.78 596 517.8 498.3 586.2 586.2 293.1 68.39 87.93 -361.5 29.31 58.62 263.8 9.77 107.5 -156.3 -48.85 517.8 576.5 -19.54 -185.6
4.785 810.9 576.5 752.3 703.5 635.1 371.3 87.93 97.7 -175.9 -48.85 214.9 342 39.08 107.5 -117.2 19.54 723 576.5 39.08 -58.62
4.79 273.6 517.8 615.5 605.8 381 361.5 -87.93 68.39 -166.1 -117.2 9.77 332.2 -224.7 146.6 -293.1 107.5 498.3 498.3 -156.3 -205.2
4.795 273.6 390.8 381 498.3 117.2 293.1 -127 107.5 -29.31 -97.7 -127 254 -273.6 107.5 -293.1 146.6 332.2 302.9 -205.2 -166.1
4.8 156.3 156.3 136.8 312.7 -9.77 234.5 -19.54 136.8 107.5 -68.39 -205.2 234.5 -312.7 166.1 -214.9 214.9 195.4 146.6 -87.93 -39.08
4.805 19.54 0 -312.7 78.16 -302.9 117.2 -127 205.2 175.9 48.85 -547.6 175.9 -576.5 107.5 -234.5 175.9 -146.6 78.16 -97.7 -166.1
4.81 -9.77 -283.3 -400.6 -97.7 -234.5 68.39 78.16 224.7 312.7 78.16 -390.8 -9.77 -293.1 58.62 -78.16 166.1 -224.7 107.5 68.39 -29.31
4.815 -273.6 -263.8 -537.4 -136.8 -302.9 58.62 87.93 293.1 332.2 195.4 -390.8 -9.77 -410.4 9.77 -68.39 136.8 -371.3 107.5 39.08 -156.3
4.82 -644.8 -87.93 -498.3 -9.77 -273.6 166.1 166.1 381 371.3 390.8 -322.4 -9.77 -273.6 87.93 87.93 214.9 -332.2 195.4 0 -273.6
4.825 -674.6 -254 -527.6 -117.2 -322.4 -39.08 117.2 234.5 361.5 312.7 -429.9 -117.2 -254 0 146.6 146.6 -361.5 78.16 -127 -244.3
4.83 -664.4 -195.4 -508.1 -87.93 -449.4 -166.1 -29.31 136.8 195.4 342 -381 -175.9 -234.5 -48.85 107.5 68.39 -459.2 0 -351.7 -420.1
4.835 -615.5 -312.7 -586.2 -205.2 -683.9 -400.6 -371.3 -156.3 -68.39 185.6 -488.5 -234.5 -420.1 -175.9 -48.85 -78.16 -615.5 -342 -635.6 -390.8
4.84 -898.9 -693.7 -781.6 -605.8 -957.5 -781.6 -801.2 -605.8 -478.7 -283.3 -576.5 -537.4 -596 -439.7 -361.5 -322.4 -889.1 -713.2 -1036 -322.4
4.845 -655.1 -556.9 -547.6 -556.9 -918.4 -801.2 -957.5 -742.6 -655.1 -400.6 -410.4 -459.2 -488.5 -449.4 -469 -342 -693.7 -693.7 -1104 -283.3
4.85 -1133 -635.6 -576.5 -527.6 -1025 -742.6 -1172 -781.6 -908.6 -576.5 -586.2 -508.1 -693.7 -449.4 -801.2 -302.9 -655.1 -605.8 -1172 -263.8
4.855 -820.7 -703.5 -371.3 -537.4 -771.9 -713.2 -1104 -820.7 -879.8 -781.6 -439.7 -517.8 -625.3 -429.9 -820.7 -351.7 -400.6 -586.2 -928.2 9.77
4.86 -742.6 -586.2 -195.4 -293.1 -547.6 -469 -957.5 -625.3 -859.8 -664.4 -449.4 -351.7 -566.7 -263.8 -938 -254 -224.7 -381 -703.5 -9.77
4.865 -556.9 -723 -68.39 -381 -293.1 -556.9 -693.7 -723 -723 -830.5 -332.2 -488.5 -478.7 -381 -908.6 -449.4 -39.08 -400.6 -381 244.3
4.87 -156.3 -449.4 -19.54 -156.3 -156.3 -342 -537.4 -517.8 -801.2 -723 -78.16 -156.3 -449.4 -195.4 -957.5 -449.4 39.08 -9.77 -263.8 -87.93
4.875 -469 -517.8 -29.31 -234.5 -48.85 -420.1 -351.7 -605.8 -810.9 -850 -508.1 -214.9 -332.2 -302.9 -1016 -683.9 9.77 -68.39 -136.8 68.39
4.88 -332.2 -332.2 -146.6 -117.2 -117.2 -273.6 -254 -449.4 -859.8 -830.5 -244.3 -136.8 -459.2 -234.5 -1064 -732.8 -97.7 9.77 -68.39 -48.85
4.885 -9.77 -78.16 -127 39.08 0 -87.93 -48.85 -283.3 -713.2 -713.2 -293.1 -29.31 -195.4 -107.5 -879.8 -723 78.16 146.6 136.8 -48.85
4.89 -29.31 -29.31 -87.93 117.2 117.2 97.7 136.8 -117.2 -556.9 -635.6 -127 -29.31 97.7 -68.39 -615.5 -655.1 224.7 302.9 312.7 9.77
4.895 439.7 273.6 146.6 322.4 302.9 322.4 342 146.6 -302.9 -390.8 234.5 87.93 283.3 78.16 -332.2 -478.7 527.6 508.1 586.2 68.39
4.9 9.77 48.85 195.4 244.3 273.6 302.9 185.6 136.8 -351.7 -390.8 322.4 -78.16 146.6 -19.54 -351.7 -439.7 449.4 381 459.2 127
4.905 -39.08 97.7 371.3 254 322.4 302.9 127 156.3 -332.2 -263.8 351.7 -9.77 185.6 -39.08 -293.1 -371.3 459.2 547.1 312.7 -58.62
4.91 -342 -58.62 68.39 58.62 -9.77 166.1 -224.7 29.31 -586.2 -302.9 -58.62 -127 -166.1 -58.62 -517.8 -293.1 97.7 342 -9.77 -156.3
4.915 -390.8 -146.6 -68.39 -29.31 -107.5 -29.31 -166.1 -19.54 -478.7 -263.8 -48.85 -175.9 -136.8 -127 -381 -136.8 -19.54 185.6 -107.5 -107.5
4.92 -713.2 -234.5 -469 -166.1 -400.6 -39.08 -351.7 48.85 -508.1 -87.93 -498.3 -175.9 -322.4 -127 -478.7 19.54 -410.4 -29.31 -283.3 -214.9
4.925 -556.9 -302.9 -635.6 -322.4 -381 -146.6 -156.3 127 -224.7 127 -390.8 -263.8 -244.3 -117.2 -263.8 254 -478.7 -166.1 -107.5 -97.7
4.93 -987.3 -547.6 -869.6 -429.9 -527.6 -224.7 -146.6 185.6 -19.54 361.5 -605.8 -342 -214.9 -156.3 -136.8 449.4 -664.4 -234.5 -107.5 -136.8
4.935 -1006 -762.1 -987.3 -596 -586.2 -302.9 -117.2 185.6 127 527.6 -508.1 -488.5 -498.3 -195.4 -78.16 664.4 -810.9 -361.5 -78.16 -136.8
4.94 -644.8 -655.1 -683.9 -439.7 -400.6 -322.4 19.54 195.4 293.1 635.1 -273.6 -488.5 -68.39 -244.3 127 713.2 -537.4 -273.6 0 -29.31
4.945 -664.4 -635.6 -566.7 -410.4 -429.9 -381 -117.2 29.31 185.6 566.7 -283.3 -527.6 -381 -263.8 48.85 664.4 -361.5 -234.5 -127 -29.31
4.95 -195.4 -224.7 -224.7 0 -234.5 -97.7 -136.8 117.2 97.7 537.4 -117.2 -263.8 29.31 -136.8 48.85 723 -107.5 29.31 -214.9 -146.6
4.955 19.54 -29.31 -9.77 68.39 -175.9 -58.62 -302.9 -48.85 -39.08 332.2 -29.31 -185.6 0 -87.93 -78.16 596 78.16 0 -322.4 -68.39
4.96 29.31 -107.5 97.7 29.31 -166.1 -78.16 -439.7 -263.8 -322.4 -48.85 -39.08 -175.9 97.7 -156.3 -156.3 361.5 68.39 -175.9 -449.4 107.5
4.965 9.77 -254 146.6 -136.8 -166.1 -107.5 -439.7 -439.7 -439.7 -371.3 293.1 -166.1 175.9 -214.9 -234.5 136.8 68.39 -195.4 -429.9 146.6
4.97 -19.54 -605.8 29.31 -498.3 -205.2 -498.3 -527.6 -898.9 -791.4 -908.6 205.2 -429.9 39.08 -625.3 -420.1 -351.7 -107.5 -508.1 -517.8 381
4.975 0 -517.8 127 -332.2 9.77 -371.3 -283.3 -771.9 -732.8 -918.4 488.5 -302.9 234.5 -508.1 -342 -390.8 0 -244.3 -381 263.8
4.98 -146.6 -361.5 19.54 -156.3 9.77 -214.9 -283.3 -644.8 -898.9 -869.6 195.4 -205.2 87.93 -351.7 -439.7 -439.7 -78.16 -58.62 -371.3 29.31
4.985 -107.5 -97.7 39.08 146.6 175.9 0 -48.85 -439.7 -762.1 -732.8 361.5 9.77 185.6 -263.8 -302.9 -332.2 68.39 254 -224.7 -166.1
4.99 -205.2 195.4 214.9 449.4 332.2 234.5 244.3 -195.4 -537.4 -517.8 527.6 244.3 244.3 0 -39.08 -234.5 351.7 478.7 29.31 -214.9
4.995 -136.8 39.08 273.6 332.2 371.3 156.3 361.5 -244.3 -342 -586.2 429.9 68.39 263.8 -224.7 78.16 -371.3 351.7 302.9 107.5 -19.54
5 195.4 322.4 439.7 517.8 478.7 283.3 517.8 29.31 -58.62 -224.7 605.8 234.5 508.1 -97.7 302.9 -185.6 547.1 439.7 283.3 -39.08
5.005 146.6 117.2 381 332.2 381 195.4 508.1 166.1 156.3 9.77 371.3 87.93 469 -166.1 361.5 -117.2 381 302.9 244.3 -29.31
5.01 283.3 146.6 195.4 312.7 136.8 146.6 293.1 390.8 195.4 371.3 244.3 48.85 342 -146.6 263.8 97.7 127 263.8 234.5 -224.7
5.015 312.7 224.7 107.5 254 39.08 58.62 293.1 547.1 459.2 723 48.85 48.85 107.5 -39.08 283.3 224.7 87.93 68.39 400.6 -48.85
5.02 87.93 87.93 39.08 175.9 9.77 39.08 371.3 732.8 644.8 1045 107.5 -48.85 224.7 -19.54 322.4 410.4 -19.54 -9.77 586.2 19.54
5.025 87.93 -146.6 78.16 -19.54 166.1 -9.77 596 742.6 898.9 1143 214.9 -146.6 214.9 -29.31 469 459.2 39.08 -87.93 879.3 244.3
5.03 -214.9 -390.8 117.2 -175.9 263.8 -68.39 762.1 693.7 1026 1172 175.9 -302.9 439.7 -68.39 605.8 439.7 68.39 -58.62 928.2 263.8
5.035 -283.3 -342 87.93 -87.93 273.6 58.62 723 703.5 908.6 1133 205.2 -244.3 234.5 9.77 527.6 537.4 19.54 117.2 781.6 48.85
5.04 -254 -156.3 136.8 -29.31 283.3 -48.85 586.2 469 723 889.1 58.62 -273.6 478.7 -87.93 527.6 361.5 107.5 78.16 508.1 58.62
5.045 420.1 185.6 263.8 68.39 293.1 -97.7 351.7 302.9 498.3 664.4 146.6 -166.1 361.5 -58.62 469 381 254 185.6 244.3 -78.16
5.05 547.1 342 478.7 156.3 361.5 -136.8 263.8 175.9 371.3 361.5 410.4 -58.62 508.1 -87.93 537.4 263.8 478.7 117.2 175.9 87.93
5.055 713.2 146.6 488.5 -19.54 205.2 -273.6 -19.54 -68.39 175.9 -48.85 -29.31 -195.4 293.1 -214.9 410.4 117.2 420.1 -107.5 -9.77 214.9
5.06 664.4 19.54 390.8 -127 19.54 -302.9 -273.6 -263.8 -107.5 -332.2 263.8 -254 234.5 -234.5 214.9 -48.85 302.9 -400.6 -234.5 293.1
5.065 683.9 78.16 537.4 -58.62 58.62 -214.9 -342 -312.7 -244.3 -478.7 263.8 -185.6 254 -185.6 224.7 -107.5 342 -332.2 -273.6 273.6
5.07 664.4 185.6 615.5 58.62 195.4 -68.39 -332.2 -234.5 -342 -488.5 713.2 -97.7 312.7 -127 175.9 -136.8 371.3 -136.8 -332.2 78.16
5.075 478.7 302.9 830.5 175.9 322.4 -29.31 -234.5 -175.9 -361.5 -498.3 810.9 -97.7 439.7 -97.7 185.6 -166.1 469 58.62 -293.1 19.54
5.08 879.3 566.7 996.6 381 586.2 175.9 136.8 87.93 -68.39 -283.3 1055 19.54 625.3 -29.31 469 -48.85 644.8 381 -19.54 -48.85
5.085 723 556.9 830.5 312.7 527.6 214.9 244.3 214.9 78.16 -117.2 508.1 0 498.3 -39.08 527.6 39.08 566.7 469 156.3 -78.16
5.09 1016 586.2 810.9 322.4 703.5 342 703.5 527.6 527.6 166.1 469 39.08 791.4 78.16 840.3 224.7 644.8 605.8 556.9 -58.62
5.095 1036 488.5 664.4 254 713.2 351.7 977 713.2 889.1 390.8 302.9 9.77 781.6 58.62 1026 381 547.1 547.1 889.1 97.7
5.1 810.9 78.16 693.7 -29.31 801.2 136.8 1202 576.5 1192 302.9 459.2 -205.2 781.6 -87.93 1153 234.5 566.7 263.8 1114 537.4
5.105 947.7 312.7 742.6 224.7 771.9 293.1 1202 869.6 1407 732.8 644.8 -39.08 810.9 78.16 1163 420.1 498.3 469 1094 244.3
5.11 654.6 136.8 801.2 136.8 732.8 146.6 1124 742.6 1417 674.2 547.1 -48.85 703.5 -39.08 1094 283.3 488.5 381 996.6 351.7
5.115 918.4 674.2 898.9 537.4 703.5 478.7 977 1075 1387 1016 752.3 302.9 742.6 263.8 977 517.8 576.5 625.3 908.6 78.16
5.12 771.9 547.1 742.6 283.3 488.5 322.4 644.8 957.5 1114 947.7 693.7 195.4 527.6 175.9 693.7 469 263.8 400.6 605.8 -9.77
5.125 547.1 429.9 488.5 48.85 156.3 185.6 234.5 850 762.1 762.1 302.9 87.93 293.1 68.39 351.7 322.4 29.31 205.2 312.7 -78.16
5.13 508.1 263.8 390.8 -234.5 -19.54 -78.16 -39.08 556.9 400.6 371.3 449.4 -78.16 175.9 -107.5 127 48.85 -127 -29.31 9.77 -58.62
5.135 293.1 117.2 390.8 -234.5 0 -156.3 -117.2 400.6 224.7 224.7 312.7 -87.93 205.2 -146.6 58.62 -205.2 -127 -156.3 -68.39 19.54
5.14 -117.2 371.3 342 78.16 -87.93 -39.08 -273.6 332.2 -97.7 117.2 224.7 127 156.3 -97.7 -29.31 -214.9 -146.6 -48.85 -263.8 -97.7
5.145 127 683.9 527.6 400.6 185.6 175.9 -58.62 429.9 -97.7 97.7 556.9 390.8 400.6 58.62 205.2 -214.9 117.2 127 -136.8 -107.5
5.15 -107.5 703.5 302.9 400.6 -9.77 146.6 -263.8 293.1 -449.4 -87.93 322.4 429.9 381 48.85 0 -254 -68.39 87.93 -449.4 -293.1
5.155 175.9 850 195.4 449.4 -107.5 127 -361.5 175.9 -683.9 -263.8 224.7 429.9 214.9 117.2 -58.62 -293.1 -127 48.85 -576.5 -351.7
5.16 478.7 791.4 322.4 400.6 9.77 87.93 -302.9 78.16 -752.3 -449.4 293.1 390.8 517.8 136.8 29.31 -361.5 -19.54 0 -508.1 -224.7
5.165 332.2 615.5 322.4 185.6 -78.16 -58.62 -400.6 -68.39 -869.6 -605.8 156.3 273.6 400.6 9.77 19.54 -420.1 -78.16 -48.85 -576.5 -224.7
5.17 615.5 683.9 478.7 175.9 48.85 -175.9 -410.4 -214.9 -869.6 -762.1 205.2 195.4 459.2 -29.31 0 -508.1 68.39 -87.93 -547.6 -68.39
5.175 469 596 351.7 156.3 -29.31 -68.39 -459.2 -146.6 -820.7 -605.8 205.2 234.5 312.7 19.54 -58.62 -342 68.39 -87.93 -429.9 9.77
5.18 420.1 654.6 469 351.7 78.16 166.1 -322.4 29.31 -556.9 -439.7 224.7 351.7 420.1 175.9 -19.54 -146.6 263.8 19.54 -254 87.93
5.185 48.85 537.4 302.9 381 -19.54 283.3 -302.9 195.4 -400.6 -166.1 -97.7 410.4 175.9 263.8 -136.8 -19.54 205.2 127 -136.8 29.31
5.19 185.6 517.8 429.9 469 175.9 517.8 19.54 410.4 0 175.9 136.8 469 234.5 410.4 -39.08 136.8 390.8 361.5 136.8 -9.77
5.195 39.08 381 322.4 332.2 254 488.5 214.9 420.1 302.9 302.9 29.31 273.6 293.1 263.8 97.7 78.16 332.2 273.6 332.2 87.93
5.2 127 244.3 214.9 224.7 342 429.9 478.7 478.7 703.5 576.5 185.6 166.1 429.9 195.4 302.9 68.39 273.6 254 517.8 136.8
5.205 58.62 224.7 -48.85 127 175.9 342 508.1 488.5 898.9 791.4 -39.08 58.62 469 97.7 381 97.7 19.54 234.5 498.3 -48.85
5.21 19.54 9.77 -234.5 39.08 146.6 293.1 615.5 400.6 1094 918.4 -29.31 -19.54 527.6 -9.77 527.6 78.16 -117.2 166.1 605.8 -58.62
5.215 -214.9 19.54 -488.5 58.62 -78.16 361.5 410.4 498.3 986.8 1133 -322.4 29.31 322.4 48.85 400.6 273.6 -322.4 254 429.9 -283.3
