    T[sec] Fp1 Fp2 F3  F4  C3  C4  P3  P4  O1  O2  F7  F8  T3  T4  T5  T6  Fz  Cz  Pz  A2 
30 1000 1000 1000 1000 1000 1000 1000 1000 1000 1000 1000 1000 1000 1000 1000 1000 1000 1000 1000 1000
0.625 1055 693.7 371.3 332.2 312.7 615.5 381 322.4 439.7 234.5 136.8 732.8 498.3 381 195.4 302.9 556.9 615.5 351.7 283.3
0.63 1270 566.7 410.4 449.4 400.6 537.4 498.3 400.6 381 840.3 224.7 654.6 439.7 351.7 185.6 351.7 517.8 605.8 459.2 342
0.635 850 488.5 244.3 478.7 244.3 498.3 342 361.5 -78.16 517.8 87.93 556.9 195.4 332.2 9.77 400.6 332.2 439.7 244.3 136.8
0.64 1387 508.1 410.4 547.1 478.7 498.3 547.1 175.9 185.6 -254 371.3 508.1 605.8 234.5 205.2 244.3 517.8 537.4 322.4 166.1
0.645 820.7 674.2 498.3 713.2 537.4 752.3 596 439.7 -9.77 -127 302.9 654.6 537.4 390.8 107.5 224.7 566.7 683.9 508.1 29.31
0.65 1172 723 762.1 508.1 791.4 723 820.7 302.9 97.7 -810.9 615.5 596 850 371.3 312.7 78.16 762.1 859.8 605.8 58.62
0.655 1124 723 801.2 361.5 879.3 625.3 1045 283.3 586.2 -615.5 556.9 390.8 898.9 195.4 547.1 68.39 869.6 762.1 898.9 361.5
0.66 977 781.6 869.6 263.8 889.1 605.8 986.8 459.2 664.4 -205.2 576.5 322.4 869.6 214.9 469 87.93 830.5 742.6 859.8 283.3
0.665 449.4 459.2 674.2 -19.54 683.9 273.6 908.6 459.2 771.9 508.1 107.5 -9.77 586.2 29.31 361.5 195.4 508.1 517.8 938 312.7
0.67 361.5 214.9 146.6 -107.5 205.2 29.31 459.2 283.3 576.5 381 -234.5 -146.6 9.77 -9.77 9.77 234.5 9.77 283.3 449.4 29.31
0.675 -68.39 39.08 58.62 -254 136.8 39.08 537.4 566.7 918.4 1397 -459.2 -185.6 0 0 -58.62 263.8 -97.7 19.54 644.8 127
0.68 -117.2 -146.6 -508.1 -244.3 -371.3 -244.3 0 205.2 449.4 420.1 -771.9 -273.6 -488.5 -48.85 -214.9 195.4 -498.3 -283.3 -29.31 -107.5
0.685 -615.5 -9.77 -293.1 -175.9 -205.2 -97.7 214.9 332.2 723 732.8 -527.6 -205.2 -39.08 9.77 68.39 302.9 -371.3 -175.9 136.8 -58.62
0.69 -586.2 19.54 -596 -136.8 -556.9 -185.6 -185.6 39.08 517.8 87.93 -771.9 -234.5 -146.6 -9.77 -9.77 234.5 -615.5 -234.5 -371.3 -410.4
0.695 -332.2 -9.77 -400.6 -127 -390.8 -214.9 -175.9 -117.2 185.6 -68.39 -469 -342 29.31 -68.39 214.9 224.7 -449.4 -312.7 -469 -273.6
0.7 -439.7 68.39 -488.5 -97.7 -547.6 -263.8 -439.7 -234.5 -156.3 -371.3 -498.3 -439.7 -87.93 -107.5 -39.08 156.3 -449.4 -312.7 -713.2 -410.4
0.705 351.7 0 -371.3 -185.6 -449.4 -166.1 -342 -48.85 78.16 29.31 -322.4 -429.9 29.31 -29.31 78.16 312.7 -302.9 -244.3 -371.3 -293.1
0.71 136.8 19.54 -410.4 -166.1 -517.8 -29.31 -498.3 87.93 -293.1 -58.62 -273.6 -508.1 -146.6 19.54 -205.2 302.9 -400.6 -39.08 -410.4 -498.3
0.715 136.8 -19.54 -185.6 -332.2 -205.2 166.1 9.77 537.4 312.7 683.9 -254 -469 -19.54 234.5 -39.08 566.7 -205.2 127 273.6 -205.2
0.72 146.6 -9.77 -283.3 -214.9 -322.4 234.5 -87.93 635.1 39.08 1006 -410.4 -517.8 -263.8 156.3 -351.7 635.1 -302.9 175.9 283.3 -234.5
0.725 -234.5 58.62 -342 -224.7 -244.3 361.5 -19.54 674.2 87.93 859.8 -586.2 -439.7 -332.2 175.9 -478.7 644.8 -332.2 361.5 234.5 -332.2
0.73 -478.7 107.5 -469 -117.2 -381 361.5 -224.7 654.6 -87.93 840.3 -850 -478.7 -625.3 9.77 -459.2 586.2 -566.7 517.8 -9.77 -635.6
0.735 -351.7 175.9 -273.6 0 -58.62 293.1 -9.77 342 48.85 -97.7 -508.1 -390.8 -263.8 -97.7 -175.9 498.3 -342 459.2 29.31 -390.8
0.74 -9.77 97.7 -68.39 48.85 87.93 205.2 78.16 263.8 273.6 -254 -371.3 -410.4 -136.8 -107.5 9.77 342 -195.4 429.9 156.3 -156.3
0.745 166.1 48.85 156.3 97.7 361.5 214.9 478.7 439.7 703.5 175.9 -68.39 -224.7 175.9 39.08 439.7 185.6 58.62 488.5 693.7 136.8
0.75 -596 -68.39 68.39 127 254 58.62 371.3 420.1 644.8 224.7 29.31 -273.6 107.5 58.62 244.3 166.1 -117.2 527.6 488.5 -9.77
0.755 371.3 9.77 302.9 185.6 488.5 224.7 527.6 586.2 371.3 400.6 254 -68.39 322.4 273.6 332.2 244.3 254 674.2 781.6 214.9
0.76 -312.7 -127 78.16 146.6 175.9 39.08 78.16 332.2 -302.9 -263.8 29.31 -195.4 -166.1 87.93 -48.85 58.62 -68.39 517.8 332.2 58.62
0.765 576.5 254 429.9 429.9 527.6 400.6 371.3 586.2 -185.6 -107.5 469 29.31 68.39 283.3 -48.85 185.6 410.4 938 723 107.5
0.77 508.1 351.7 547.1 439.7 605.8 449.4 400.6 625.3 -293.1 68.39 400.6 -87.93 29.31 205.2 -214.9 146.6 390.8 1006 644.8 -48.85
0.775 420.1 508.1 527.6 547.1 576.5 478.7 527.6 762.1 78.16 410.4 283.3 -97.7 -58.62 234.5 -273.6 68.39 371.3 996.6 801.2 -48.85
0.78 410.4 498.3 596 596 732.8 390.8 850 703.5 820.7 254 508.1 -195.4 244.3 185.6 195.4 48.85 527.6 957.5 928.2 78.16
0.785 390.8 263.8 429.9 381 508.1 58.62 576.5 488.5 175.9 156.3 342 -410.4 39.08 -48.85 -39.08 68.39 175.9 635.1 576.5 58.62
0.79 97.7 39.08 400.6 312.7 371.3 -87.93 488.5 342 625.3 -78.16 508.1 -449.4 107.5 -127 107.5 78.16 19.54 556.9 332.2 -136.8
0.795 459.2 -156.3 488.5 58.62 459.2 -205.2 547.1 214.9 469 58.62 498.3 -527.6 185.6 -195.4 439.7 175.9 234.5 293.1 615.5 351.7
0.8 -156.3 -517.8 175.9 -214.9 136.8 -478.7 136.8 48.85 39.08 -117.2 459.2 -693.7 39.08 -351.7 39.08 48.85 -127 -127 146.6 273.6
0.805 -234.5 -615.5 68.39 -293.1 0 -517.8 19.54 -68.39 -39.08 -205.2 224.7 -742.6 48.85 -342 254 39.08 -87.93 -302.9 136.8 478.7
0.81 -195.4 -547.6 -214.9 -156.3 -175.9 -488.5 -78.16 68.39 205.2 244.3 156.3 -693.7 -146.6 -244.3 293.1 117.2 -273.6 -214.9 -9.77 127
0.815 -48.85 -449.4 -97.7 -107.5 -19.54 -596 29.31 -127 185.6 -29.31 156.3 -655.1 39.08 -234.5 293.1 127 -117.2 -371.3 39.08 381
0.82 -390.8 -381 -351.7 -29.31 -312.7 -664.4 -127 -68.39 449.4 263.8 -205.2 -703.5 -478.7 -263.8 58.62 224.7 -410.4 -361.5 -175.9 68.39
0.825 -175.9 -547.6 -195.4 0 -214.9 -732.8 -78.16 -107.5 166.1 205.2 -29.31 -762.1 -302.9 -283.3 97.7 234.5 -332.2 -517.8 87.93 342
0.83 -381 -635.6 -449.4 19.54 -469 -752.3 -342 -48.85 9.77 351.7 -273.6 -889.1 -625.3 -322.4 -214.9 234.5 -655.1 -527.6 -175.9 -68.39
0.835 117.2 -625.3 -117.2 0 -127 -576.5 0 0 224.7 498.3 68.39 -889.1 -273.6 -322.4 0 205.2 -293.1 -469 322.4 302.9
0.84 -195.4 -498.3 -146.6 29.31 -283.3 -400.6 -175.9 146.6 -29.31 547.1 19.54 -850 -312.7 -195.4 -195.4 29.31 -293.1 -244.3 136.8 58.62
0.845 -293.1 -87.93 146.6 107.5 166.1 -19.54 351.7 371.3 830.5 986.8 19.54 -635.6 -39.08 -107.5 156.3 166.1 29.31 175.9 576.5 -9.77
0.85 -224.7 0 -97.7 -29.31 -127 -107.5 19.54 166.1 283.3 566.7 -195.4 -674.6 -322.4 -185.6 -127 9.77 -87.93 205.2 342 -87.93
0.855 -459.2 371.3 -136.8 166.1 -58.62 214.9 205.2 400.6 615.5 791.4 -254 -371.3 -185.6 -48.85 146.6 136.8 -9.77 517.8 469 -254
0.86 -293.1 234.5 -351.7 48.85 -429.9 -48.85 -302.9 58.62 -254 302.9 -400.6 -381 -498.3 -263.8 -166.1 -39.08 -244.3 195.4 39.08 -263.8
0.865 -293.1 537.4 -547.6 322.4 -625.3 195.4 -439.7 175.9 -293.1 381 -381 -68.39 -517.8 -97.7 -136.8 -48.85 -273.6 429.9 -48.85 -547.6
0.87 -351.7 508.1 -527.6 469 -655.1 283.3 -605.8 185.6 -938 566.7 -293.1 48.85 -586.2 19.54 -644.8 -166.1 -332.2 420.1 -195.4 -655.1
0.875 -332.2 674.2 -332.2 615.5 -478.7 439.7 -508.1 166.1 -830.5 48.85 -224.7 214.9 -469 97.7 -537.4 -146.6 -87.93 586.2 -234.5 -605.8
0.88 -146.6 908.6 78.16 918.4 -58.62 781.6 -244.3 586.2 -752.3 693.7 117.2 332.2 -254 410.4 -810.9 -29.31 273.6 918.4 136.8 -478.7
0.885 185.6 1065 703.5 1036 478.7 850 87.93 312.7 -644.8 -791.4 478.7 410.4 136.8 420.1 -234.5 -68.39 820.7 1133 214.9 -97.7
0.89 439.7 1329 840.3 1387 683.9 1124 293.1 683.9 -166.1 -361.5 654.6 498.3 195.4 566.7 -410.4 -9.77 986.8 1612 351.7 -459.2
0.895 508.1 1241 1016 1417 840.3 967.3 342 439.7 -732.8 -889.1 752.3 390.8 273.6 459.2 -361.5 -117.2 1153 1397 322.4 -156.3
0.9 390.8 1172 967.3 1612 810.9 928.2 449.4 420.1 -478.7 -1055 742.6 302.9 166.1 390.8 -254 -107.5 1182 1260 381 -136.8
0.905 175.9 898.9 703.5 1446 586.2 840.3 371.3 605.8 -576.5 -361.5 586.2 117.2 107.5 322.4 -351.7 -68.39 850 1065 342 -283.3
0.91 48.85 635.1 449.4 1368 332.2 644.8 283.3 674.2 -683.9 459.2 488.5 -87.93 -78.16 234.5 -410.4 195.4 508.1 879.3 293.1 -478.7
0.915 39.08 361.5 244.3 977 195.4 459.2 273.6 547.1 -87.93 429.9 342 -185.6 29.31 156.3 -107.5 361.5 234.5 556.9 185.6 -459.2
0.92 -556.9 -48.85 -156.3 625.3 -78.16 166.1 97.7 469 0 850 175.9 -361.5 0 -19.54 -68.39 537.4 -156.3 185.6 29.31 -449.4
0.925 -283.3 -244.3 -185.6 390.8 -146.6 0 58.62 254 508.1 742.6 68.39 -293.1 58.62 -78.16 146.6 596 -263.8 -107.5 78.16 -234.5
0.93 -771.9 -459.2 -273.6 185.6 -293.1 -263.8 -87.93 29.31 615.5 810.9 -39.08 -244.3 -87.93 -58.62 68.39 527.6 -459.2 -312.7 -87.93 -293.1
0.935 -449.4 -469 -214.9 263.8 -312.7 -420.1 -244.3 -175.9 439.7 459.2 48.85 -127 -97.7 -136.8 29.31 400.6 -342 -537.4 -127 -87.93
0.94 0 -508.1 48.85 254 -244.3 -478.7 -156.3 -97.7 449.4 1065 185.6 -19.54 -205.2 -48.85 -48.85 322.4 -166.1 -615.5 127 87.93
0.945 9.77 -517.8 127 293.1 -136.8 -410.4 -48.85 -146.6 342 576.5 273.6 9.77 -78.16 -29.31 -9.77 195.4 58.62 -576.5 214.9 263.8
0.95 146.6 -517.8 439.7 214.9 117.2 -478.7 205.2 -205.2 547.1 234.5 351.7 -195.4 -107.5 -224.7 127 48.85 332.2 -400.6 498.3 459.2
0.955 127 -449.4 322.4 244.3 136.8 -381 195.4 -87.93 332.2 244.3 195.4 -273.6 -166.1 -244.3 117.2 -19.54 293.1 -293.1 429.9 420.1
0.96 -312.7 -439.7 283.3 87.93 214.9 -273.6 283.3 -107.5 420.1 175.9 117.2 -439.7 -224.7 -322.4 107.5 -420.1 273.6 -214.9 410.4 469
0.965 -302.9 -400.6 -19.54 97.7 0 -175.9 0 -146.6 9.77 -254 -195.4 -517.8 -293.1 -381 107.5 -469 -68.39 -146.6 -58.62 39.08
0.97 -459.2 -410.4 -58.62 19.54 -68.39 -214.9 -156.3 -224.7 -342 -390.8 -156.3 -655.1 -224.7 -410.4 195.4 -537.4 -78.16 -87.93 -263.8 -78.16
0.975 -537.4 -527.6 -283.3 -39.08 -263.8 -224.7 -302.9 -381 -127 -791.4 -508.1 -810.9 -263.8 -615.5 224.7 -586.2 -273.6 -214.9 -459.2 -127
0.98 -420.1 -615.5 -263.8 -78.16 -342 -410.4 -390.8 -644.8 -351.7 -1514 -351.7 -889.1 -224.7 -723 224.7 -488.5 -58.62 -273.6 -488.5 9.77
0.985 -605.8 -547.6 -283.3 -117.2 -381 -254 -420.1 -371.3 -332.2 -635.6 -439.7 -771.9 -273.6 -674.6 117.2 -342 -127 -136.8 -254 48.85
0.99 -537.4 -459.2 -293.1 -205.2 -361.5 -224.7 -361.5 -390.8 -283.3 -801.2 -175.9 -537.4 -195.4 -537.4 -29.31 -410.4 -78.16 48.85 -146.6 -19.54
0.995 -410.4 -185.6 -48.85 9.77 -205.2 -78.16 -342 -254 -322.4 -322.4 -146.6 -234.5 -224.7 -371.3 -127 -410.4 58.62 166.1 97.7 0
1 -332.2 166.1 283.3 166.1 234.5 39.08 29.31 -166.1 -185.6 -224.7 342 29.31 166.1 -244.3 19.54 -439.7 429.9 342 332.2 117.2
1.005 302.9 576.5 752.3 478.7 693.7 342 429.9 107.5 224.7 293.1 449.4 322.4 371.3 -29.31 156.3 -342 703.5 625.3 586.2 58.62
1.01 576.5 703.5 840.3 771.9 810.9 361.5 576.5 117.2 244.3 254 654.6 390.8 498.3 58.62 166.1 -214.9 840.3 703.5 566.7 19.54
1.015 644.8 840.3 1075 791.4 1124 625.3 830.5 420.1 322.4 488.5 840.3 615.5 840.3 322.4 302.9 -68.39 898.9 674.2 674.2 78.16
1.02 537.4 547.1 801.2 615.5 820.7 469 508.1 273.6 -87.93 224.7 605.8 469 576.5 283.3 19.54 -127 596 429.9 361.5 9.77
1.025 449.4 488.5 791.4 644.8 742.6 586.2 429.9 508.1 -175.9 556.9 644.8 498.3 596 459.2 127 19.54 605.8 429.9 410.4 58.62
1.03 39.08 459.2 605.8 508.1 498.3 693.7 254 683.9 -205.2 928.2 400.6 410.4 547.1 459.2 58.62 68.39 469 508.1 351.7 -48.85
1.035 127 508.1 644.8 381 371.3 810.9 214.9 752.3 146.6 1114 371.3 410.4 439.7 527.6 342 322.4 556.9 576.5 449.4 -48.85
1.04 283.3 576.5 703.5 410.4 420.1 752.3 293.1 654.6 351.7 1085 390.8 283.3 586.2 351.7 449.4 185.6 723 527.6 537.4 224.7
1.045 263.8 508.1 781.6 273.6 420.1 488.5 302.9 254 459.2 302.9 293.1 78.16 586.2 117.2 478.7 68.39 732.8 381 410.4 283.3
1.05 439.7 361.5 771.9 195.4 400.6 322.4 322.4 117.2 254 127 214.9 -48.85 488.5 19.54 293.1 -68.39 713.2 361.5 459.2 342
1.055 214.9 283.3 791.4 195.4 381 68.39 195.4 -263.8 -87.93 -947.7 175.9 -214.9 390.8 -205.2 293.1 -127 537.4 166.1 146.6 332.2
1.06 205.2 -48.85 605.8 -29.31 322.4 -146.6 136.8 -390.8 -244.3 -850 244.3 -469 342 -342 117.2 -185.6 410.4 -58.62 166.1 508.1
1.065 19.54 -68.39 625.3 78.16 390.8 -78.16 254 -195.4 68.39 -498.3 390.8 -312.7 439.7 -224.7 381 -107.5 381 87.93 273.6 342
1.07 39.08 -117.2 478.7 68.39 283.3 -87.93 244.3 -78.16 195.4 175.9 508.1 -381 459.2 -234.5 283.3 -195.4 293.1 166.1 293.1 205.2
1.075 234.5 19.54 654.6 97.7 410.4 -127 224.7 -234.5 283.3 -312.7 410.4 -234.5 498.3 -195.4 332.2 -283.3 429.9 166.1 185.6 214.9
1.08 -400.6 254 488.5 244.3 117.2 19.54 -29.31 -58.62 -48.85 214.9 371.3 -146.6 322.4 -9.77 127 -322.4 302.9 234.5 -29.31 -87.93
1.085 87.93 302.9 517.8 244.3 58.62 -107.5 -166.1 -342 -205.2 -449.4 273.6 -146.6 302.9 -58.62 78.16 -400.6 371.3 58.62 -195.4 97.7
1.09 -68.39 322.4 234.5 273.6 -166.1 -97.7 -312.7 -400.6 -78.16 -449.4 107.5 -97.7 78.16 19.54 87.93 -322.4 136.8 185.6 -390.8 -234.5
1.095 175.9 234.5 117.2 254 -127 -58.62 -195.4 -195.4 -195.4 400.6 48.85 -68.39 97.7 58.62 127 -146.6 185.6 127 -78.16 68.39
1.1 342 97.7 -58.62 254 -127 -156.3 -107.5 -293.1 351.7 -136.8 -68.39 -136.8 48.85 -58.62 39.08 -117.2 -19.54 39.08 -214.9 -48.85
1.105 9.77 -136.8 -322.4 87.93 -342 -381 -332.2 -420.1 -156.3 0 -429.9 -244.3 -224.7 -244.3 -9.77 -48.85 -234.5 -146.6 -283.3 0
1.11 -293.1 -263.8 -693.7 39.08 -596 -498.3 -723 -439.7 -801.2 166.1 -683.9 -459.2 -556.9 -351.7 -488.5 -127 -498.3 -390.8 -556.9 -107.5
1.115 -517.8 -459.2 -908.6 -175.9 -850 -781.6 -977.5 -1036 -1006 -1612 -908.6 -625.3 -771.9 -517.8 -547.6 -312.7 -732.8 -762.1 -1104 -48.85
1.12 -410.4 -420.1 -791.4 -263.8 -723 -644.8 -879.8 -752.3 -1172 -781.6 -752.3 -556.9 -713.2 -342 -390.8 -234.5 -547.6 -791.4 -840.3 195.4
1.125 -400.6 -390.8 -840.3 -302.9 -683.9 -469 -791.4 -615.5 -1006 -840.3 -771.9 -517.8 -556.9 -214.9 -420.1 -146.6 -596 -605.8 -781.6 68.39
1.13 -97.7 -254 -400.6 -254 -175.9 -136.8 -175.9 -205.2 -166.1 -9.77 -322.4 -390.8 -146.6 -9.77 9.77 -19.54 -185.6 -302.9 19.54 342
1.135 -351.7 -19.54 -312.7 -127 0 195.4 146.6 195.4 293.1 605.8 -283.3 -214.9 97.7 185.6 146.6 78.16 -214.9 87.93 322.4 39.08
1.14 -390.8 68.39 -263.8 117.2 107.5 361.5 185.6 302.9 410.4 615.5 -78.16 -244.3 -29.31 175.9 195.4 19.54 -107.5 283.3 332.2 -48.85
1.145 -273.6 -29.31 -205.2 19.54 166.1 302.9 195.4 156.3 371.3 107.5 -58.62 -214.9 166.1 156.3 195.4 -166.1 -254 254 244.3 -68.39
1.15 -498.3 -58.62 -185.6 -224.7 127 195.4 78.16 39.08 -58.62 -117.2 -58.62 -332.2 107.5 87.93 156.3 -185.6 -332.2 195.4 9.77 -146.6
1.155 -488.5 -263.8 -195.4 -469 39.08 -39.08 -87.93 -283.3 -29.31 -723 -39.08 -244.3 146.6 48.85 19.54 -322.4 -381 -39.08 -175.9 19.54
1.16 -68.39 -410.4 39.08 -791.4 224.7 -293.1 78.16 -381 -97.7 -322.4 146.6 -390.8 342 58.62 195.4 -254 -146.6 -361.5 68.39 469
1.165 224.7 -293.1 342 -732.8 449.4 -263.8 293.1 -351.7 615.5 -127 342 -195.4 469 -19.54 420.1 -29.31 146.6 -322.4 263.8 547.1
1.17 -312.7 -312.7 322.4 -615.5 381 -371.3 293.1 -449.4 596 -107.5 361.5 -263.8 420.1 9.77 459.2 9.77 224.7 -361.5 244.3 596
1.175 195.4 -195.4 390.8 -478.7 371.3 -322.4 224.7 -312.7 683.9 342 283.3 -127 390.8 -58.62 342 156.3 342 -381 214.9 576.5
1.18 -117.2 -127 214.9 -537.4 175.9 -381 -68.39 -449.4 273.6 -224.7 19.54 -205.2 263.8 -107.5 166.1 136.8 146.6 -449.4 -136.8 439.7
1.185 -185.6 -293.1 -127 -762.1 -224.7 -508.1 -508.1 -615.5 -205.2 -420.1 -273.6 -273.6 -87.93 -175.9 -107.5 -58.62 -224.7 -635.6 -459.2 293.1
1.19 -214.9 -420.1 -429.9 -840.3 -586.2 -683.9 -967.8 -830.5 -1085 -918.4 -371.3 -381 -283.3 -263.8 -429.9 -224.7 -625.3 -752.3 -1045 -127
1.195 -214.9 -566.7 -605.8 -1064 -674.6 -655.1 -987.3 -615.5 -1085 -254 -390.8 -459.2 -322.4 -283.3 -283.3 -254 -859.8 -830.5 -898.9 -214.9
1.2 -762.1 -723 -898.9 -1153 -967.8 -771.9 -1211 -869.6 -1387 -928.2 -420.1 -527.6 -381 -410.4 -390.8 -449.4 -1094 -938 -1250 -381
1.205 -342 -615.5 -683.9 -1104 -644.8 -527.6 -723 -547.6 -723 -166.1 -117.2 -449.4 -97.7 -302.9 -156.3 -390.8 -752.3 -732.8 -683.9 -136.8
1.21 -214.9 -527.6 -664.4 -1104 -625.3 -644.8 -655.1 -713.2 -723 -820.7 -175.9 -390.8 -283.3 -381 -195.4 -576.5 -556.9 -576.5 -683.9 -78.16
1.215 175.9 -136.8 -146.6 -967.8 -78.16 -322.4 0 -332.2 58.62 -19.54 107.5 -166.1 0 -136.8 185.6 -449.4 9.77 -205.2 -29.31 136.8
1.22 566.7 -48.85 87.93 -908.6 -39.08 -381 0 -351.7 -136.8 -87.93 185.6 -127 -78.16 -136.8 146.6 -556.9 214.9 -322.4 -48.85 361.5
1.225 146.6 0 166.1 -830.5 0 -293.1 175.9 -244.3 175.9 29.31 185.6 0 -39.08 -78.16 9.77 -381 185.6 -293.1 214.9 293.1
1.23 146.6 -166.1 -78.16 -742.6 -332.2 -439.7 -195.4 -351.7 -244.3 -234.5 -58.62 48.85 -156.3 -29.31 -97.7 -351.7 -87.93 -420.1 -39.08 136.8
1.235 78.16 -429.9 -342 -801.2 -439.7 -478.7 -224.7 -586.2 29.31 -820.7 -117.2 -19.54 -234.5 -175.9 -312.7 -263.8 -332.2 -674.6 -68.39 214.9
1.24 166.1 -664.4 -429.9 -830.5 -527.6 -439.7 -332.2 -537.4 -263.8 -791.4 -312.7 -19.54 -351.7 -136.8 -361.5 -87.93 -390.8 -693.7 -29.31 283.3
1.245 342 -566.7 -273.6 -703.5 -195.4 -117.2 -19.54 -205.2 234.5 -234.5 -78.16 107.5 -166.1 19.54 -78.16 29.31 -156.3 -420.1 312.7 371.3
1.25 244.3 -625.3 -332.2 -693.7 -254 -78.16 -127 -224.7 -136.8 -469 -234.5 29.31 -273.6 19.54 -224.7 9.77 -234.5 -312.7 87.93 224.7
1.255 9.77 -469 29.31 -703.5 214.9 78.16 488.5 87.93 371.3 214.9 58.62 39.08 166.1 58.62 175.9 78.16 107.5 -58.62 459.2 449.4
1.26 -39.08 -547.6 -29.31 -752.3 195.4 -107.5 527.6 -58.62 400.6 175.9 58.62 -214.9 146.6 -205.2 351.7 -107.5 29.31 -156.3 312.7 469
1.265 -156.3 -655.1 -175.9 -752.3 87.93 -342 332.2 -371.3 39.08 -400.6 39.08 -410.4 185.6 -371.3 420.1 -185.6 -185.6 -195.4 -58.62 283.3
1.27 -117.2 -693.7 -156.3 -801.2 166.1 -371.3 400.6 -351.7 244.3 -342 175.9 -498.3 244.3 -449.4 566.7 -263.8 -283.3 -19.54 -48.85 117.2
1.275 156.3 -713.2 -342 -713.2 29.31 -312.7 195.4 -283.3 87.93 29.31 146.6 -527.6 146.6 -400.6 381 -371.3 -449.4 19.54 -195.4 -146.6
1.28 439.7 -537.4 -68.39 -625.3 185.6 -78.16 342 -58.62 556.9 58.62 244.3 -351.7 48.85 -9.77 400.6 -420.1 -185.6 58.62 117.2 29.31
1.285 654.6 -429.9 195.4 -586.2 332.2 97.7 371.3 146.6 566.7 371.3 293.1 -185.6 78.16 -87.93 381 -351.7 9.77 68.39 312.7 224.7
1.29 644.8 -342 371.3 -459.2 429.9 214.9 439.7 185.6 693.7 332.2 332.2 -29.31 107.5 156.3 449.4 -273.6 293.1 117.2 498.3 400.6
1.295 683.9 -371.3 224.7 -488.5 136.8 -9.77 -68.39 -205.2 -175.9 -742.6 136.8 117.2 -58.62 0 58.62 -146.6 146.6 -205.2 -127 390.8
1.3 537.4 -166.1 224.7 -224.7 195.4 127 87.93 68.39 234.5 254 224.7 185.6 166.1 185.6 -9.77 166.1 302.9 -146.6 175.9 439.7
1.305 127 -175.9 -166.1 -273.6 -195.4 -39.08 -371.3 -195.4 -635.6 -615.5 39.08 136.8 58.62 156.3 -205.2 117.2 9.77 -283.3 -371.3 234.5
1.31 322.4 -136.8 -214.9 -214.9 -263.8 -127 -283.3 -185.6 -488.5 -478.7 78.16 -39.08 -19.54 107.5 -342 107.5 -68.39 -283.3 -361.5 87.93
1.315 87.93 -68.39 -439.7 -195.4 -381 -58.62 -322.4 -107.5 -762.1 -410.4 -107.5 -195.4 -58.62 29.31 -39.08 107.5 -224.7 -146.6 -420.1 -107.5
1.32 498.3 19.54 -68.39 -87.93 -107.5 -97.7 29.31 -273.6 -410.4 -859.8 117.2 -342 146.6 -214.9 78.16 -68.39 19.54 -68.39 -302.9 -87.93
1.325 -127 195.4 78.16 58.62 78.16 0 234.5 -185.6 166.1 -478.7 156.3 -351.7 254 -263.8 156.3 -97.7 136.8 48.85 -117.2 -205.2
1.33 625.3 351.7 420.1 273.6 429.9 68.39 488.5 -185.6 234.5 -214.9 312.7 -381 439.7 -322.4 361.5 -263.8 537.4 205.2 78.16 -97.7
1.335 351.7 625.3 478.7 576.5 498.3 322.4 586.2 78.16 420.1 332.2 429.9 -48.85 429.9 -58.62 263.8 -166.1 654.6 351.7 224.7 -175.9
1.34 625.3 566.7 410.4 762.1 469 312.7 429.9 58.62 -117.2 576.5 381 -9.77 361.5 39.08 156.3 -302.9 810.9 185.6 205.2 117.2
1.345 996.6 547.1 410.4 752.3 410.4 420.1 420.1 58.62 -87.93 87.93 381 205.2 273.6 244.3 175.9 -400.6 771.9 175.9 146.6 117.2
1.35 781.6 459.2 78.16 713.2 175.9 410.4 214.9 127 -205.2 9.77 175.9 234.5 156.3 342 9.77 -361.5 605.8 156.3 -87.93 0
1.355 576.5 332.2 185.6 400.6 146.6 322.4 205.2 48.85 58.62 -459.2 19.54 175.9 107.5 342 19.54 -205.2 566.7 58.62 -58.62 97.7
1.36 400.6 175.9 87.93 136.8 48.85 224.7 117.2 9.77 -195.4 -703.5 -39.08 58.62 19.54 381 -175.9 -97.7 449.4 -78.16 -29.31 244.3
1.365 195.4 48.85 78.16 -117.2 58.62 273.6 283.3 302.9 117.2 0 0 -68.39 29.31 381 -9.77 244.3 439.7 -68.39 390.8 332.2
1.37 -205.2 -205.2 -351.7 -322.4 -410.4 39.08 -175.9 214.9 -576.5 117.2 -214.9 -273.6 -293.1 244.3 -361.5 263.8 -9.77 -185.6 166.1 97.7
1.375 -205.2 -371.3 -371.3 -390.8 -185.6 -39.08 166.1 244.3 -9.77 224.7 39.08 -322.4 -39.08 214.9 -146.6 263.8 -39.08 -293.1 312.7 302.9
1.38 -224.7 -488.5 -586.2 -381 -283.3 -195.4 136.8 322.4 244.3 732.8 -166.1 -439.7 -146.6 68.39 19.54 244.3 -87.93 -371.3 420.1 371.3
1.385 -410.4 -449.4 -674.6 -205.2 -302.9 -146.6 58.62 302.9 293.1 605.8 -97.7 -371.3 -19.54 -9.77 0 146.6 -361.5 -332.2 87.93 97.7
1.39 -625.3 -390.8 -703.5 -136.8 -283.3 -166.1 -9.77 224.7 410.4 566.7 -234.5 -469 19.54 -136.8 -19.54 87.93 -469 -205.2 -185.6 -254
1.395 -908.6 -361.5 -771.9 -117.2 -478.7 -263.8 -459.2 -58.62 -342 -29.31 -312.7 -508.1 -166.1 -332.2 -107.5 48.85 -586.2 -302.9 -596 -400.6
1.4 -801.2 -244.3 -655.1 -58.62 -420.1 -263.8 -439.7 -224.7 -205.2 -615.5 -263.8 -449.4 -117.2 -332.2 -185.6 9.77 -478.7 -273.6 -723 -390.8
1.405 -625.3 -293.1 -400.6 -351.7 -224.7 -371.3 -302.9 -449.4 -136.8 -1114 -39.08 -410.4 48.85 -332.2 87.93 -39.08 -224.7 -449.4 -547.6 68.39
1.41 -566.7 -107.5 -273.6 -302.9 -136.8 -205.2 -68.39 -136.8 791.4 -136.8 -87.93 -166.1 19.54 -39.08 312.7 -39.08 19.54 -175.9 -117.2 107.5
1.415 -801.2 -117.2 312.7 -537.4 312.7 -332.2 302.9 -361.5 771.9 -439.7 342 -9.77 381 117.2 683.9 -146.6 508.1 -263.8 87.93 586.2
1.42 -136.8 68.39 127 -420.1 -58.62 -224.7 -97.7 -146.6 322.4 371.3 -107.5 234.5 19.54 283.3 390.8 0 381 -185.6 -58.62 302.9
1.425 -302.9 39.08 234.5 -381 29.31 -322.4 -58.62 -342 166.1 -48.85 68.39 312.7 146.6 283.3 517.8 0 596 -273.6 0 547.1
1.43 185.6 156.3 -9.77 -234.5 -244.3 -214.9 -459.2 -185.6 -420.1 78.16 -68.39 351.7 -97.7 283.3 -29.31 244.3 351.7 -107.5 -273.6 78.16
1.435 322.4 254 -87.93 -87.93 -273.6 -9.77 -517.8 -68.39 -723 48.85 -48.85 351.7 -127 195.4 -244.3 302.9 185.6 -58.62 -371.3 -136.8
1.44 283.3 351.7 312.7 29.31 97.7 205.2 -117.2 234.5 -205.2 498.3 351.7 322.4 117.2 214.9 -146.6 332.2 488.5 78.16 58.62 0
1.445 0 498.3 400.6 195.4 214.9 420.1 -19.54 410.4 -195.4 498.3 429.9 244.3 166.1 97.7 -39.08 312.7 420.1 273.6 48.85 -136.8
1.45 117.2 390.8 332.2 224.7 48.85 302.9 -263.8 234.5 -742.6 39.08 439.7 185.6 29.31 -48.85 -214.9 195.4 361.5 420.1 -117.2 -342
1.455 410.4 478.7 576.5 322.4 449.4 420.1 97.7 332.2 -78.16 107.5 556.9 224.7 214.9 9.77 9.77 214.9 537.4 508.1 185.6 -107.5
1.46 302.9 332.2 429.9 205.2 342 195.4 -9.77 205.2 -146.6 -156.3 429.9 127 254 -127 9.77 -9.77 508.1 351.7 175.9 -29.31
1.465 312.7 498.3 537.4 312.7 371.3 166.1 185.6 234.5 371.3 -254 400.6 390.8 273.6 87.93 146.6 97.7 615.5 283.3 351.7 127
1.47 254 459.2 547.1 322.4 361.5 68.39 127 293.1 127 332.2 361.5 410.4 195.4 156.3 29.31 -117.2 556.9 254 449.4 39.08
1.475 576.5 429.9 547.1 302.9 410.4 -87.93 263.8 78.16 371.3 -185.6 390.8 498.3 263.8 195.4 263.8 -224.7 527.6 -9.77 371.3 205.2
1.48 351.7 195.4 478.7 244.3 488.5 -205.2 283.3 -68.39 273.6 -498.3 410.4 390.8 146.6 107.5 342 -263.8 517.8 0 400.6 263.8
1.485 361.5 195.4 410.4 263.8 508.1 -146.6 234.5 -127 87.93 -478.7 459.2 410.4 332.2 214.9 156.3 -263.8 283.3 58.62 127 127
1.49 -244.3 -29.31 342 97.7 420.1 -244.3 146.6 -263.8 410.4 -771.9 351.7 283.3 254 58.62 410.4 -224.7 195.4 78.16 58.62 107.5
1.495 -9.77 -117.2 381 68.39 371.3 -175.9 97.7 -175.9 254 -283.3 420.1 254 449.4 117.2 429.9 -39.08 97.7 19.54 -68.39 117.2
1.5 -517.8 -342 166.1 -87.93 156.3 -293.1 -78.16 -302.9 469 -254 342 39.08 469 -9.77 429.9 -9.77 -39.08 -273.6 -127 273.6
1.505 -214.9 -420.1 58.62 -166.1 58.62 -263.8 -87.93 -68.39 312.7 586.2 302.9 19.54 410.4 19.54 429.9 273.6 -146.6 -576.5 68.39 390.8
1.51 -625.3 -635.6 -361.5 -254 -342 -429.9 -390.8 -293.1 68.39 107.5 -78.16 -58.62 136.8 -48.85 195.4 332.2 -556.9 -703.5 -293.1 78.16
1.515 -781.6 -596 -478.7 -254 -381 -400.6 -361.5 -107.5 361.5 283.3 -293.1 -117.2 -19.54 -293.1 254 322.4 -615.5 -674.6 -234.5 0
1.52 -840.3 -459.2 -586.2 -185.6 -488.5 -234.5 -459.2 195.4 371.3 938 -596 -156.3 -234.5 -214.9 117.2 410.4 -664.4 -429.9 -293.1 -224.7
1.525 -781.6 -478.7 -576.5 -254 -605.8 -469 -615.5 -214.9 87.93 -498.3 -801.2 -332.2 -469 -596 117.2 58.62 -810.9 -449.4 -644.8 -244.3
1.53 -674.6 -332.2 -586.2 -29.31 -566.7 -283.3 -635.6 156.3 78.16 693.7 -820.7 -156.3 -576.5 -361.5 -107.5 -9.77 -683.9 -205.2 -469 -381
1.535 -1006 -527.6 -713.2 -254 -801.2 -566.7 -1064 -361.5 -840.3 -576.5 -996.6 -273.6 -752.3 -410.4 -576.5 -224.7 -967.8 -556.9 -1045 -361.5
1.54 -791.4 -605.8 -996.6 -166.1 -1055 -674.6 -1260 -537.4 -928.2 -596 -1094 -68.39 -938 -410.4 -635.6 -234.5 -1075 -674.6 -1075 -361.5
1.545 -1006 -655.1 -830.5 -117.2 -840.3 -547.6 -1016 -517.8 -703.5 -683.9 -938 146.6 -713.2 -244.3 -566.7 -254 -889.1 -635.6 -840.3 -127
1.55 -1553 -498.3 -1045 19.54 -908.6 -224.7 -977.5 -283.3 -517.8 -449.4 -996.6 478.7 -791.4 -107.5 -586.2 -127 -947.7 -234.5 -703.5 -469
1.555 -723 -254 -683.9 146.6 -478.7 87.93 -469 -19.54 -58.62 -293.1 -635.6 703.5 -410.4 68.39 -410.4 -9.77 -556.9 29.31 -195.4 -234.5
1.56 -537.4 107.5 -332.2 351.7 -48.85 469 -9.77 469 332.2 556.9 -351.7 820.7 -58.62 293.1 -429.9 -127 -127 312.7 342 -9.77
1.565 -312.7 342 -439.7 498.3 -254 556.9 -332.2 449.4 -254 166.1 -498.3 781.6 -342 312.7 -850 -39.08 -205.2 351.7 -39.08 -263.8
1.57 -166.1 488.5 0 566.7 58.62 508.1 -29.31 429.9 234.5 48.85 -87.93 683.9 -87.93 293.1 -449.4 -58.62 107.5 439.7 117.2 -166.1
1.575 283.3 508.1 -127 537.4 -117.2 302.9 -371.3 205.2 -254 -19.54 -205.2 469 -322.4 175.9 -664.4 -9.77 9.77 185.6 -351.7 -332.2
1.58 -234.5 351.7 -234.5 488.5 -254 -29.31 -576.5 -87.93 -205.2 -498.3 -332.2 302.9 -478.7 -78.16 -508.1 9.77 -136.8 -87.93 -586.2 -390.8
1.585 342 205.2 -234.5 459.2 -146.6 -175.9 -371.3 -48.85 19.54 185.6 -361.5 254 -517.8 -205.2 -371.3 48.85 -185.6 -293.1 -429.9 -302.9
1.59 302.9 78.16 -527.6 625.3 -312.7 -293.1 -517.8 -127 -351.7 87.93 -400.6 283.3 -625.3 -263.8 -576.5 -78.16 -449.4 -439.7 -635.6 -459.2
1.595 -87.93 -48.85 -664.4 566.7 -420.1 -273.6 -644.8 -117.2 -801.2 -117.2 -547.6 381 -703.5 -146.6 -596 -175.9 -605.8 -635.6 -801.2 -439.7
1.6 -39.08 -146.6 -732.8 469 -429.9 -293.1 -596 -214.9 -791.4 -361.5 -371.3 293.1 -556.9 -185.6 -478.7 -410.4 -635.6 -762.1 -801.2 -254
1.605 -234.5 -166.1 -478.7 488.5 -342 -156.3 -449.4 -254 -517.8 -703.5 -166.1 351.7 -263.8 -107.5 -234.5 -488.5 -381 -781.6 -723 -9.77
1.61 -48.85 -283.3 -478.7 244.3 -439.7 -205.2 -459.2 -439.7 -527.6 -830.5 -58.62 156.3 -78.16 -234.5 -117.2 -566.7 -361.5 -723 -586.2 9.77
1.615 234.5 -29.31 -87.93 488.5 -68.39 175.9 117.2 127 459.2 420.1 254 312.7 283.3 -39.08 302.9 -263.8 58.62 -410.4 136.8 214.9
1.62 9.77 68.39 -185.6 635.1 -205.2 312.7 -58.62 400.6 283.3 1036 117.2 410.4 224.7 127 39.08 -68.39 -48.85 -263.8 166.1 0
1.625 214.9 29.31 -185.6 644.8 -224.7 146.6 -146.6 166.1 205.2 254 58.62 371.3 175.9 48.85 175.9 -29.31 -87.93 -312.7 39.08 9.77
1.63 508.1 214.9 -58.62 576.5 -58.62 175.9 166.1 68.39 39.08 -302.9 -156.3 175.9 -166.1 97.7 78.16 156.3 107.5 78.16 29.31 -87.93
1.635 488.5 244.3 -117.2 615.5 -48.85 302.9 244.3 351.7 -117.2 390.8 -273.6 244.3 -332.2 214.9 39.08 273.6 117.2 107.5 224.7 29.31
1.64 537.4 244.3 -68.39 469 68.39 205.2 449.4 283.3 410.4 -87.93 -224.7 97.7 -420.1 117.2 97.7 68.39 195.4 244.3 547.1 136.8
1.645 713.2 351.7 117.2 508.1 214.9 312.7 605.8 556.9 478.7 781.6 -97.7 107.5 -429.9 371.3 234.5 185.6 234.5 342 723 146.6
1.65 713.2 390.8 224.7 517.8 254 205.2 752.3 302.9 1192 39.08 -87.93 117.2 -302.9 39.08 420.1 68.39 371.3 254 752.3 205.2
1.655 459.2 273.6 185.6 293.1 9.77 39.08 351.7 117.2 244.3 146.6 -400.6 78.16 -537.4 68.39 -78.16 19.54 205.2 29.31 439.7 224.7
1.66 127 283.3 166.1 410.4 -117.2 146.6 312.7 283.3 508.1 527.6 -527.6 263.8 -517.8 29.31 107.5 87.93 156.3 146.6 498.3 -9.77
1.665 -195.4 107.5 -97.7 234.5 -342 48.85 39.08 195.4 -146.6 556.9 -879.8 244.3 -674.6 9.77 -449.4 -29.31 -175.9 -107.5 166.1 -87.93
1.67 -683.9 48.85 -224.7 263.8 -302.9 117.2 78.16 273.6 107.5 410.4 -918.4 293.1 -635.6 166.1 -117.2 87.93 -175.9 -146.6 293.1 -29.31
1.675 -478.7 87.93 -312.7 342 -156.3 302.9 146.6 586.2 -58.62 1153 -644.8 439.7 -478.7 390.8 -185.6 244.3 -195.4 -97.7 371.3 -48.85
1.68 -635.6 214.9 -508.1 459.2 -273.6 332.2 -146.6 293.1 -586.2 -136.8 -625.3 449.4 -498.3 400.6 -400.6 293.1 -469 156.3 -185.6 -586.2
1.685 -498.3 390.8 -136.8 449.4 117.2 420.1 127 459.2 -429.9 254 -78.16 508.1 -29.31 508.1 -29.31 469 -273.6 381 -87.93 -596
1.69 205.2 390.8 -48.85 556.9 195.4 342 68.39 332.2 -752.3 -97.7 273.6 459.2 224.7 449.4 -381 439.7 -273.6 429.9 -107.5 -674.6
1.695 234.5 175.9 19.54 293.1 214.9 156.3 195.4 273.6 -351.7 78.16 429.9 302.9 381 283.3 -39.08 459.2 -332.2 224.7 -9.77 -498.3
1.7 156.3 175.9 29.31 195.4 185.6 263.8 234.5 429.9 -29.31 332.2 586.2 342 459.2 332.2 -136.8 586.2 -283.3 351.7 136.8 -625.3
1.705 -263.8 156.3 -117.2 39.08 58.62 293.1 146.6 576.5 19.54 762.1 517.8 312.7 361.5 302.9 48.85 469 -361.5 156.3 136.8 -576.5
1.71 0 136.8 -156.3 -136.8 -19.54 263.8 9.77 429.9 9.77 371.3 429.9 361.5 322.4 254 127 361.5 -234.5 87.93 87.93 -439.7
1.715 -566.7 283.3 -117.2 -156.3 -87.93 351.7 -205.2 537.4 -322.4 713.2 224.7 459.2 78.16 283.3 -19.54 381 -342 146.6 -146.6 -605.8
1.72 -429.9 312.7 -39.08 -166.1 -58.62 312.7 -224.7 342 -420.1 9.77 263.8 517.8 254 195.4 68.39 166.1 -254 244.3 -342 -674.6
1.725 -9.77 254 146.6 -146.6 97.7 283.3 -68.39 429.9 -185.6 576.5 322.4 605.8 263.8 214.9 312.7 312.7 -87.93 293.1 -48.85 -498.3
1.73 -68.39 371.3 263.8 0 234.5 302.9 107.5 342 -58.62 283.3 342 644.8 410.4 214.9 488.5 214.9 39.08 293.1 -39.08 -449.4
1.735 68.39 429.9 429.9 48.85 371.3 322.4 254 293.1 351.7 166.1 576.5 732.8 596 293.1 654.6 302.9 283.3 351.7 156.3 -107.5
1.74 -19.54 214.9 556.9 -175.9 342 97.7 273.6 175.9 293.1 596 537.4 576.5 644.8 205.2 527.6 254 400.6 214.9 283.3 87.93
1.745 78.16 58.62 332.2 -351.7 107.5 -78.16 39.08 -87.93 195.4 283.3 361.5 547.1 293.1 127 381 214.9 342 -68.39 185.6 322.4
1.75 -78.16 -195.4 371.3 -752.3 87.93 -342 87.93 -254 351.7 390.8 146.6 312.7 263.8 9.77 488.5 244.3 469 -302.9 390.8 703.5
1.755 19.54 -302.9 390.8 -771.9 156.3 -273.6 342 -156.3 947.7 586.2 48.85 351.7 146.6 58.62 703.5 273.6 537.4 -293.1 586.2 801.2
1.76 -39.08 -508.1 166.1 -947.7 68.39 -420.1 234.5 -351.7 635.1 -29.31 -214.9 244.3 -48.85 -107.5 683.9 273.6 371.3 -332.2 429.9 742.6
1.765 -390.8 -547.6 48.85 -850 48.85 -302.9 185.6 -175.9 752.3 371.3 -263.8 214.9 -9.77 -78.16 576.5 273.6 146.6 -195.4 498.3 596
1.77 -605.8 -596 -107.5 -771.9 -97.7 -175.9 58.62 -29.31 429.9 527.6 -508.1 293.1 -195.4 -117.2 361.5 214.9 -87.93 -205.2 322.4 302.9
1.775 -205.2 -547.6 -166.1 -752.3 -224.7 -175.9 -136.8 -48.85 263.8 390.8 -342 293.1 -185.6 -156.3 156.3 29.31 -195.4 -302.9 136.8 234.5
1.78 -566.7 -517.8 -175.9 -742.6 -410.4 -293.1 -342 -273.6 9.77 -322.4 -322.4 293.1 -195.4 -263.8 -9.77 -156.3 -214.9 -205.2 -127 -9.77
1.785 322.4 -381 9.77 -683.9 -312.7 -283.3 -381 -312.7 -175.9 -556.9 -19.54 342 -244.3 -244.3 -195.4 -302.9 -205.2 -224.7 -293.1 -68.39
1.79 166.1 -478.7 -39.08 -752.3 -371.3 -537.4 -498.3 -576.5 -674.6 -967.8 58.62 195.4 -175.9 -342 -400.6 -342 -166.1 -312.7 -469 -29.31
1.795 439.7 -322.4 195.4 -752.3 -19.54 -312.7 -39.08 -48.85 -68.39 459.2 224.7 244.3 29.31 -166.1 -498.3 -78.16 97.7 -97.7 185.6 224.7
1.8 146.6 -254 156.3 -752.3 39.08 -381 97.7 -78.16 97.7 -87.93 175.9 283.3 29.31 -48.85 -371.3 -48.85 78.16 39.08 293.1 185.6
1.805 48.85 -342 166.1 -1006 117.2 -371.3 283.3 68.39 166.1 283.3 68.39 107.5 58.62 -39.08 -332.2 -39.08 -9.77 -29.31 478.7 283.3
1.81 78.16 -107.5 302.9 -898.9 283.3 -117.2 576.5 293.1 615.5 -146.6 97.7 254 146.6 117.2 -9.77 136.8 166.1 127 693.7 263.8
1.815 -371.3 -283.3 -39.08 -1094 58.62 -117.2 478.7 185.6 517.8 -556.9 -195.4 39.08 -19.54 19.54 48.85 117.2 -185.6 -9.77 508.1 107.5
1.82 -78.16 -127 39.08 -859.8 185.6 195.4 674.2 723 732.8 781.6 -136.8 136.8 156.3 214.9 107.5 371.3 -107.5 263.8 752.3 -29.31
1.825 -68.39 -234.5 58.62 -810.9 263.8 9.77 713.2 410.4 1006 146.6 -146.6 68.39 254 19.54 361.5 234.5 -87.93 97.7 566.7 78.16
1.83 -342 -146.6 -127 -655.1 39.08 -29.31 410.4 410.4 781.6 781.6 -429.9 19.54 39.08 9.77 224.7 224.7 -185.6 156.3 410.4 -136.8
1.835 -117.2 -312.7 -410.4 -693.7 -166.1 -322.4 136.8 -19.54 390.8 195.4 -566.7 -146.6 -127 -224.7 29.31 -48.85 -351.7 -97.7 29.31 0
1.84 -605.8 -400.6 -762.1 -771.9 -655.1 -625.3 -508.1 -498.3 -508.1 -615.5 -830.5 -293.1 -449.4 -498.3 -283.3 -400.6 -644.8 -205.2 -527.6 -322.4
1.845 -527.6 -361.5 -810.9 -850 -723 -537.4 -615.5 -381 -723 -107.5 -762.1 -234.5 -498.3 -361.5 -596 -381 -655.1 -185.6 -556.9 -351.7
1.85 -840.3 -273.6 -478.7 -713.2 -469 -381 -400.6 -175.9 -469 498.3 -625.3 -234.5 -361.5 -332.2 -371.3 -312.7 -381 0 -175.9 -244.3
1.855 -400.6 -234.5 -107.5 -742.6 -195.4 -302.9 -166.1 -234.5 -371.3 68.39 -283.3 -263.8 -263.8 -234.5 -556.9 -400.6 -224.7 -68.39 -195.4 -48.85
1.86 -556.9 -390.8 -273.6 -742.6 -342 -322.4 -332.2 -244.3 -655.1 -117.2 -342 -429.9 -342 -244.3 -517.8 -175.9 -371.3 -78.16 -224.7 -39.08
1.865 -146.6 -224.7 0 -488.5 0 19.54 97.7 -9.77 -97.7 -342 9.77 -400.6 -87.93 -185.6 -214.9 -9.77 -254 146.6 -146.6 -136.8
1.87 -107.5 -488.5 -117.2 -605.8 0 -166.1 58.62 -263.8 -293.1 -1240 -19.54 -576.5 19.54 -254 -68.39 -19.54 -205.2 -185.6 -146.6 185.6
1.875 302.9 -312.7 273.6 -508.1 400.6 107.5 635.1 214.9 371.3 -302.9 283.3 -537.4 312.7 -87.93 351.7 185.6 156.3 -48.85 449.4 498.3
1.88 351.7 -214.9 342 -361.5 488.5 175.9 801.2 429.9 723 68.39 322.4 -400.6 459.2 117.2 351.7 283.3 342 -9.77 781.6 576.5
1.885 224.7 -97.7 508.1 -273.6 517.8 166.1 830.5 674.2 977 820.7 283.3 -351.7 283.3 175.9 420.1 283.3 361.5 -9.77 850 625.3
1.89 449.4 -224.7 254 -342 146.6 -224.7 410.4 87.93 644.8 -263.8 185.6 -469 87.93 -78.16 156.3 29.31 254 -263.8 410.4 547.1
1.895 410.4 -39.08 302.9 -87.93 185.6 -175.9 351.7 9.77 742.6 -234.5 244.3 -332.2 146.6 -78.16 58.62 -136.8 254 -166.1 332.2 390.8
1.9 -58.62 156.3 68.39 127 -156.3 -48.85 -185.6 -117.2 19.54 -547.6 -127 -244.3 -185.6 -58.62 -214.9 -185.6 156.3 68.39 -39.08 19.54
1.905 410.4 234.5 420.1 224.7 312.7 175.9 283.3 -48.85 508.1 -449.4 302.9 -166.1 166.1 117.2 58.62 -361.5 410.4 263.8 254 146.6
1.91 175.9 469 566.7 381 420.1 635.1 302.9 420.1 127 400.6 322.4 -87.93 107.5 400.6 -19.54 -175.9 576.5 547.1 459.2 39.08
1.915 302.9 381 879.3 283.3 781.6 752.3 674.2 596 293.1 469 654.6 -205.2 420.1 429.9 332.2 0 713.2 586.2 781.6 234.5
1.92 322.4 390.8 820.7 273.6 762.1 859.8 771.9 859.8 400.6 615.5 429.9 -293.1 361.5 478.7 351.7 351.7 644.8 752.3 820.7 58.62
1.925 -117.2 224.7 762.1 29.31 762.1 723 869.6 889.1 586.2 977 420.1 -527.6 390.8 361.5 478.7 635.1 390.8 605.8 801.2 -29.31
1.93 68.39 244.3 605.8 -9.77 713.2 586.2 967.3 801.2 762.1 771.9 293.1 -664.4 429.9 254 703.5 644.8 293.1 547.1 703.5 -136.8
1.935 342 224.7 683.9 -97.7 742.6 390.8 1055 664.4 1172 791.4 469 -840.3 527.6 166.1 869.6 625.3 381 488.5 693.7 -19.54
1.94 -9.77 195.4 371.3 -19.54 361.5 195.4 596 400.6 625.3 713.2 351.7 -957.5 371.3 87.93 596 469 312.7 459.2 351.7 -166.1
1.945 312.7 195.4 351.7 -107.5 166.1 97.7 420.1 224.7 654.6 556.9 156.3 -918.4 195.4 29.31 469 254 293.1 420.1 175.9 -263.8
1.95 -273.6 244.3 400.6 58.62 19.54 185.6 127 302.9 -29.31 830.5 156.3 -810.9 136.8 68.39 78.16 185.6 420.1 439.7 156.3 -205.2
1.955 -322.4 127 439.7 -136.8 -19.54 136.8 9.77 -9.77 -68.39 9.77 78.16 -732.8 -107.5 0 -9.77 -97.7 371.3 263.8 39.08 -29.31
1.96 371.3 439.7 625.3 205.2 185.6 644.8 185.6 596 58.62 1104 332.2 -351.7 -19.54 273.6 -29.31 -68.39 576.5 732.8 429.9 -205.2
1.965 156.3 556.9 752.3 283.3 293.1 713.2 117.2 224.7 29.31 -752.3 371.3 -263.8 146.6 342 -29.31 -342 469 791.4 29.31 -302.9
1.97 830.5 752.3 928.2 420.1 654.6 1065 478.7 752.3 136.8 703.5 596 -97.7 508.1 635.1 29.31 -214.9 732.8 986.8 547.1 -244.3
1.975 635.1 713.2 928.2 293.1 674.2 918.4 488.5 517.8 312.7 -78.16 547.1 -205.2 576.5 517.8 234.5 -136.8 664.4 703.5 351.7 -29.31
1.98 459.2 742.6 586.2 351.7 439.7 713.2 293.1 361.5 -87.93 -312.7 410.4 -166.1 547.1 596 224.7 146.6 566.7 576.5 97.7 -136.8
1.985 166.1 410.4 371.3 146.6 322.4 342 166.1 97.7 -351.7 -488.5 273.6 -420.1 283.3 263.8 244.3 302.9 332.2 185.6 -205.2 -58.62
1.99 68.39 224.7 19.54 78.16 97.7 29.31 68.39 -185.6 0 -1182 78.16 -547.6 205.2 117.2 449.4 410.4 146.6 117.2 -410.4 -166.1
1.995 -166.1 58.62 -39.08 -9.77 97.7 -146.6 39.08 -312.7 -185.6 -987.3 195.4 -615.5 332.2 29.31 351.7 410.4 127 -29.31 -517.8 -19.54
2 -97.7 -9.77 -58.62 9.77 97.7 -146.6 175.9 -195.4 566.7 -361.5 0 -605.8 312.7 9.77 537.4 351.7 136.8 175.9 -244.3 -68.39
2.005 136.8 78.16 29.31 97.7 146.6 48.85 175.9 58.62 127 459.2 234.5 -429.9 429.9 -9.77 439.7 244.3 48.85 283.3 -312.7 -234.5
2.01 0 19.54 -117.2 87.93 -58.62 -68.39 -87.93 -156.3 48.85 -107.5 78.16 -371.3 175.9 -48.85 146.6 -78.16 9.77 166.1 -469 -195.4
2.015 29.31 68.39 39.08 68.39 78.16 127 -39.08 -48.85 -351.7 166.1 371.3 -234.5 263.8 -19.54 185.6 -273.6 107.5 146.6 -312.7 -68.39
2.02 -175.9 136.8 -293.1 205.2 -351.7 146.6 -556.9 -254 -1055 -683.9 -58.62 -58.62 -9.77 68.39 -420.1 -527.6 -195.4 224.7 -820.7 -566.7
2.025 -420.1 214.9 146.6 156.3 117.2 322.4 -97.7 9.77 -498.3 -195.4 166.1 -48.85 244.3 185.6 -68.39 -498.3 185.6 322.4 -254 -214.9
2.03 -322.4 410.4 214.9 302.9 107.5 537.4 -78.16 293.1 -566.7 117.2 19.54 156.3 146.6 390.8 -234.5 -332.2 273.6 429.9 -136.8 -273.6
2.035 39.08 576.5 488.5 361.5 488.5 713.2 312.7 596 214.9 420.1 166.1 342 351.7 556.9 136.8 -107.5 429.9 547.1 156.3 -175.9
2.04 351.7 410.4 556.9 244.3 576.5 596 517.8 683.9 488.5 771.9 166.1 273.6 381 615.5 127 -29.31 576.5 576.5 527.6 48.85
2.045 400.6 58.62 429.9 -29.31 429.9 302.9 371.3 390.8 87.93 166.1 117.2 87.93 332.2 439.7 136.8 97.7 410.4 263.8 332.2 175.9
2.05 48.85 -78.16 175.9 48.85 293.1 263.8 420.1 381 361.5 127 97.7 9.77 371.3 351.7 234.5 293.1 332.2 244.3 459.2 302.9
2.055 -263.8 -469 117.2 -254 254 -58.62 332.2 29.31 -87.93 -342 58.62 -312.7 400.6 48.85 361.5 429.9 185.6 -146.6 361.5 508.1
2.06 -214.9 -361.5 87.93 -19.54 332.2 -19.54 586.2 97.7 732.8 -214.9 175.9 -214.9 508.1 48.85 771.9 615.5 283.3 29.31 615.5 459.2
2.065 19.54 -293.1 166.1 29.31 351.7 -78.16 449.4 29.31 273.6 156.3 175.9 -224.7 469 -29.31 469 508.1 107.5 -78.16 361.5 283.3
2.07 254 -302.9 293.1 68.39 459.2 -117.2 576.5 19.54 625.3 166.1 117.2 -195.4 400.6 19.54 703.5 371.3 302.9 -136.8 635.1 361.5
2.075 410.4 -263.8 459.2 39.08 586.2 -107.5 635.1 -9.77 596 263.8 136.8 -185.6 449.4 19.54 488.5 156.3 302.9 -166.1 654.6 400.6
2.08 58.62 -166.1 195.4 205.2 420.1 97.7 459.2 195.4 322.4 429.9 -58.62 -107.5 244.3 146.6 361.5 117.2 195.4 107.5 586.2 58.62
2.085 -185.6 -244.3 195.4 205.2 381 127 478.7 195.4 390.8 273.6 -117.2 -283.3 107.5 146.6 293.1 127 97.7 195.4 498.3 -29.31
2.09 -29.31 -127 0 371.3 332.2 302.9 420.1 283.3 195.4 205.2 -185.6 -185.6 97.7 283.3 136.8 117.2 97.7 390.8 429.9 -146.6
2.095 -459.2 -234.5 -136.8 283.3 166.1 156.3 263.8 -29.31 -29.31 -429.9 -469 -234.5 -136.8 205.2 117.2 48.85 -107.5 156.3 87.93 -29.31
2.1 -302.9 -322.4 -195.4 127 87.93 87.93 136.8 -58.62 -185.6 -97.7 -351.7 -156.3 -97.7 205.2 9.77 -29.31 -107.5 136.8 78.16 19.54
2.105 -635.6 -400.6 -234.5 87.93 39.08 0 9.77 -185.6 -97.7 -224.7 -400.6 -97.7 -234.5 283.3 -39.08 0 -175.9 -39.08 -175.9 29.31
2.11 -342 -361.5 -273.6 185.6 0 19.54 -68.39 19.54 -234.5 683.9 -351.7 -39.08 -107.5 273.6 -9.77 166.1 -156.3 -39.08 -127 -9.77
2.115 -214.9 -508.1 -214.9 48.85 -9.77 -244.3 -195.4 -488.5 -185.6 -537.4 -156.3 -273.6 -48.85 19.54 29.31 9.77 -156.3 -361.5 -517.8 117.2
2.12 -214.9 -302.9 -361.5 263.8 -136.8 -39.08 -302.9 -214.9 -449.4 205.2 -390.8 -136.8 -87.93 87.93 -39.08 244.3 -166.1 -68.39 -478.7 -146.6
2.125 -625.3 -166.1 -185.6 342 19.54 87.93 -78.16 -39.08 -214.9 605.8 -136.8 -166.1 68.39 78.16 166.1 244.3 -68.39 -19.54 -322.4 -78.16
2.13 -273.6 -166.1 -312.7 381 -234.5 -87.93 -420.1 -449.4 -713.2 -869.6 -244.3 -205.2 -127 -48.85 -107.5 -29.31 -146.6 -214.9 -655.1 -117.2
2.135 -635.6 -97.7 -312.7 410.4 -214.9 29.31 -263.8 -136.8 -498.3 136.8 -185.6 -244.3 -273.6 -9.77 -166.1 -146.6 -146.6 -371.3 -351.7 58.62
2.14 -273.6 -9.77 -547.6 498.3 -459.2 -9.77 -508.1 -254 -586.2 -547.6 -342 -156.3 -429.9 39.08 -371.3 -322.4 -224.7 -361.5 -429.9 -175.9
2.145 87.93 -146.6 -508.1 322.4 -371.3 -205.2 -449.4 -351.7 -322.4 -439.7 -166.1 -254 -371.3 -68.39 -439.7 -410.4 -166.1 -537.4 -254 29.31
2.15 -166.1 68.39 -390.8 459.2 -342 -48.85 -420.1 -244.3 -156.3 -635.6 -244.3 -39.08 -410.4 78.16 -596 -361.5 -146.6 -263.8 -263.8 -263.8
2.155 48.85 -78.16 -293.1 205.2 -166.1 -175.9 -293.1 -293.1 -205.2 -283.3 -78.16 -19.54 -224.7 29.31 -361.5 -273.6 48.85 -332.2 -19.54 48.85
2.16 -136.8 136.8 -156.3 400.6 -39.08 0 -166.1 -58.62 0 -146.6 -127 107.5 -195.4 117.2 -478.7 -58.62 39.08 39.08 19.54 -224.7
2.165 -48.85 39.08 -214.9 244.3 68.39 39.08 -87.93 39.08 -273.6 283.3 -87.93 -19.54 -97.7 87.93 -254 117.2 -136.8 19.54 -97.7 -214.9
2.17 -107.5 107.5 -312.7 332.2 -39.08 78.16 -234.5 156.3 -273.6 214.9 -146.6 19.54 -127 58.62 -351.7 156.3 -273.6 29.31 -224.7 -332.2
2.175 -29.31 -9.77 -469 273.6 -146.6 -19.54 -312.7 19.54 -547.6 214.9 -19.54 -214.9 -19.54 -29.31 -351.7 107.5 -508.1 -156.3 -478.7 -332.2
2.18 -97.7 -97.7 -605.8 195.4 -390.8 -214.9 -508.1 -302.9 -429.9 -478.7 -146.6 -214.9 -97.7 -117.2 -254 -29.31 -547.6 -429.9 -655.1 -263.8
2.185 -586.2 -371.3 -879.8 -146.6 -810.9 -517.8 -898.9 -664.4 -1094 -810.9 -234.5 -498.3 -244.3 -381 -410.4 -146.6 -820.7 -762.1 -987.3 -293.1
2.19 -127 -410.4 -693.7 -39.08 -732.8 -478.7 -655.1 -596 -488.5 -508.1 -136.8 -361.5 -234.5 -293.1 -234.5 -107.5 -527.6 -781.6 -644.8 -87.93
2.195 -322.4 -517.8 -859.8 -117.2 -928.2 -537.4 -840.3 -537.4 -752.3 0 -127 -351.7 -342 -332.2 -273.6 -39.08 -674.6 -918.4 -566.7 -39.08
2.2 -19.54 -302.9 -644.8 78.16 -732.8 -263.8 -586.2 -146.6 -498.3 664.4 -107.5 -205.2 -302.9 -205.2 -312.7 29.31 -469 -586.2 -244.3 -117.2
2.205 -107.5 -254 -586.2 107.5 -605.8 -263.8 -478.7 -332.2 -371.3 -254 68.39 -156.3 -224.7 -293.1 -244.3 -195.4 -478.7 -566.7 -302.9 -87.93
2.21 0 117.2 -361.5 410.4 -332.2 127 -224.7 244.3 -273.6 957.5 -48.85 117.2 -166.1 19.54 -273.6 97.7 -322.4 -136.8 117.2 -342
2.215 -68.39 205.2 -342 547.1 -136.8 185.6 -48.85 146.6 -175.9 107.5 127 117.2 -48.85 68.39 -185.6 117.2 -322.4 -205.2 97.7 -234.5
2.22 -381 273.6 -234.5 625.3 -78.16 302.9 78.16 420.1 293.1 556.9 87.93 273.6 58.62 263.8 -127 312.7 -322.4 -58.62 420.1 -361.5
2.225 -342 332.2 -254 537.4 48.85 371.3 234.5 439.7 644.8 381 166.1 302.9 224.7 429.9 224.7 478.7 -400.6 -127 342 -342
2.23 -214.9 -68.39 -107.5 29.31 9.77 -39.08 107.5 0 322.4 -166.1 234.5 97.7 273.6 175.9 166.1 371.3 -166.1 -556.9 390.8 224.7
2.235 -263.8 -127 -19.54 -185.6 -39.08 -107.5 97.7 48.85 420.1 469 214.9 -19.54 263.8 136.8 381 390.8 -107.5 -674.6 420.1 381
2.24 -273.6 -244.3 48.85 -459.2 -224.7 -410.4 -254 -429.9 -293.1 -342 234.5 -195.4 117.2 -68.39 127 29.31 97.7 -830.5 97.7 527.6
2.245 107.5 -107.5 58.62 -273.6 -283.3 -234.5 -332.2 -351.7 -498.3 -195.4 175.9 -97.7 48.85 -146.6 -127 -87.93 68.39 -566.7 -29.31 293.1
2.25 127 -39.08 156.3 -146.6 -87.93 -117.2 -78.16 -156.3 -127 -107.5 68.39 -19.54 0 0 -29.31 -175.9 254 -381 205.2 302.9
2.255 166.1 -58.62 117.2 9.77 -48.85 -68.39 -68.39 -166.1 107.5 -351.7 117.2 9.77 -68.39 -205.2 -19.54 -224.7 166.1 -302.9 156.3 263.8
2.26 -234.5 -117.2 0 127 48.85 87.93 87.93 117.2 244.3 254 -19.54 136.8 -136.8 -107.5 -68.39 -97.7 19.54 -48.85 283.3 -29.31
2.265 -166.1 -214.9 -117.2 68.39 19.54 29.31 -58.62 68.39 19.54 224.7 -87.93 97.7 -244.3 -185.6 68.39 -87.93 -175.9 -117.2 29.31 -136.8
2.27 -146.6 -214.9 175.9 39.08 351.7 185.6 332.2 488.5 752.3 1309 156.3 146.6 136.8 -19.54 234.5 127 39.08 136.8 527.6 9.77
2.275 -78.16 -361.5 9.77 -156.3 136.8 0 -19.54 29.31 -293.1 29.31 19.54 117.2 58.62 -136.8 117.2 -87.93 -117.2 -97.7 0 39.08
2.28 97.7 -78.16 156.3 -117.2 234.5 332.2 166.1 488.5 87.93 918.4 136.8 263.8 166.1 156.3 293.1 175.9 107.5 371.3 351.7 -68.39
2.285 107.5 -9.77 195.4 -107.5 107.5 195.4 -48.85 9.77 -527.6 -351.7 175.9 254 68.39 29.31 78.16 9.77 136.8 263.8 29.31 58.62
2.29 -39.08 254 0 39.08 -87.93 449.4 -205.2 205.2 -664.4 58.62 -29.31 410.4 -381 175.9 -175.9 107.5 58.62 537.4 29.31 -224.7
2.295 136.8 342 136.8 29.31 87.93 469 39.08 107.5 -351.7 -273.6 175.9 410.4 -127 87.93 9.77 39.08 195.4 537.4 263.8 19.54
2.3 214.9 283.3 117.2 39.08 68.39 400.6 -39.08 117.2 -381 -87.93 107.5 371.3 -312.7 19.54 -195.4 0 127 625.3 195.4 -87.93
2.305 371.3 234.5 273.6 -78.16 381 420.1 322.4 273.6 224.7 674.2 205.2 234.5 29.31 -127 -48.85 -117.2 195.4 625.3 478.7 68.39
2.31 195.4 107.5 429.9 -117.2 439.7 195.4 263.8 -58.62 146.6 0 214.9 195.4 58.62 -224.7 146.6 -107.5 273.6 517.8 381 127
2.315 9.77 -97.7 146.6 -156.3 117.2 -19.54 -68.39 -254 -224.7 -78.16 19.54 0 -146.6 -420.1 -107.5 -234.5 -78.16 185.6 -39.08 68.39
2.32 127 -185.6 0 -87.93 19.54 -97.7 -78.16 -214.9 -9.77 -195.4 -9.77 0 -254 -332.2 39.08 -97.7 -175.9 175.9 166.1 48.85
2.325 39.08 -488.5 -166.1 -195.4 -156.3 -322.4 -156.3 -459.2 19.54 -762.1 -48.85 -214.9 -342 -469 -48.85 -332.2 -478.7 -39.08 -175.9 9.77
2.33 -224.7 -596 -254 -273.6 -302.9 -351.7 -283.3 -224.7 -97.7 19.54 -224.7 -234.5 -527.6 -332.2 -127 -195.4 -596 -166.1 136.8 156.3
2.335 0 -820.7 -273.6 -400.6 -322.4 -537.4 -175.9 -351.7 107.5 48.85 -283.3 -390.8 -547.6 -508.1 -263.8 -244.3 -693.7 -459.2 78.16 420.1
2.34 -293.1 -859.8 -342 -429.9 -332.2 -596 -234.5 -400.6 87.93 -29.31 -322.4 -351.7 -488.5 -429.9 -68.39 -136.8 -723 -508.1 29.31 293.1
2.345 -166.1 -762.1 -537.4 -244.3 -517.8 -635.6 -508.1 -615.5 -400.6 -283.3 -371.3 -254 -596 -508.1 -273.6 -87.93 -908.6 -635.6 -439.7 166.1
2.35 -1016 -576.5 -771.9 -156.3 -732.8 -596 -801.2 -713.2 -517.8 -615.5 -644.8 -166.1 -732.8 -459.2 -342 -107.5 -1006 -517.8 -859.8 -195.4
2.355 -87.93 -322.4 -605.8 -48.85 -488.5 -439.7 -469 -664.4 254 -644.8 -420.1 -39.08 -566.7 -351.7 -146.6 -156.3 -791.4 -361.5 -703.5 -78.16
2.36 -517.8 -87.93 -625.3 127 -586.2 -224.7 -713.2 -459.2 -810.9 -449.4 -488.5 156.3 -576.5 -234.5 -488.5 -68.39 -791.4 -87.93 -889.1 -351.7
2.365 -87.93 -234.5 -605.8 -127 -527.6 -293.1 -498.3 -488.5 -146.6 -625.3 -390.8 68.39 -478.7 -342 -214.9 -146.6 -869.6 -302.9 -771.9 -214.9
2.37 459.2 -58.62 -332.2 224.7 -302.9 -107.5 -312.7 -214.9 -322.4 -410.4 -39.08 302.9 -175.9 -195.4 -87.93 29.31 -527.6 -117.2 -361.5 -175.9
2.375 39.08 -78.16 -449.4 127 -508.1 -234.5 -644.8 -390.8 -918.4 -742.6 -39.08 273.6 -381 -224.7 -293.1 -9.77 -556.9 -429.9 -596 -39.08
2.38 127 -68.39 -390.8 263.8 -576.5 -293.1 -644.8 -469 -566.7 -957.5 19.54 195.4 -381 -263.8 -263.8 0 -420.1 -371.3 -556.9 -97.7
2.385 39.08 293.1 -39.08 498.3 -312.7 9.77 -439.7 -156.3 -273.6 -205.2 0 371.3 -332.2 19.54 -214.9 175.9 -127 58.62 -234.5 -136.8
2.39 488.5 488.5 244.3 537.4 19.54 254 -19.54 312.7 166.1 1212 78.16 381 -283.3 214.9 -263.8 293.1 322.4 332.2 312.7 97.7
2.395 156.3 449.4 166.1 537.4 -48.85 107.5 -234.5 -127 -449.4 -342 -185.6 214.9 -351.7 127 -263.8 -9.77 166.1 332.2 -146.6 48.85
2.4 195.4 693.7 429.9 664.4 185.6 390.8 136.8 342 -48.85 508.1 -156.3 195.4 -293.1 244.3 -58.62 -9.77 420.1 644.8 254 68.39
2.405 9.77 556.9 244.3 517.8 48.85 254 -39.08 87.93 -185.6 -381 -244.3 -39.08 -273.6 29.31 -175.9 -175.9 107.5 537.4 -195.4 -195.4
2.41 78.16 693.7 214.9 644.8 48.85 410.4 39.08 381 -224.7 107.5 -224.7 39.08 -234.5 156.3 97.7 -39.08 205.2 547.1 29.31 -185.6
2.415 185.6 381 166.1 273.6 19.54 283.3 127 293.1 87.93 39.08 -29.31 -107.5 -156.3 -68.39 -9.77 -107.5 117.2 117.2 117.2 146.6
2.42 205.2 429.9 -127 195.4 -263.8 273.6 -166.1 175.9 -273.6 -351.7 -146.6 117.2 -332.2 29.31 19.54 -48.85 68.39 97.7 87.93 127
2.425 9.77 283.3 -156.3 -107.5 -293.1 107.5 -322.4 -136.8 -517.8 -928.2 -117.2 58.62 -439.7 -107.5 -48.85 -195.4 39.08 -107.5 -58.62 302.9
2.43 68.39 351.7 29.31 -195.4 -107.5 107.5 -214.9 -185.6 -322.4 -1094 58.62 156.3 -117.2 -29.31 -78.16 -68.39 263.8 68.39 107.5 351.7
2.435 175.9 400.6 371.3 -185.6 263.8 146.6 78.16 -127 0 -713.2 205.2 234.5 58.62 48.85 195.4 39.08 478.7 156.3 322.4 498.3
2.44 283.3 410.4 488.5 -136.8 400.6 322.4 390.8 478.7 791.4 1026 302.9 263.8 302.9 214.9 175.9 234.5 439.7 449.4 723 283.3
2.445 459.2 244.3 371.3 -127 302.9 48.85 273.6 107.5 586.2 205.2 361.5 166.1 302.9 48.85 224.7 127 97.7 214.9 293.1 78.16
2.45 566.7 156.3 439.7 -78.16 420.1 58.62 605.8 302.9 1163 879.3 488.5 97.7 420.1 107.5 517.8 185.6 87.93 185.6 517.8 48.85
2.455 537.4 -244.3 175.9 -351.7 234.5 -390.8 342 -244.3 859.8 -351.7 527.6 -87.93 342 -156.3 459.2 -195.4 -87.93 -361.5 185.6 293.1
2.46 439.7 -205.2 166.1 -175.9 283.3 -361.5 283.3 -312.7 547.1 -488.5 596 39.08 410.4 19.54 390.8 -175.9 68.39 -420.1 136.8 390.8
2.465 752.3 -254 234.5 -244.3 273.6 -420.1 244.3 -361.5 576.5 -429.9 459.2 -87.93 332.2 -273.6 449.4 -263.8 185.6 -439.7 185.6 576.5
2.47 830.5 68.39 429.9 68.39 390.8 -107.5 273.6 -156.3 449.4 -136.8 527.6 39.08 381 -87.93 332.2 -205.2 517.8 -107.5 214.9 439.7
2.475 898.9 156.3 547.1 87.93 312.7 -9.77 117.2 -9.77 -19.54 312.7 410.4 -117.2 234.5 -322.4 156.3 -224.7 566.7 9.77 224.7 576.5
2.48 879.3 283.3 547.1 117.2 283.3 175.9 -9.77 87.93 -78.16 166.1 293.1 -117.2 156.3 -293.1 58.62 -166.1 615.5 302.9 127 293.1
2.485 332.2 136.8 449.4 -185.6 97.7 58.62 -283.3 -136.8 -400.6 -332.2 234.5 -283.3 78.16 -351.7 -254 -342 263.8 273.6 -332.2 -29.31
2.49 263.8 -68.39 302.9 -449.4 68.39 -58.62 -273.6 -117.2 -342 -127 9.77 -283.3 -68.39 -293.1 -195.4 -156.3 185.6 136.8 -263.8 9.77
2.495 -400.6 156.3 -244.3 97.7 -312.7 -19.54 -146.6 205.2 -175.9 390.8 -390.8 -58.62 -351.7 68.39 -429.9 244.3 -195.4 263.8 48.85 -351.7
2.5 -429.9 214.9 -205.2 127 -214.9 97.7 29.31 390.8 117.2 762.1 -293.1 -87.93 -342 68.39 -361.5 263.8 -117.2 420.1 166.1 -342
2.505 -693.7 312.7 -244.3 273.6 -361.5 195.4 -254 478.7 -342 771.9 -400.6 9.77 -410.4 166.1 -635.6 224.7 -68.39 654.6 146.6 -556.9
2.51 -420.1 312.7 -244.3 439.7 -371.3 244.3 -361.5 351.7 -566.7 293.1 -361.5 0 -390.8 156.3 -830.5 68.39 -136.8 664.4 -97.7 -664.4
2.515 -410.4 459.2 97.7 683.9 -136.8 556.9 -254 605.8 -556.9 762.1 -244.3 214.9 -244.3 332.2 -664.4 107.5 205.2 889.1 293.1 -635.6
2.52 -390.8 439.7 127 820.7 -97.7 527.6 -273.6 254 -615.5 -459.2 -107.5 195.4 -117.2 312.7 -576.5 -19.54 146.6 693.7 -146.6 -556.9
2.525 -214.9 654.6 127 947.7 -58.62 820.7 -254 596 -644.8 527.6 -263.8 351.7 -224.7 517.8 -586.2 107.5 410.4 947.7 185.6 -586.2
2.53 -48.85 693.7 351.7 859.8 136.8 693.7 -78.16 293.1 -273.6 -332.2 9.77 263.8 -48.85 478.7 -469 -87.93 488.5 859.8 87.93 -488.5
2.535 -420.1 801.2 78.16 898.9 -29.31 742.6 -214.9 527.6 -537.4 87.93 -361.5 273.6 -205.2 644.8 -410.4 87.93 371.3 967.3 9.77 -732.8
2.54 -195.4 586.2 273.6 781.6 136.8 498.3 19.54 332.2 48.85 -127 -127 175.9 -39.08 488.5 -234.5 127 410.4 723 175.9 -410.4
2.545 -302.9 596 273.6 762.1 214.9 478.7 263.8 615.5 723 547.1 -185.6 156.3 68.39 508.1 39.08 351.7 400.6 771.9 351.7 -459.2
2.55 -400.6 342 244.3 566.7 234.5 293.1 283.3 625.3 449.4 1104 0 0 214.9 351.7 244.3 488.5 263.8 547.1 342 -322.4
2.555 -351.7 107.5 302.9 302.9 263.8 19.54 244.3 224.7 605.8 107.5 -39.08 -117.2 283.3 97.7 371.3 322.4 224.7 234.5 175.9 -146.6
2.56 -488.5 -87.93 0 127 -87.93 -39.08 -234.5 87.93 -283.3 263.8 -87.93 -214.9 97.7 -19.54 175.9 224.7 -29.31 -136.8 -117.2 0
2.565 -498.3 -312.7 -127 -29.31 -273.6 -156.3 -439.7 -107.5 -556.9 -29.31 -205.2 -283.3 -19.54 -78.16 127 117.2 -78.16 -293.1 -146.6 117.2
2.57 -381 -439.7 -322.4 -68.39 -478.7 -205.2 -655.1 -263.8 -635.6 -322.4 -205.2 -312.7 -156.3 -127 39.08 -58.62 -263.8 -400.6 -371.3 78.16
2.575 -556.9 -322.4 -175.9 9.77 -342 -68.39 -478.7 -9.77 -146.6 322.4 -107.5 -185.6 -97.7 -9.77 58.62 29.31 -78.16 -127 -156.3 9.77
2.58 -449.4 -156.3 -97.7 136.8 -185.6 78.16 -283.3 371.3 9.77 1456 -127 -156.3 -97.7 68.39 -214.9 107.5 -136.8 -29.31 19.54 -39.08
2.585 -967.8 -136.8 -107.5 87.93 -136.8 -117.2 -273.6 0 97.7 283.3 -166.1 -166.1 -136.8 -48.85 -234.5 -58.62 -87.93 -107.5 -156.3 68.39
2.59 -1309 87.93 -332.2 244.3 -273.6 -29.31 -410.4 68.39 -156.3 361.5 -302.9 -19.54 -302.9 -19.54 -381 -39.08 -439.7 -48.85 -683.9 -351.7
2.595 -1290 48.85 -605.8 254 -439.7 -234.5 -605.8 -244.3 -302.9 -674.6 -449.4 58.62 -390.8 0 -488.5 -29.31 -556.9 -166.1 -947.7 -429.9
2.6 -1182 117.2 -556.9 234.5 -322.4 -146.6 -508.1 -205.2 -605.8 -459.2 -263.8 136.8 -273.6 68.39 -254 97.7 -566.7 -146.6 -1075 -498.3
2.605 -771.9 29.31 -449.4 156.3 -234.5 -205.2 -459.2 -263.8 -351.7 -683.9 -312.7 48.85 -156.3 -19.54 -205.2 136.8 -439.7 -117.2 -908.6 -342
2.61 -703.5 58.62 -234.5 127 -117.2 -68.39 -254 -68.39 -322.4 -117.2 -244.3 87.93 -136.8 58.62 -195.4 351.7 -351.7 29.31 -742.6 -390.8
2.615 -312.7 68.39 117.2 117.2 195.4 -58.62 127 -48.85 234.5 58.62 -185.6 -87.93 39.08 -68.39 97.7 361.5 58.62 19.54 -293.1 29.31
2.62 -478.7 195.4 214.9 166.1 214.9 19.54 156.3 -29.31 136.8 58.62 -185.6 -146.6 0 -195.4 78.16 293.1 87.93 -39.08 -293.1 48.85
2.625 -361.5 97.7 214.9 -9.77 263.8 -166.1 117.2 -263.8 117.2 -293.1 -146.6 -273.6 78.16 -390.8 166.1 39.08 293.1 -175.9 -175.9 302.9
2.63 -244.3 361.5 342 195.4 293.1 -48.85 78.16 -107.5 -136.8 -58.62 -78.16 -185.6 29.31 -322.4 -19.54 -19.54 302.9 78.16 -312.7 48.85
2.635 -723 478.7 302.9 234.5 263.8 -68.39 -39.08 -107.5 -185.6 -175.9 -185.6 -214.9 -19.54 -342 -136.8 -205.2 312.7 224.7 -293.1 -87.93
2.64 -478.7 781.6 527.6 537.4 527.6 117.2 156.3 107.5 -244.3 29.31 -19.54 -78.16 87.93 -175.9 -78.16 -214.9 537.4 517.8 -146.6 -78.16
2.645 -351.7 1114 703.5 615.5 703.5 390.8 400.6 381 293.1 527.6 0 136.8 273.6 -39.08 -48.85 -175.9 713.2 889.1 136.8 -254
2.65 -283.3 1212 664.4 830.5 605.8 449.4 273.6 273.6 58.62 136.8 -78.16 195.4 78.16 -48.85 -78.16 -254 693.7 1016 -19.54 -459.2
2.655 -87.93 1251 576.5 771.9 644.8 605.8 361.5 449.4 527.6 576.5 -48.85 263.8 185.6 39.08 -78.16 -244.3 556.9 1094 117.2 -655.1
2.66 -498.3 928.2 195.4 752.3 185.6 302.9 -136.8 29.31 -420.1 -78.16 -283.3 136.8 -214.9 -9.77 -390.8 -332.2 234.5 576.5 -371.3 -615.5
2.665 -234.5 918.4 185.6 898.9 302.9 459.2 273.6 566.7 547.1 1309 -185.6 214.9 -29.31 -48.85 68.39 19.54 273.6 635.1 146.6 -556.9
2.67 -1192 791.4 -195.4 938 -107.5 332.2 -234.5 371.3 -459.2 742.6 -263.8 195.4 -175.9 68.39 -244.3 58.62 -87.93 322.4 -322.4 -655.1
2.675 -244.3 674.2 263.8 889.1 439.7 322.4 517.8 566.7 752.3 1593 87.93 175.9 332.2 -48.85 371.3 302.9 410.4 283.3 371.3 -127
2.68 -576.5 556.9 97.7 859.8 195.4 87.93 87.93 107.5 48.85 293.1 87.93 97.7 273.6 -214.9 78.16 234.5 205.2 -19.54 -166.1 -156.3
2.685 -283.3 547.1 429.9 791.4 508.1 97.7 410.4 117.2 615.5 361.5 322.4 156.3 508.1 -58.62 469 263.8 556.9 48.85 58.62 117.2
2.69 58.62 273.6 146.6 498.3 175.9 -205.2 -58.62 -146.6 -97.7 68.39 175.9 -29.31 332.2 -156.3 214.9 175.9 302.9 -185.6 -361.5 58.62
2.695 -136.8 136.8 0 390.8 39.08 -205.2 -156.3 -185.6 -19.54 -283.3 9.77 -29.31 195.4 -117.2 156.3 195.4 205.2 -185.6 -381 29.31
2.7 -185.6 205.2 -117.2 273.6 -29.31 -117.2 -254 -48.85 -488.5 -58.62 48.85 0 117.2 -19.54 58.62 195.4 78.16 -244.3 -449.4 87.93
2.705 -136.8 254 -166.1 390.8 -9.77 -29.31 -107.5 29.31 -302.9 -224.7 39.08 205.2 166.1 58.62 -78.16 117.2 156.3 -224.7 -185.6 224.7
2.71 400.6 224.7 420.1 703.5 508.1 127 381 312.7 -185.6 39.08 78.16 -332.2 166.1 9.77 39.08 -234.5 566.7 508.1 517.8 117.2
2.715 498.3 302.9 615.5 635.1 732.8 244.3 566.7 381 78.16 58.62 351.7 -351.7 361.5 78.16 87.93 -146.6 703.5 586.2 625.3 214.9
2.72 517.8 556.9 732.8 771.9 879.3 517.8 810.9 791.4 469 869.6 273.6 -195.4 322.4 342 263.8 214.9 762.1 840.3 742.6 -39.08
2.725 478.7 810.9 635.1 742.6 703.5 830.5 810.9 1212 742.6 1788 234.5 -166.1 205.2 498.3 234.5 371.3 635.1 977 732.8 -302.9
2.73 -214.9 771.9 195.4 644.8 214.9 644.8 342 889.1 283.3 791.4 -136.8 -224.7 0 615.5 -19.54 566.7 293.1 791.4 312.7 -615.5
2.735 -488.5 556.9 -58.62 566.7 -97.7 488.5 146.6 791.4 254 771.9 -381 -400.6 -351.7 322.4 -107.5 576.5 146.6 478.7 117.2 -469
2.74 -742.6 429.9 -429.9 625.3 -420.1 390.8 -127 635.1 78.16 351.7 -596 -381 -596 400.6 -302.9 576.5 -29.31 263.8 29.31 -488.5
2.745 -908.6 127 -732.8 429.9 -664.4 107.5 -361.5 371.3 -78.16 -19.54 -801.2 -556.9 -850 175.9 -400.6 429.9 -234.5 -9.77 -107.5 -361.5
2.75 -273.6 244.3 -390.8 586.2 -283.3 429.9 136.8 898.9 371.3 1212 -674.6 -322.4 -674.6 351.7 -117.2 596 87.93 195.4 537.4 -195.4
2.755 -351.7 19.54 -566.7 322.4 -332.2 214.9 -29.31 703.5 48.85 889.1 -644.8 -508.1 -703.5 244.3 -576.5 429.9 -136.8 -78.16 390.8 -58.62
2.76 -224.7 -9.77 -527.6 273.6 -332.2 127 -136.8 527.6 -517.8 371.3 -723 -537.4 -713.2 254 -556.9 429.9 -68.39 -127 234.5 9.77
2.765 -342 -29.31 -439.7 283.3 -283.3 78.16 -156.3 478.7 -527.6 850 -596 -664.4 -596 58.62 -644.8 351.7 -78.16 -156.3 195.4 48.85
2.77 -293.1 19.54 -400.6 400.6 -254 -9.77 -322.4 205.2 -703.5 -195.4 -713.2 -625.3 -586.2 58.62 -586.2 234.5 -78.16 -39.08 -244.3 -166.1
2.775 -508.1 -29.31 -400.6 420.1 -156.3 -58.62 -127 156.3 -78.16 29.31 -556.9 -664.4 -556.9 9.77 -469 58.62 -78.16 -117.2 -234.5 -68.39
2.78 -596 -48.85 -244.3 263.8 -48.85 -166.1 -68.39 0 -185.6 -234.5 -596 -655.1 -420.1 -29.31 -332.2 9.77 19.54 -136.8 -263.8 68.39
2.785 -488.5 -478.7 -791.4 -566.7 -527.6 -361.5 -664.4 -351.7 -488.5 -390.8 -586.2 -498.3 -263.8 -244.3 -175.9 -107.5 -498.3 -234.5 -342 -78.16
2.79 -312.7 -850 -898.9 -830.5 -674.6 -527.6 -752.3 -498.3 -556.9 -400.6 -674.6 -459.2 -459.2 -195.4 -185.6 -234.5 -723 -410.4 -537.4 -68.39
2.795 -596 -762.1 -820.7 -693.7 -723 -410.4 -908.6 -469 -752.3 -459.2 -508.1 -214.9 -439.7 29.31 -381 -205.2 -723 -351.7 -781.6 -156.3
2.8 -752.3 -664.4 -576.5 -537.4 -420.1 -293.1 -771.9 -371.3 -801.2 -556.9 -254 -19.54 -146.6 166.1 -459.2 -127 -429.9 -214.9 -655.1 -29.31
2.805 -596 -390.8 -498.3 -517.8 -400.6 -58.62 -693.7 -127 -371.3 -156.3 -283.3 78.16 -254 244.3 -683.9 -87.93 -293.1 -19.54 -449.4 -39.08
2.81 -918.4 195.4 -205.2 -175.9 -205.2 410.4 -469 322.4 -332.2 283.3 -254 332.2 -146.6 371.3 -703.5 185.6 19.54 469 -78.16 -312.7
2.815 39.08 390.8 -48.85 -117.2 -97.7 478.7 -273.6 351.7 -205.2 87.93 -322.4 342 -234.5 214.9 -830.5 -48.85 312.7 556.9 175.9 -175.9
2.82 293.1 713.2 107.5 19.54 68.39 742.6 -29.31 635.1 -127 488.5 -185.6 400.6 -117.2 332.2 -683.9 19.54 615.5 713.2 498.3 -107.5
2.825 381 801.2 136.8 127 48.85 791.4 -87.93 742.6 -332.2 566.7 -234.5 283.3 -175.9 332.2 -840.3 -19.54 596 615.5 469 -39.08
2.83 224.7 820.7 136.8 87.93 146.6 781.6 -29.31 742.6 -322.4 302.9 -127 234.5 -19.54 293.1 -644.8 0 547.1 732.8 332.2 -254
2.835 -312.7 644.8 195.4 -136.8 273.6 615.5 78.16 654.6 -39.08 566.7 9.77 68.39 78.16 273.6 -644.8 58.62 371.3 654.6 283.3 -302.9
2.84 -78.16 371.3 273.6 -498.3 537.4 469 322.4 644.8 371.3 732.8 29.31 -9.77 293.1 283.3 -400.6 78.16 332.2 410.4 449.4 -107.5
2.845 -429.9 48.85 205.2 -850 390.8 195.4 185.6 371.3 254 498.3 146.6 -19.54 322.4 254 -556.9 -68.39 136.8 39.08 283.3 58.62
2.85 -283.3 -146.6 175.9 -1064 400.6 -39.08 205.2 97.7 332.2 -19.54 166.1 -48.85 420.1 244.3 -469 -185.6 107.5 -205.2 234.5 185.6
2.855 -234.5 -146.6 136.8 -1064 214.9 -156.3 9.77 19.54 78.16 293.1 185.6 19.54 293.1 302.9 -713.2 -195.4 97.7 -371.3 136.8 146.6
2.86 -185.6 -175.9 371.3 -1016 283.3 -400.6 107.5 -478.7 283.3 -1104 312.7 48.85 420.1 146.6 -508.1 -381 390.8 -625.3 19.54 498.3
2.865 244.3 58.62 429.9 -586.2 224.7 -381 -9.77 -381 48.85 -498.3 488.5 175.9 361.5 205.2 -820.7 -283.3 605.8 -488.5 68.39 420.1
2.87 625.3 224.7 723 -469 361.5 -351.7 185.6 -322.4 166.1 -615.5 439.7 195.4 488.5 127 -566.7 -283.3 918.4 -371.3 195.4 615.5
2.875 87.93 322.4 762.1 -273.6 322.4 -224.7 78.16 -234.5 -127 -674.6 508.1 205.2 332.2 156.3 -810.9 -263.8 918.4 -78.16 87.93 342
2.88 635.1 342 850 -390.8 498.3 -166.1 283.3 -136.8 -58.62 -576.5 400.6 117.2 439.7 39.08 -644.8 -332.2 986.8 0 273.6 459.2
2.885 175.9 205.2 742.6 -469 342 -214.9 156.3 -263.8 -273.6 -977.5 273.6 -39.08 214.9 -127 -703.5 -420.1 771.9 39.08 0 322.4
2.89 429.9 127 762.1 -449.4 508.1 -136.8 361.5 -136.8 87.93 -586.2 302.9 -48.85 293.1 -205.2 -488.5 -429.9 713.2 166.1 185.6 244.3
2.895 644.8 175.9 576.5 -322.4 400.6 -156.3 263.8 -87.93 97.7 -429.9 371.3 -146.6 361.5 -254 -703.5 -410.4 478.7 263.8 -48.85 19.54
2.9 400.6 39.08 420.1 -439.7 312.7 -302.9 136.8 -312.7 -205.2 -683.9 254 -312.7 351.7 -263.8 -625.3 -488.5 371.3 -48.85 -195.4 195.4
2.905 361.5 39.08 566.7 -469 420.1 -283.3 381 -127 371.3 -78.16 508.1 -293.1 517.8 -312.7 -469 -420.1 527.6 29.31 19.54 361.5
2.91 127 -29.31 390.8 -596 107.5 -400.6 9.77 -381 -332.2 -586.2 302.9 -273.6 312.7 -254 -596 -498.3 410.4 -39.08 -156.3 371.3
2.915 263.8 -29.31 517.8 -644.8 156.3 -322.4 48.85 -244.3 -87.93 -371.3 322.4 -39.08 185.6 -107.5 -615.5 -488.5 469 127 0 224.7
2.92 175.9 107.5 723 -547.6 332.2 -78.16 136.8 -68.39 -371.3 -263.8 420.1 175.9 381 29.31 -566.7 -439.7 713.2 234.5 166.1 410.4
2.925 312.7 234.5 908.6 -508.1 498.3 97.7 254 48.85 -127 -556.9 469 400.6 420.1 361.5 -547.6 -508.1 938 312.7 420.1 537.4
2.93 605.8 478.7 1075 -283.3 898.9 439.7 781.6 478.7 654.6 234.5 547.1 556.9 635.1 498.3 -273.6 -234.5 1163 625.3 947.7 517.8
2.935 400.6 439.7 1026 -244.3 830.5 429.9 742.6 312.7 517.8 -156.3 429.9 537.4 566.7 459.2 -244.3 -254 1094 635.1 771.9 488.5
2.94 488.5 547.1 996.6 -195.4 986.8 498.3 1036 420.1 928.2 185.6 342 488.5 547.1 439.7 48.85 -107.5 1212 615.5 1124 625.3
2.945 -39.08 586.2 801.2 -68.39 850 547.1 1016 459.2 752.3 615.5 322.4 351.7 527.6 322.4 146.6 -97.7 947.7 566.7 869.6 537.4
2.95 -156.3 439.7 723 -185.6 732.8 400.6 967.3 283.3 820.7 478.7 244.3 175.9 576.5 195.4 302.9 -48.85 889.1 449.4 918.4 605.8
2.955 127 449.4 498.3 -58.62 498.3 293.1 654.6 263.8 273.6 732.8 293.1 58.62 478.7 87.93 -29.31 -136.8 625.3 332.2 517.8 400.6
2.96 293.1 254 498.3 -19.54 254 -117.2 381 -449.4 -19.54 -1104 107.5 -58.62 508.1 -175.9 -9.77 -293.1 625.3 -58.62 48.85 498.3
2.965 166.1 205.2 78.16 87.93 -185.6 -234.5 -185.6 -351.7 -449.4 -312.7 -29.31 -136.8 136.8 -156.3 -371.3 -371.3 214.9 -175.9 -361.5 127
2.97 234.5 78.16 -117.2 185.6 -478.7 -517.8 -605.8 -820.7 -987.3 -1553 -263.8 -146.6 -39.08 -273.6 -655.1 -547.6 -78.16 -410.4 -908.6 9.77
2.975 -312.7 -107.5 -410.4 68.39 -801.2 -703.5 -928.2 -947.7 -1270 -1446 -420.1 -273.6 -332.2 -361.5 -840.3 -615.5 -508.1 -556.9 -1280 -312.7
2.98 -351.7 -302.9 -635.6 9.77 -869.6 -683.9 -908.6 -859.8 -1211 -1153 -517.8 -283.3 -420.1 -234.5 -938 -537.4 -703.5 -732.8 -1114 -234.5
2.985 -332.2 -537.4 -693.7 -195.4 -742.6 -742.6 -615.5 -850 -517.8 -1192 -469 -361.5 -234.5 -273.6 -850 -478.7 -655.1 -859.8 -879.8 29.31
2.99 -322.4 -400.6 -556.9 -68.39 -596 -429.9 -410.4 -537.4 -683.9 -635.6 -342 -156.3 -78.16 -68.39 -527.6 -175.9 -420.1 -596 -469 68.39
2.995 -361.5 -351.7 -644.8 -136.8 -625.3 -332.2 -322.4 -351.7 -263.8 -342 -342 -166.1 -175.9 87.93 -625.3 -273.6 -420.1 -459.2 -332.2 29.31
3 39.08 185.6 -166.1 205.2 -263.8 166.1 97.7 195.4 293.1 390.8 -214.9 68.39 -19.54 185.6 -244.3 -39.08 39.08 0 136.8 0
3.005 234.5 263.8 -58.62 302.9 -342 234.5 -58.62 214.9 -9.77 205.2 -214.9 19.54 -244.3 234.5 -459.2 -166.1 127 -78.16 78.16 29.31
3.01 234.5 537.4 254 586.2 -29.31 508.1 302.9 664.4 478.7 1153 -175.9 175.9 -117.2 302.9 -371.3 -48.85 439.7 273.6 498.3 -58.62
3.015 488.5 469 381 576.5 -48.85 351.7 107.5 234.5 0 -175.9 -254 -9.77 -273.6 156.3 -498.3 -244.3 488.5 224.7 175.9 9.77
3.02 156.3 449.4 498.3 508.1 195.4 469 332.2 517.8 117.2 820.7 -244.3 -9.77 -166.1 263.8 -410.4 -127 683.9 263.8 615.5 293.1
3.025 -87.93 410.4 469 439.7 205.2 166.1 342 39.08 58.62 -693.7 -87.93 -205.2 -39.08 -39.08 -312.7 -293.1 635.1 195.4 322.4 332.2
3.03 -175.9 420.1 429.9 371.3 224.7 224.7 342 205.2 205.2 -263.8 -87.93 -146.6 29.31 -19.54 -175.9 -195.4 713.2 322.4 527.6 449.4
3.035 -342 449.4 48.85 390.8 29.31 312.7 283.3 439.7 29.31 342 -156.3 -136.8 39.08 -29.31 -478.7 -9.77 302.9 371.3 400.6 -39.08
3.04 -478.7 469 -185.6 410.4 -244.3 185.6 9.77 214.9 -39.08 -498.3 -400.6 -175.9 -97.7 -19.54 -342 19.54 39.08 254 -9.77 -332.2
3.045 68.39 644.8 -78.16 517.8 -224.7 439.7 9.77 732.8 -97.7 879.3 -224.7 -9.77 -58.62 214.9 -420.1 263.8 127 420.1 244.3 -381
3.05 -136.8 703.5 -166.1 537.4 -351.7 488.5 -185.6 713.2 -156.3 596 -390.8 19.54 -322.4 283.3 -478.7 302.9 -39.08 420.1 -39.08 -674.6
3.055 9.77 703.5 -87.93 400.6 -400.6 381 -283.3 459.2 -166.1 -78.16 -205.2 -9.77 -283.3 244.3 -410.4 87.93 -9.77 429.9 -195.4 -655.1
3.06 19.54 879.3 117.2 390.8 -107.5 635.1 -58.62 683.9 -29.31 351.7 -166.1 254 -185.6 439.7 -381 254 127 527.6 -9.77 -566.7
3.065 -342 683.9 -185.6 205.2 -361.5 361.5 -410.4 420.1 -381 -78.16 -371.3 -29.31 -312.7 146.6 -762.1 39.08 -224.7 312.7 -410.4 -683.9
3.07 -390.8 732.8 -127 322.4 -166.1 459.2 -146.6 586.2 185.6 332.2 -322.4 146.6 -234.5 234.5 -361.5 175.9 -273.6 361.5 -244.3 -703.5
3.075 -683.9 371.3 -459.2 254 -400.6 78.16 -517.8 205.2 -302.9 -87.93 -361.5 -87.93 -381 -39.08 -556.9 185.6 -586.2 48.85 -625.3 -732.8
3.08 -596 214.9 -429.9 234.5 -263.8 58.62 -381 322.4 -127 478.7 -293.1 -156.3 -342 0 -185.6 283.3 -517.8 -58.62 -429.9 -547.6
3.085 -820.7 29.31 -693.7 195.4 -576.5 -136.8 -693.7 48.85 -293.1 175.9 -400.6 -195.4 -576.5 9.77 -439.7 195.4 -655.1 -302.9 -713.2 -459.2
3.09 -693.7 29.31 -342 48.85 -273.6 0 -283.3 175.9 439.7 605.8 -224.7 -166.1 -273.6 78.16 -78.16 175.9 -263.8 -254 -166.1 -166.1
3.095 -781.6 48.85 -263.8 87.93 -283.3 0 -371.3 68.39 234.5 576.5 -273.6 -58.62 -254 58.62 -263.8 136.8 -205.2 -107.5 -166.1 -175.9
3.1 -801.2 332.2 -19.54 185.6 -127 351.7 -175.9 390.8 361.5 1036 -263.8 185.6 -185.6 273.6 -68.39 342 87.93 136.8 107.5 -87.93
3.105 -195.4 381 29.31 293.1 -9.77 361.5 -97.7 381 234.5 830.5 -39.08 107.5 19.54 166.1 9.77 342 78.16 254 48.85 -214.9
3.11 -58.62 732.8 224.7 556.9 136.8 683.9 -29.31 693.7 -78.16 1104 166.1 332.2 68.39 478.7 97.7 566.7 263.8 615.5 68.39 -469
3.115 127 674.2 175.9 498.3 107.5 488.5 -58.62 410.4 -234.5 48.85 371.3 175.9 156.3 146.6 68.39 371.3 195.4 674.2 -156.3 -605.8
3.12 224.7 732.8 263.8 517.8 244.3 547.1 87.93 517.8 39.08 214.9 449.4 195.4 127 244.3 136.8 429.9 342 703.5 78.16 -556.9
3.125 48.85 664.4 361.5 547.1 342 449.4 185.6 400.6 78.16 -381 449.4 166.1 293.1 117.2 205.2 342 420.1 683.9 87.93 -400.6
3.13 -9.77 664.4 234.5 615.5 224.7 635.1 166.1 703.5 9.77 254 322.4 283.3 136.8 273.6 117.2 429.9 322.4 801.2 195.4 -537.4
3.135 39.08 547.1 195.4 508.1 263.8 625.3 322.4 762.1 273.6 508.1 342 175.9 273.6 283.3 107.5 410.4 254 801.2 293.1 -566.7
3.14 -9.77 547.1 420.1 576.5 439.7 771.9 439.7 879.3 332.2 820.7 342 234.5 273.6 361.5 371.3 439.7 420.1 625.3 478.7 -322.4
3.145 78.16 390.8 244.3 351.7 332.2 576.5 351.7 644.8 439.7 664.4 254 68.39 117.2 175.9 293.1 146.6 351.7 244.3 459.2 -58.62
3.15 -136.8 332.2 254 224.7 254 537.4 254 556.9 381 605.8 48.85 48.85 -87.93 166.1 283.3 166.1 244.3 -9.77 390.8 9.77
3.155 29.31 146.6 0 283.3 78.16 214.9 29.31 185.6 146.6 -58.62 0 -58.62 -156.3 -48.85 127 68.39 39.08 -195.4 58.62 -29.31
3.16 -185.6 -48.85 -48.85 195.4 58.62 175.9 29.31 263.8 205.2 312.7 -195.4 -127 -263.8 -97.7 156.3 39.08 -87.93 -332.2 117.2 68.39
3.165 -342 -205.2 -195.4 224.7 -9.77 -19.54 -48.85 39.08 68.39 -234.5 -19.54 -175.9 -166.1 -166.1 185.6 156.3 -107.5 -390.8 -97.7 39.08
3.17 -234.5 -263.8 -78.16 205.2 107.5 9.77 146.6 214.9 498.3 136.8 117.2 -175.9 39.08 -195.4 390.8 166.1 -9.77 -293.1 166.1 87.93
3.175 -322.4 -273.6 -156.3 214.9 78.16 68.39 166.1 342 967.3 166.1 156.3 -175.9 0 -127 371.3 195.4 -68.39 -166.1 175.9 -78.16
3.18 97.7 -254 -68.39 234.5 117.2 78.16 136.8 342 224.7 214.9 449.4 -185.6 322.4 -39.08 390.8 263.8 78.16 -263.8 195.4 136.8
3.185 244.3 -342 -107.5 254 -9.77 39.08 58.62 273.6 586.2 -117.2 293.1 -263.8 224.7 -117.2 283.3 156.3 -58.62 -381 214.9 156.3
3.19 97.7 -254 -78.16 371.3 19.54 39.08 0 254 156.3 -146.6 400.6 -234.5 322.4 -87.93 302.9 224.7 -58.62 -322.4 205.2 127
3.195 263.8 -342 -97.7 332.2 48.85 -156.3 68.39 -39.08 146.6 -371.3 517.8 -332.2 302.9 -185.6 488.5 29.31 -9.77 -469 263.8 283.3
3.2 429.9 -244.3 -48.85 469 136.8 -78.16 244.3 78.16 449.4 -48.85 537.4 -224.7 322.4 -68.39 644.8 48.85 97.7 -459.2 439.7 400.6
3.205 371.3 -400.6 -97.7 175.9 224.7 -244.3 459.2 -9.77 752.3 -19.54 615.5 -302.9 381 -58.62 762.1 -68.39 156.3 -586.2 615.5 674.2
3.21 615.5 -371.3 9.77 117.2 371.3 -117.2 683.9 175.9 1133 361.5 547.1 -224.7 351.7 -19.54 713.2 136.8 214.9 -439.7 918.4 703.5
3.215 322.4 -429.9 87.93 -107.5 429.9 -117.2 752.3 195.4 947.7 566.7 390.8 -283.3 302.9 87.93 566.7 205.2 254 -283.3 1026 713.2
3.22 283.3 -224.7 117.2 0 449.4 214.9 820.7 605.8 1153 1348 68.39 -127 58.62 185.6 332.2 566.7 254 9.77 1251 459.2
3.225 342 -390.8 156.3 -117.2 371.3 68.39 596 429.9 840.3 1094 156.3 -283.3 48.85 87.93 273.6 527.6 283.3 -78.16 1065 576.5
3.23 136.8 -263.8 0 68.39 136.8 175.9 234.5 293.1 439.7 537.4 68.39 -68.39 -117.2 254 146.6 586.2 136.8 -68.39 683.9 342
3.235 68.39 -439.7 -185.6 9.77 -97.7 -107.5 -48.85 -48.85 429.9 -19.54 175.9 -146.6 -127 78.16 175.9 390.8 -39.08 -322.4 283.3 263.8
3.24 0 -459.2 -273.6 9.77 -273.6 -136.8 -390.8 -29.31 -156.3 293.1 302.9 -87.93 -117.2 175.9 78.16 469 -185.6 -527.6 19.54 214.9
3.245 -644.8 -537.4 -576.5 -156.3 -517.8 -361.5 -625.3 -254 -332.2 -39.08 342 -205.2 -9.77 39.08 -78.16 283.3 -381 -723 -322.4 175.9
3.25 -127 -48.85 -302.9 127 -312.7 19.54 -361.5 381 -185.6 1583 302.9 29.31 48.85 224.7 -48.85 498.3 -224.7 -342 -19.54 -39.08
3.255 -605.8 19.54 -449.4 29.31 -459.2 -127 -664.4 -127 -781.6 58.62 293.1 -68.39 -97.7 117.2 -302.9 48.85 -361.5 -293.1 -605.8 -263.8
3.26 9.77 381 -127 273.6 39.08 117.2 19.54 185.6 508.1 478.7 400.6 127 156.3 205.2 117.2 107.5 -19.54 78.16 -58.62 -146.6
3.265 136.8 420.1 -146.6 185.6 -68.39 68.39 -224.7 -19.54 -527.6 -9.77 410.4 127 -19.54 136.8 -9.77 9.77 -58.62 78.16 -332.2 -156.3
3.27 342 537.4 97.7 214.9 205.2 293.1 58.62 -19.54 39.08 -723 361.5 302.9 48.85 127 263.8 -19.54 29.31 322.4 -302.9 -234.5
3.275 48.85 469 29.31 195.4 -19.54 342 -205.2 39.08 -605.8 -293.1 254 254 -78.16 87.93 -58.62 166.1 -107.5 410.4 -449.4 -469
3.28 166.1 469 390.8 175.9 185.6 429.9 9.77 195.4 -469 -19.54 78.16 254 -97.7 205.2 156.3 312.7 205.2 390.8 -175.9 -185.6
3.285 146.6 508.1 342 312.7 205.2 381 166.1 107.5 273.6 -381 -29.31 175.9 -156.3 156.3 195.4 273.6 205.2 302.9 -156.3 -136.8
3.29 322.4 361.5 537.4 293.1 293.1 351.7 351.7 273.6 146.6 703.5 -9.77 136.8 -146.6 195.4 273.6 469 517.8 136.8 410.4 302.9
3.295 508.1 205.2 508.1 224.7 361.5 107.5 586.2 185.6 742.6 244.3 68.39 -29.31 -107.5 9.77 517.8 332.2 566.7 48.85 605.8 498.3
3.3 723 48.85 566.7 156.3 556.9 48.85 781.6 166.1 703.5 381 254 -68.39 107.5 -29.31 674.2 205.2 703.5 -29.31 820.7 683.9
3.305 1212 68.39 723 127 810.9 68.39 1016 381 820.7 1055 664.4 68.39 429.9 48.85 723 87.93 879.3 -58.62 1212 918.4
3.31 996.6 68.39 752.3 136.8 791.4 39.08 869.6 136.8 781.6 -29.31 752.3 136.8 556.9 78.16 732.8 -136.8 781.6 0 947.7 732.8
3.315 693.7 156.3 674.2 175.9 625.3 97.7 537.4 146.6 312.7 214.9 762.1 205.2 469 78.16 351.7 -205.2 498.3 175.9 586.2 293.1
3.32 19.54 136.8 859.8 107.5 713.2 87.93 615.5 -58.62 615.5 -371.3 713.2 214.9 478.7 19.54 381 -283.3 537.4 117.2 596 400.6
3.325 400.6 97.7 723 19.54 400.6 -48.85 107.5 -469 -273.6 -1036 644.8 117.2 293.1 -127 -29.31 -293.1 302.9 107.5 48.85 175.9
3.33 498.3 166.1 850 146.6 605.8 78.16 312.7 -244.3 -97.7 -449.4 596 166.1 361.5 -78.16 97.7 -146.6 469 273.6 420.1 293.1
3.335 439.7 185.6 576.5 244.3 283.3 48.85 -19.54 -342 -762.1 -635.6 254 244.3 9.77 -107.5 -97.7 -185.6 195.4 400.6 0 -117.2
3.34 713.2 332.2 517.8 420.1 420.1 302.9 224.7 39.08 -449.4 283.3 224.7 342 78.16 -29.31 107.5 -39.08 273.6 459.2 263.8 -48.85
3.345 -166.1 293.1 254 508.1 293.1 205.2 224.7 -29.31 -224.7 -87.93 48.85 342 19.54 -185.6 127 -78.16 127 469 117.2 -166.1
3.35 -146.6 175.9 -224.7 410.4 -97.7 78.16 -87.93 -146.6 -469 -175.9 -400.6 302.9 -273.6 -254 -117.2 -78.16 -312.7 273.6 -146.6 -312.7
3.355 -244.3 19.54 -293.1 244.3 -127 -58.62 -9.77 -234.5 -39.08 29.31 -390.8 312.7 -312.7 -283.3 -9.77 -78.16 -420.1 195.4 -146.6 -312.7
3.36 -224.7 -234.5 -498.3 117.2 -302.9 -342 -175.9 -664.4 -195.4 -752.3 -586.2 273.6 -449.4 -390.8 -48.85 -146.6 -566.7 -195.4 -361.5 -87.93
3.365 -19.54 -400.6 -566.7 -29.31 -449.4 -420.1 -322.4 -566.7 -117.2 -107.5 -605.8 254 -605.8 -263.8 -205.2 -87.93 -615.5 -322.4 -302.9 -58.62
3.37 -97.7 -322.4 -400.6 283.3 -342 -381 -254 -469 39.08 127 -478.7 410.4 -469 -136.8 -156.3 -107.5 -498.3 -322.4 -449.4 -136.8
3.375 19.54 -478.7 -439.7 185.6 -439.7 -478.7 -429.9 -459.2 -97.7 166.1 -420.1 244.3 -586.2 -87.93 -244.3 -127 -605.8 -342 -615.5 -244.3
3.38 -48.85 -410.4 -283.3 224.7 -342 -283.3 -381 -185.6 68.39 1290 -293.1 293.1 -371.3 68.39 -254 78.16 -390.8 -342 -254 -9.77
3.385 -400.6 -420.1 -791.4 400.6 -781.6 -410.4 -928.2 -674.6 -332.2 -429.9 -586.2 283.3 -644.8 0 -263.8 -166.1 -889.1 -488.5 -1153 -420.1
3.39 -127 -390.8 -664.4 429.9 -713.2 -420.1 -947.7 -810.9 -967.8 -674.6 -400.6 332.2 -410.4 -19.54 -254 -58.62 -742.6 -488.5 -1036 -214.9
3.395 -332.2 -205.2 -752.3 723 -771.9 -351.7 -996.6 -791.4 -771.9 -1240 -390.8 429.9 -371.3 -29.31 -322.4 -39.08 -869.6 -244.3 -1211 -527.6
3.4 -390.8 -127 -752.3 840.3 -732.8 -244.3 -957.5 -683.9 -1260 -1153 -410.4 459.2 -400.6 9.77 -224.7 -9.77 -889.1 -185.6 -1211 -615.5
3.405 -429.9 -68.39 -655.1 947.7 -576.5 -127 -771.9 -410.4 -879.8 -683.9 -351.7 439.7 -351.7 9.77 -332.2 107.5 -830.5 -29.31 -977.5 -556.9
3.41 -742.6 -195.4 -615.5 762.1 -439.7 -185.6 -556.9 -293.1 -635.6 -166.1 -214.9 322.4 -244.3 58.62 0 195.4 -752.3 -9.77 -605.8 -400.6
3.415 -898.9 -342 -859.8 654.6 -644.8 -312.7 -693.7 -332.2 -752.3 -39.08 -420.1 175.9 -371.3 -78.16 -244.3 195.4 -1133 -9.77 -859.8 -664.4
3.42 -527.6 -508.1 -644.8 488.5 -439.7 -508.1 -420.1 -605.8 -117.2 -703.5 -351.7 68.39 -214.9 -175.9 136.8 136.8 -918.4 -293.1 -625.3 -175.9
3.425 -801.2 -615.5 -996.6 205.2 -605.8 -547.6 -361.5 -439.7 381 -146.6 -644.8 58.62 -293.1 -205.2 244.3 97.7 -1221 -449.4 -635.6 -293.1
3.43 -244.3 -576.5 -918.4 410.4 -566.7 -508.1 -234.5 -312.7 615.5 58.62 -674.6 293.1 -342 -214.9 351.7 195.4 -1133 -527.6 -498.3 -224.7
3.435 -683.9 -723 -1339 175.9 -1025 -547.6 -664.4 -312.7 -48.85 156.3 -967.8 224.7 -713.2 -224.7 -107.5 -9.77 -1416 -644.8 -830.5 -469
3.44 -293.1 -596 -1085 244.3 -859.8 -439.7 -586.2 -254 -371.3 293.1 -830.5 263.8 -635.6 -244.3 -195.4 -48.85 -1143 -713.2 -752.3 -283.3
3.445 -302.9 -576.5 -1036 332.2 -820.7 -351.7 -693.7 -156.3 -859.8 517.8 -732.8 205.2 -576.5 -254 -508.1 -78.16 -977.5 -664.4 -693.7 -195.4
3.45 48.85 -498.3 -683.9 312.7 -556.9 -263.8 -478.7 -58.62 -390.8 547.1 -547.6 117.2 -449.4 -214.9 -156.3 0 -683.9 -449.4 -439.7 -39.08
3.455 -48.85 -498.3 -547.6 420.1 -263.8 -214.9 -254 58.62 -205.2 596 -361.5 39.08 -263.8 -214.9 -58.62 97.7 -586.2 -293.1 -322.4 -58.62
3.46 -214.9 -234.5 -293.1 39.08 -19.54 -302.9 -97.7 19.54 58.62 273.6 -68.39 29.31 127 -19.54 342 175.9 -283.3 -410.4 175.9 68.39
3.465 -703.5 -498.3 -527.6 -273.6 -214.9 -625.3 -351.7 -234.5 -420.1 312.7 -351.7 -205.2 -185.6 -234.5 29.31 -214.9 -400.6 -703.5 0 195.4
3.47 -254 -351.7 -273.6 -127 9.77 -508.1 -136.8 -254 214.9 -58.62 -166.1 -195.4 -78.16 -254 224.7 -195.4 -166.1 -556.9 107.5 283.3
3.475 -312.7 -29.31 -224.7 156.3 19.54 -127 -107.5 214.9 68.39 859.8 -312.7 87.93 -224.7 9.77 87.93 -9.77 19.54 -48.85 234.5 -58.62
3.48 -224.7 68.39 -107.5 224.7 97.7 68.39 -68.39 342 312.7 781.6 -381 175.9 -263.8 107.5 -58.62 146.6 87.93 175.9 146.6 -244.3
3.485 -420.1 117.2 -78.16 322.4 -29.31 127 -205.2 224.7 107.5 117.2 -478.7 234.5 -273.6 87.93 -87.93 224.7 97.7 175.9 -78.16 -234.5
3.49 -420.1 185.6 78.16 371.3 185.6 273.6 146.6 469 605.8 644.8 -273.6 351.7 -29.31 254 146.6 371.3 175.9 263.8 195.4 -234.5
3.495 -381 9.77 -78.16 322.4 -19.54 78.16 -156.3 351.7 -185.6 439.7 -381 244.3 -136.8 175.9 0 205.2 -68.39 117.2 -97.7 -332.2
3.5 -400.6 -9.77 19.54 322.4 166.1 107.5 175.9 390.8 381 674.2 -166.1 322.4 48.85 312.7 390.8 293.1 -39.08 48.85 107.5 -244.3
3.505 -68.39 -48.85 146.6 429.9 293.1 -29.31 127 214.9 -127 439.7 136.8 322.4 156.3 195.4 293.1 224.7 78.16 9.77 127 -185.6
3.51 -205.2 -107.5 78.16 312.7 312.7 48.85 244.3 322.4 185.6 752.3 117.2 322.4 214.9 254 254 351.7 -48.85 68.39 293.1 -205.2
3.515 -293.1 -185.6 166.1 214.9 332.2 -97.7 302.9 19.54 -68.39 146.6 78.16 136.8 97.7 19.54 175.9 332.2 -19.54 68.39 283.3 -195.4
3.52 -713.2 107.5 175.9 361.5 410.4 312.7 469 517.8 390.8 918.4 39.08 293.1 156.3 224.7 78.16 469 -58.62 478.7 508.1 -469
3.525 -556.9 107.5 244.3 214.9 400.6 175.9 410.4 283.3 127 322.4 -214.9 146.6 -127 146.6 166.1 390.8 48.85 488.5 381 -371.3
3.53 -283.3 478.7 390.8 498.3 576.5 556.9 605.8 771.9 429.9 1202 -19.54 478.7 9.77 429.9 224.7 351.7 195.4 830.5 615.5 -498.3
3.535 -205.2 527.6 175.9 488.5 312.7 469 273.6 576.5 29.31 498.3 -214.9 644.8 -166.1 576.5 -175.9 293.1 -39.08 791.4 263.8 -683.9
3.54 175.9 478.7 273.6 429.9 429.9 410.4 429.9 586.2 136.8 1016 -127 683.9 -19.54 517.8 244.3 381 9.77 576.5 439.7 -439.7
3.545 -342 488.5 -156.3 527.6 -29.31 449.4 -107.5 586.2 -185.6 957.5 -508.1 820.7 -322.4 635.1 -185.6 410.4 -517.8 469 -48.85 -869.6
3.55 -928.2 322.4 -293.1 332.2 -29.31 390.8 -48.85 615.5 -107.5 1172 -498.3 635.1 -244.3 508.1 68.39 478.7 -596 361.5 -19.54 -742.6
3.555 -527.6 39.08 -400.6 175.9 -87.93 185.6 -9.77 302.9 29.31 850 -498.3 361.5 -205.2 293.1 166.1 351.7 -576.5 351.7 -29.31 -703.5
3.56 -605.8 185.6 -283.3 283.3 39.08 420.1 205.2 556.9 361.5 1182 -332.2 429.9 -156.3 420.1 205.2 420.1 -351.7 586.2 273.6 -635.6
3.565 -39.08 234.5 -127 214.9 195.4 478.7 400.6 644.8 400.6 1593 -234.5 390.8 0 293.1 322.4 351.7 -39.08 713.2 537.4 -400.6
3.57 449.4 459.2 556.9 361.5 596 625.3 801.2 674.2 1026 1163 195.4 586.2 283.3 390.8 576.5 381 342 859.8 830.5 -234.5
3.575 -322.4 351.7 449.4 156.3 390.8 469 547.1 635.1 850 1182 97.7 517.8 78.16 254 420.1 283.3 293.1 654.6 703.5 -156.3
3.58 -146.6 625.3 420.1 312.7 234.5 674.2 302.9 791.4 459.2 928.2 107.5 820.7 19.54 527.6 342 469 97.7 820.7 439.7 -586.2
3.585 -830.5 351.7 234.5 0 205.2 449.4 302.9 683.9 732.8 703.5 97.7 615.5 58.62 469 117.2 469 0 508.1 429.9 -449.4
3.59 -508.1 146.6 -29.31 -185.6 -78.16 429.9 -39.08 820.7 224.7 1085 0 683.9 -117.2 517.8 127 410.4 -127 400.6 361.5 -381
3.595 -830.5 9.77 -332.2 -224.7 -332.2 332.2 -234.5 674.2 87.93 527.6 -166.1 625.3 -254 469 -234.5 293.1 -351.7 508.1 107.5 -615.5
3.6 -830.5 -87.93 -312.7 -410.4 -263.8 351.7 -195.4 908.6 -39.08 1768 -156.3 615.5 -195.4 429.9 -234.5 371.3 -342 469 322.4 -439.7
3.605 -987.3 -322.4 -342 -683.9 -371.3 -39.08 -342 166.1 195.4 -322.4 -488.5 293.1 -361.5 107.5 -234.5 -48.85 -439.7 156.3 -224.7 -439.7
3.61 -850 -78.16 -283.3 -420.1 -400.6 19.54 -469 254 -439.7 205.2 -449.4 371.3 -332.2 127 -351.7 68.39 -332.2 156.3 -166.1 -390.8
3.615 -644.8 -58.62 -136.8 -527.6 -185.6 -146.6 -205.2 107.5 302.9 -361.5 -508.1 166.1 -293.1 -9.77 -127 29.31 -195.4 185.6 -136.8 -400.6
3.62 -596 19.54 -302.9 -517.8 -459.2 -244.3 -635.6 -97.7 -703.5 -644.8 -655.1 107.5 -517.8 -87.93 -361.5 -185.6 -332.2 58.62 -508.1 -527.6
3.625 -801.2 -156.3 -224.7 -723 -429.9 -361.5 -625.3 -254 -517.8 -566.7 -655.1 -78.16 -537.4 -185.6 -351.7 -400.6 -214.9 -107.5 -410.4 -273.6
3.63 -752.3 117.2 -78.16 -683.9 -381 -107.5 -693.7 -68.39 -1016 -429.9 -576.5 19.54 -488.5 -48.85 -459.2 -381 -263.8 9.77 -478.7 -361.5
3.635 -390.8 -175.9 -39.08 -947.7 -224.7 -312.7 -664.4 -312.7 -1025 -889.1 -371.3 -214.9 -205.2 -273.6 -527.6 -605.8 -68.39 -166.1 -390.8 29.31
3.64 -39.08 -117.2 29.31 -840.3 -156.3 -68.39 -400.6 19.54 -429.9 -205.2 -400.6 -185.6 -78.16 -39.08 -293.1 -332.2 -214.9 58.62 -175.9 -87.93
3.645 322.4 -9.77 68.39 -537.4 -9.77 58.62 -420.1 185.6 -655.1 -29.31 -107.5 -273.6 19.54 29.31 -273.6 -127 -9.77 58.62 -117.2 87.93
3.65 -332.2 -166.1 -146.6 -644.8 -97.7 97.7 -302.9 263.8 146.6 185.6 -371.3 -390.8 -107.5 107.5 -156.3 48.85 -205.2 127 -48.85 -48.85
3.655 -224.7 -205.2 -234.5 -596 -283.3 -9.77 -644.8 78.16 -713.2 -175.9 -371.3 -615.5 -283.3 19.54 -293.1 -9.77 -127 -29.31 -244.3 48.85
3.66 -107.5 -68.39 78.16 -605.8 0 127 -234.5 146.6 29.31 -478.7 -332.2 -537.4 -48.85 205.2 -97.7 146.6 -19.54 127 -107.5 68.39
3.665 342 -312.7 -29.31 -830.5 -58.62 -175.9 -136.8 -107.5 0 -547.6 -478.7 -742.6 -107.5 87.93 117.2 -97.7 175.9 -214.9 175.9 508.1
3.67 390.8 68.39 -97.7 -390.8 -58.62 117.2 -78.16 234.5 244.3 -332.2 -410.4 -556.9 -68.39 263.8 48.85 156.3 19.54 -87.93 214.9 273.6
3.675 312.7 -117.2 -273.6 -459.2 -156.3 19.54 107.5 381 830.5 29.31 -478.7 -644.8 -127 195.4 127 78.16 -175.9 -48.85 312.7 78.16
3.68 449.4 87.93 -322.4 -224.7 -127 254 156.3 840.3 703.5 947.7 -420.1 -556.9 -205.2 273.6 166.1 381 -312.7 146.6 576.5 -127
3.685 29.31 -273.6 -556.9 -439.7 -439.7 -117.2 -254 195.4 68.39 -703.5 -683.9 -781.6 -361.5 -48.85 -68.39 48.85 -527.6 -224.7 39.08 -87.93
3.69 -48.85 -146.6 -185.6 -459.2 -117.2 117.2 19.54 400.6 146.6 -371.3 -527.6 -605.8 -175.9 87.93 97.7 136.8 -195.4 -48.85 381 107.5
3.695 166.1 -175.9 -136.8 -410.4 -166.1 -68.39 -127 0 -107.5 -1006 -439.7 -674.6 -78.16 -68.39 156.3 -19.54 -156.3 -97.7 127 117.2
3.7 -127 -312.7 -107.5 -576.5 -185.6 -117.2 -117.2 -127 -48.85 -771.9 -449.4 -723 0 -146.6 234.5 -117.2 -146.6 -244.3 78.16 254
3.705 410.4 -332.2 97.7 -439.7 39.08 -175.9 136.8 -68.39 400.6 -205.2 -68.39 -586.2 185.6 -117.2 293.1 -48.85 117.2 -254 322.4 439.7
3.71 498.3 -488.5 -9.77 -517.8 9.77 -351.7 87.93 -224.7 498.3 -517.8 -29.31 -537.4 254 -205.2 420.1 -97.7 -127 -410.4 48.85 400.6
3.715 -175.9 -713.2 -234.5 -655.1 -351.7 -644.8 -420.1 -508.1 -488.5 -967.8 -156.3 -537.4 136.8 -254 117.2 -205.2 -400.6 -576.5 -283.3 322.4
3.72 -302.9 -810.9 -39.08 -635.6 -185.6 -664.4 -185.6 -586.2 -312.7 -1201 -9.77 -361.5 214.9 -342 -127 -273.6 -302.9 -625.3 -244.3 420.1
3.725 -420.1 -703.5 -488.5 -449.4 -655.1 -556.9 -664.4 -527.6 -1006 -1221 -400.6 -185.6 -224.7 -293.1 -390.8 -302.9 -605.8 -625.3 -566.7 127
3.73 -293.1 -449.4 -322.4 -224.7 -371.3 -156.3 -136.8 -19.54 29.31 -29.31 -263.8 9.77 -58.62 -156.3 -195.4 -146.6 -351.7 -478.7 -48.85 224.7
3.735 351.7 -371.3 -390.8 -185.6 -390.8 -58.62 -107.5 68.39 87.93 -273.6 -351.7 9.77 -87.93 -166.1 -136.8 -97.7 -273.6 -361.5 78.16 156.3
3.74 615.5 -195.4 -234.5 -68.39 -214.9 146.6 39.08 195.4 459.2 -117.2 -185.6 166.1 39.08 -107.5 234.5 29.31 -97.7 -254 58.62 136.8
3.745 381 -537.4 -136.8 -312.7 -185.6 -175.9 -107.5 -263.8 -78.16 -1182 -146.6 -58.62 48.85 -263.8 58.62 -136.8 -107.5 -459.2 -234.5 312.7
3.75 -87.93 -527.6 -263.8 -293.1 -410.4 -205.2 -469 -205.2 -664.4 -1182 -342 87.93 -39.08 -283.3 -87.93 -175.9 -312.7 -332.2 -586.2 9.77
3.755 87.93 -723 -166.1 -322.4 -449.4 -449.4 -605.8 -429.9 -850 -1456 -429.9 0 -195.4 -420.1 -332.2 -254 -371.3 -381 -723 39.08
3.76 -117.2 -732.8 -273.6 -185.6 -449.4 -420.1 -517.8 -312.7 -791.4 -987.3 -439.7 97.7 -234.5 -381 -234.5 -322.4 -586.2 -312.7 -732.8 -234.5
3.765 -78.16 -742.6 -146.6 -107.5 -390.8 -459.2 -439.7 -273.6 -635.6 -586.2 -390.8 58.62 -254 -478.7 -273.6 -429.9 -449.4 -459.2 -449.4 9.77
3.77 -68.39 -889.1 -273.6 -136.8 -459.2 -605.8 -537.4 -488.5 -655.1 -947.7 -302.9 78.16 -254 -537.4 -87.93 -459.2 -625.3 -644.8 -723 -39.08
3.775 -498.3 -664.4 -302.9 -19.54 -381 -420.1 -390.8 -244.3 -469 -683.9 -224.7 166.1 -87.93 -469 -146.6 -498.3 -527.6 -527.6 -478.7 29.31
3.78 -644.8 -635.6 -410.4 -117.2 -527.6 -322.4 -615.5 -175.9 -820.7 -449.4 -449.4 224.7 -234.5 -429.9 -351.7 -302.9 -742.6 -420.1 -810.9 -322.4
3.785 -283.3 -508.1 -459.2 -48.85 -517.8 -263.8 -576.5 -175.9 -674.6 -537.4 -361.5 254 -195.4 -390.8 -381 -342 -644.8 -400.6 -762.1 -302.9
3.79 -390.8 -635.6 -322.4 -263.8 -400.6 -381 -410.4 -224.7 -224.7 68.39 -322.4 156.3 -78.16 -400.6 -214.9 -439.7 -478.7 -655.1 -420.1 195.4
3.795 117.2 -478.7 -381 -107.5 -498.3 -273.6 -410.4 -175.9 -156.3 -205.2 -136.8 322.4 -117.2 -205.2 -156.3 -410.4 -537.4 -410.4 -469 -156.3
3.8 117.2 -576.5 -234.5 -214.9 -302.9 -390.8 -254 -214.9 9.77 390.8 -9.77 410.4 29.31 -146.6 -312.7 -302.9 -420.1 -488.5 -381 -19.54
3.805 332.2 -537.4 9.77 -195.4 29.31 -400.6 146.6 -234.5 625.3 263.8 146.6 371.3 195.4 -117.2 117.2 -293.1 -185.6 -498.3 19.54 351.7
3.81 508.1 -449.4 29.31 -78.16 -19.54 -429.9 0 -508.1 39.08 -488.5 68.39 469 166.1 -166.1 -68.39 -371.3 -136.8 -459.2 -302.9 273.6
3.815 342 -293.1 -19.54 156.3 -29.31 -312.7 97.7 -439.7 68.39 -469 -39.08 400.6 117.2 -185.6 9.77 -498.3 -39.08 -293.1 -195.4 214.9
3.82 -58.62 -351.7 -78.16 -214.9 -156.3 -283.3 195.4 -48.85 459.2 29.31 -19.54 -87.93 68.39 -48.85 683.9 39.08 -146.6 -429.9 400.6 498.3
3.825 19.54 -371.3 48.85 -234.5 29.31 -166.1 293.1 87.93 762.1 283.3 -39.08 -156.3 214.9 9.77 850 205.2 58.62 -293.1 664.4 644.8
3.83 9.77 -185.6 234.5 -78.16 185.6 175.9 322.4 224.7 742.6 488.5 39.08 -48.85 254 78.16 693.7 302.9 224.7 -58.62 644.8 566.7
3.835 -302.9 -117.2 361.5 -127 332.2 332.2 400.6 312.7 830.5 508.1 87.93 -48.85 429.9 156.3 723 390.8 439.7 87.93 742.6 556.9
3.84 78.16 -146.6 97.7 -175.9 175.9 322.4 293.1 449.4 791.4 977 -127 -117.2 214.9 175.9 586.2 459.2 195.4 -48.85 703.5 508.1
3.845 -97.7 -48.85 371.3 -97.7 459.2 234.5 547.1 469 850 928.2 156.3 -48.85 547.1 156.3 723 459.2 478.7 -19.54 938 674.2
3.85 -195.4 -48.85 -19.54 -78.16 146.6 107.5 410.4 693.7 938 1602 -224.7 -107.5 185.6 156.3 498.3 478.7 39.08 0 742.6 254
3.855 107.5 -39.08 175.9 19.54 312.7 -185.6 693.7 469 996.6 1241 0 -195.4 273.6 -19.54 830.5 351.7 224.7 97.7 859.8 254
3.86 -9.77 48.85 -87.93 87.93 29.31 -254 283.3 381 234.5 1016 -136.8 -302.9 39.08 -107.5 302.9 146.6 29.31 195.4 488.5 19.54
3.865 127 263.8 -68.39 117.2 48.85 -87.93 312.7 439.7 449.4 683.9 -224.7 -205.2 -9.77 -29.31 322.4 -39.08 185.6 429.9 508.1 -78.16
3.87 -19.54 244.3 -381 -9.77 -273.6 -78.16 -273.6 -58.62 -801.2 -576.5 -342 -312.7 -175.9 -175.9 0 -254 -87.93 312.7 -224.7 -273.6
3.875 -381 576.5 -332.2 9.77 -146.6 420.1 -87.93 254 -224.7 -283.3 -390.8 0 -68.39 136.8 -9.77 -185.6 0 596 -87.93 -488.5
3.88 -39.08 527.6 -293.1 -48.85 -107.5 381 -312.7 -166.1 -977.5 -1221 -332.2 -78.16 -97.7 -39.08 -29.31 -332.2 -48.85 214.9 -576.5 -332.2
3.885 -508.1 742.6 -234.5 361.5 9.77 635.1 -224.7 107.5 -791.4 -898.9 -312.7 87.93 9.77 146.6 97.7 -68.39 78.16 429.9 -478.7 -459.2
3.89 -175.9 654.6 -136.8 293.1 117.2 596 -224.7 117.2 -752.3 -508.1 -322.4 -19.54 -117.2 146.6 87.93 -68.39 9.77 293.1 -566.7 -410.4
3.895 -390.8 683.9 -58.62 576.5 205.2 644.8 -107.5 351.7 -547.6 166.1 -244.3 -9.77 -87.93 283.3 195.4 117.2 107.5 390.8 -351.7 -429.9
3.9 -29.31 429.9 19.54 371.3 293.1 361.5 97.7 254 -39.08 390.8 -9.77 -156.3 0 214.9 254 58.62 117.2 136.8 -224.7 -156.3
3.905 -39.08 146.6 -68.39 78.16 136.8 97.7 9.77 156.3 -78.16 469 48.85 -351.7 -39.08 107.5 175.9 97.7 48.85 87.93 -117.2 -9.77
3.91 -332.2 107.5 39.08 -136.8 293.1 205.2 410.4 508.1 723 1319 234.5 -361.5 224.7 185.6 273.6 273.6 9.77 371.3 263.8 -136.8
3.915 -117.2 -283.3 -156.3 -449.4 -48.85 -195.4 9.77 -29.31 19.54 78.16 -78.16 -635.6 -87.93 -78.16 254 87.93 -48.85 19.54 -68.39 78.16
3.92 -596 -234.5 -185.6 -469 -78.16 -39.08 68.39 293.1 117.2 615.5 -48.85 -508.1 -87.93 97.7 195.4 117.2 -68.39 117.2 68.39 0
3.925 -136.8 -342 -195.4 -498.3 -254 -273.6 -244.3 -107.5 -205.2 -283.3 -263.8 -508.1 -302.9 -68.39 58.62 -29.31 68.39 -48.85 -97.7 146.6
3.93 -224.7 -107.5 -166.1 -283.3 -420.1 -166.1 -586.2 -48.85 -586.2 -29.31 -273.6 -361.5 -459.2 29.31 -156.3 -48.85 58.62 -48.85 -342 -9.77
3.935 -175.9 214.9 87.93 68.39 -78.16 48.85 -312.7 58.62 -166.1 39.08 -146.6 -78.16 -244.3 156.3 -39.08 58.62 342 224.7 -185.6 -107.5
3.94 107.5 615.5 381 293.1 312.7 390.8 58.62 400.6 156.3 1045 117.2 117.2 39.08 302.9 39.08 293.1 576.5 312.7 166.1 29.31
3.945 361.5 967.3 654.6 556.9 723 723 478.7 625.3 527.6 1026 273.6 342 224.7 439.7 205.2 234.5 840.3 576.5 488.5 -9.77
3.95 752.3 1143 1006 693.7 1153 977 898.9 791.4 605.8 1534 556.9 390.8 517.8 586.2 332.2 322.4 1075 752.3 850 166.1
3.955 713.2 1143 908.6 723 1075 1045 830.5 683.9 244.3 586.2 361.5 283.3 302.9 508.1 185.6 205.2 957.5 879.3 674.2 -78.16
3.96 263.8 820.7 576.5 459.2 850 781.6 537.4 214.9 -107.5 -420.1 185.6 29.31 87.93 283.3 19.54 -9.77 586.2 605.8 234.5 -9.77
3.965 19.54 801.2 224.7 644.8 596 1055 351.7 517.8 -107.5 -244.3 -146.6 185.6 -29.31 478.7 -195.4 166.1 312.7 898.9 9.77 -517.8
3.97 -58.62 254 -29.31 205.2 273.6 547.1 19.54 -58.62 -459.2 -1133 -302.9 -166.1 -214.9 117.2 -87.93 19.54 39.08 420.1 -361.5 -283.3
3.975 -254 97.7 -224.7 312.7 107.5 556.9 -97.7 234.5 -410.4 -97.7 -449.4 -9.77 -312.7 244.3 -283.3 214.9 -117.2 459.2 -283.3 -439.7
3.98 -146.6 -195.4 -68.39 156.3 205.2 205.2 39.08 -48.85 -400.6 -371.3 -351.7 -263.8 -214.9 0 -48.85 107.5 -39.08 156.3 -263.8 -78.16
3.985 -185.6 -166.1 -146.6 254 87.93 146.6 -48.85 224.7 -390.8 615.5 -547.6 -136.8 -381 127 -87.93 390.8 -58.62 195.4 -107.5 -175.9
3.99 -351.7 -361.5 -87.93 175.9 127 -156.3 -19.54 39.08 -156.3 351.7 -410.4 -263.8 -244.3 -9.77 -107.5 107.5 -107.5 58.62 -97.7 -175.9
3.995 -185.6 -205.2 0 293.1 146.6 -166.1 87.93 224.7 322.4 752.3 -449.4 -58.62 -175.9 127 -175.9 166.1 -107.5 68.39 39.08 -175.9
4 -361.5 -439.7 -9.77 195.4 58.62 -478.7 48.85 -214.9 244.3 175.9 -214.9 -136.8 -127 -127 -127 -39.08 -97.7 -371.3 -156.3 136.8
4.005 -263.8 -322.4 78.16 293.1 0 -459.2 -58.62 -224.7 146.6 332.2 -117.2 9.77 19.54 -97.7 0 -48.85 29.31 -400.6 -175.9 234.5
4.01 -58.62 -527.6 107.5 146.6 -48.85 -781.6 -117.2 -879.8 -68.39 -947.7 48.85 -214.9 136.8 -459.2 195.4 -273.6 39.08 -713.2 -537.4 469
4.015 -19.54 -302.9 117.2 342 78.16 -508.1 -78.16 -439.7 -29.31 -9.77 78.16 -39.08 283.3 -234.5 127 -78.16 156.3 -381 -390.8 214.9
4.02 566.7 -488.5 283.3 254 293.1 -508.1 185.6 -596 312.7 -459.2 283.3 -156.3 459.2 -322.4 361.5 -254 254 -576.5 -224.7 605.8
4.025 713.2 -449.4 205.2 361.5 342 -254 273.6 -312.7 420.1 -117.2 185.6 -19.54 400.6 -136.8 410.4 -136.8 342 -527.6 97.7 664.4
4.03 410.4 -644.8 -146.6 185.6 87.93 -254 97.7 -293.1 381 -48.85 -87.93 -87.93 29.31 -205.2 29.31 -273.6 -48.85 -655.1 -19.54 566.7
4.035 175.9 -615.5 -420.1 195.4 -214.9 -234.5 -127 -244.3 -29.31 -400.6 -400.6 29.31 -351.7 -185.6 -127 -127 -214.9 -615.5 -146.6 342
4.04 -254 -742.6 -771.9 224.7 -605.8 -361.5 -517.8 -361.5 -478.7 -342 -644.8 -87.93 -801.2 -302.9 -683.9 -381 -615.5 -752.3 -566.7 78.16
4.045 -517.8 -732.8 -908.6 302.9 -820.7 -498.3 -850 -469 -1143 -938 -957.5 0 -967.8 -244.3 -938 -410.4 -693.7 -703.5 -791.4 -87.93
4.05 -566.7 -615.5 -947.7 420.1 -987.3 -469 -1006 -410.4 -1201 -478.7 -1016 -9.77 -1094 -254 -1104 -312.7 -889.1 -459.2 -967.8 -469
4.055 -107.5 -547.6 -625.3 508.1 -703.5 -420.1 -635.6 -429.9 -635.6 -459.2 -801.2 -9.77 -801.2 -78.16 -801.2 -312.7 -410.4 -332.2 -537.4 -244.3
4.06 205.2 -322.4 -449.4 449.4 -586.2 -214.9 -420.1 -244.3 -117.2 87.93 -586.2 -29.31 -586.2 -146.6 -488.5 -19.54 -302.9 -254 -332.2 -185.6
4.065 195.4 -68.39 -322.4 478.7 -478.7 39.08 -175.9 -68.39 263.8 351.7 -469 68.39 -420.1 -48.85 -244.3 68.39 -87.93 -58.62 9.77 -136.8
4.07 -166.1 0 -605.8 361.5 -693.7 117.2 -302.9 58.62 -185.6 644.8 -703.5 0 -576.5 -39.08 -410.4 146.6 -420.1 -68.39 -205.2 -390.8
4.075 -19.54 205.2 -439.7 556.9 -429.9 273.6 -58.62 127 48.85 664.4 -644.8 107.5 -420.1 87.93 -283.3 107.5 -214.9 136.8 -9.77 -332.2
4.08 -263.8 136.8 -449.4 527.6 -351.7 136.8 -48.85 19.54 -342 439.7 -566.7 48.85 -400.6 97.7 -263.8 48.85 -400.6 -48.85 -195.4 -322.4
4.085 -302.9 263.8 -312.7 713.2 -127 234.5 107.5 195.4 -283.3 596 -556.9 117.2 -214.9 224.7 -332.2 127 -254 214.9 39.08 -312.7
4.09 -947.7 146.6 -19.54 674.2 39.08 146.6 254 107.5 146.6 371.3 -263.8 -19.54 -185.6 87.93 -58.62 9.77 -136.8 175.9 58.62 -283.3
4.095 -429.9 166.1 -87.93 625.3 -127 312.7 68.39 508.1 -166.1 1661 -361.5 19.54 -381 205.2 -322.4 97.7 -136.8 332.2 175.9 -488.5
4.1 -771.9 -9.77 -293.1 527.6 -459.2 19.54 -312.7 68.39 -312.7 449.4 -439.7 -185.6 -605.8 -9.77 -556.9 19.54 -273.6 -19.54 -312.7 -469
4.105 -312.7 127 -342 576.5 -576.5 87.93 -429.9 254 -390.8 1045 -488.5 -185.6 -674.6 87.93 -596 29.31 -127 -48.85 -254 -517.8
4.11 -87.93 -127 -615.5 381 -859.8 -273.6 -830.5 -371.3 -820.7 -498.3 -527.6 -342 -791.4 -68.39 -791.4 -224.7 -293.1 -449.4 -840.3 -420.1
4.115 -449.4 19.54 -508.1 439.7 -723 -273.6 -801.2 -498.3 -1025 -947.7 -322.4 -244.3 -469 19.54 -615.5 -205.2 0 -312.7 -771.9 -312.7
4.12 -117.2 -78.16 -381 293.1 -576.5 -429.9 -713.2 -801.2 -947.7 -1485 -254 -263.8 -459.2 -107.5 -537.4 -420.1 -9.77 -459.2 -869.6 -58.62
4.125 -156.3 58.62 -234.5 400.6 -351.7 -351.7 -537.4 -732.8 -801.2 -1446 -127 -175.9 -283.3 -9.77 -322.4 -283.3 244.3 -214.9 -586.2 48.85
4.13 195.4 48.85 -127 439.7 -166.1 -244.3 -214.9 -439.7 -449.4 -469 0 -136.8 -195.4 9.77 -19.54 -127 185.6 -175.9 -263.8 97.7
4.135 146.6 146.6 -166.1 508.1 -205.2 -146.6 -195.4 -244.3 -283.3 -302.9 -254 -136.8 -302.9 87.93 -87.93 97.7 166.1 -39.08 -29.31 -9.77
4.14 -58.62 185.6 -185.6 547.1 -175.9 -29.31 -39.08 -87.93 58.62 -19.54 -254 -214.9 -273.6 127 117.2 127 9.77 -97.7 -48.85 -68.39
4.145 -214.9 322.4 -283.3 644.8 -263.8 48.85 -97.7 97.7 -48.85 205.2 -283.3 -48.85 -293.1 244.3 -19.54 332.2 107.5 0 107.5 -58.62
4.15 -410.4 332.2 -332.2 498.3 -361.5 -29.31 -214.9 -166.1 -48.85 -478.7 -420.1 -156.3 -390.8 185.6 -107.5 156.3 -68.39 -29.31 -244.3 -195.4
4.155 -410.4 273.6 -498.3 527.6 -556.9 -48.85 -459.2 -234.5 -410.4 -390.8 -390.8 -78.16 -478.7 127 -351.7 68.39 -156.3 -117.2 -371.3 -214.9
4.16 -615.5 58.62 -400.6 478.7 -478.7 -224.7 -312.7 -488.5 -58.62 -967.8 -234.5 -263.8 -342 -29.31 -263.8 -254 -195.4 -361.5 -400.6 9.77
4.165 -655.1 -156.3 -596 351.7 -683.9 -244.3 -556.9 -429.9 -615.5 -879.8 -420.1 -156.3 -478.7 -19.54 -469 -459.2 -517.8 -322.4 -547.6 -156.3
4.17 -938 -625.3 -781.6 117.2 -781.6 -556.9 -771.9 -703.5 -840.3 -1163 -478.7 -459.2 -517.8 -234.5 -693.7 -683.9 -820.7 -547.6 -801.2 -136.8
4.175 -664.4 -508.1 -752.3 351.7 -703.5 -351.7 -655.1 -283.3 -830.5 -420.1 -615.5 -166.1 -498.3 -39.08 -508.1 -381 -762.1 -234.5 -508.1 -332.2
4.18 -400.6 -810.9 -889.1 9.77 -713.2 -615.5 -791.4 -537.4 -1085 -400.6 -566.7 -400.6 -517.8 -234.5 -596 -420.1 -859.8 -537.4 -556.9 -87.93
4.185 -283.3 -390.8 -664.4 459.2 -517.8 -214.9 -527.6 195.4 -517.8 1290 -381 -117.2 -351.7 -39.08 -312.7 29.31 -596 -136.8 -87.93 -273.6
4.19 -381 -576.5 -947.7 283.3 -771.9 -527.6 -742.6 -517.8 -655.1 -205.2 -449.4 -234.5 -508.1 -302.9 -332.2 -293.1 -840.3 -439.7 -498.3 -234.5
4.195 -58.62 -322.4 -576.5 400.6 -361.5 -244.3 -205.2 -68.39 234.5 1016 -214.9 -87.93 -195.4 -68.39 39.08 -48.85 -537.4 -214.9 19.54 -185.6
4.2 -537.4 -459.2 -752.3 117.2 -586.2 -478.7 -469 -693.7 -185.6 -723 -312.7 -195.4 -410.4 -332.2 -195.4 -254 -674.6 -655.1 -469 9.77
4.205 -371.3 -400.6 -605.8 146.6 -390.8 -420.1 -244.3 -615.5 439.7 -820.7 -302.9 -87.93 -175.9 -166.1 -107.5 -195.4 -420.1 -586.2 -195.4 224.7
4.21 -674.6 -420.1 -762.1 -29.31 -644.8 -459.2 -615.5 -713.2 -127 -1016 -449.4 -136.8 -498.3 -234.5 -322.4 -312.7 -586.2 -664.4 -576.5 48.85
4.215 -322.4 -342 -683.9 107.5 -586.2 -322.4 -674.6 -439.7 -596 -429.9 -381 0 -420.1 29.31 -400.6 -166.1 -410.4 -429.9 -429.9 -78.16
4.22 -263.8 -400.6 -703.5 0 -655.1 -498.3 -801.2 -664.4 -547.6 -977.5 -302.9 -146.6 -586.2 -117.2 -508.1 -234.5 -527.6 -469 -810.9 -195.4
4.225 -78.16 -390.8 -488.5 -48.85 -478.7 -439.7 -586.2 -429.9 -342 -234.5 -214.9 -175.9 -429.9 -39.08 -254 -48.85 -244.3 -381 -390.8 -9.77
4.23 -508.1 -420.1 -596 -273.6 -664.4 -596 -928.2 -732.8 -987.3 -762.1 -214.9 -312.7 -596 -244.3 -625.3 -107.5 -498.3 -420.1 -859.8 -244.3
4.235 -459.2 -449.4 -537.4 -332.2 -605.8 -703.5 -947.7 -840.3 -869.6 -1133 -351.7 -322.4 -625.3 -332.2 -674.6 -19.54 -459.2 -449.4 -898.9 -244.3
4.24 -781.6 -302.9 -127 -342 -185.6 -527.6 -498.3 -605.8 -644.8 -488.5 185.6 -273.6 -146.6 -293.1 -322.4 -78.16 -127 -361.5 -517.8 58.62
4.245 -400.6 -185.6 -136.8 -195.4 -263.8 -498.3 -625.3 -742.6 -644.8 -918.4 -97.7 -107.5 -312.7 -263.8 -322.4 -214.9 -87.93 -429.9 -615.5 39.08
4.25 -566.7 -68.39 -39.08 -117.2 -48.85 -371.3 -273.6 -469 29.31 -429.9 185.6 48.85 -19.54 -117.2 -19.54 -263.8 -29.31 -273.6 -390.8 -19.54
4.255 -244.3 -48.85 -97.7 -156.3 -127 -351.7 -381 -469 -156.3 -351.7 -9.77 107.5 -166.1 -117.2 -29.31 -263.8 -58.62 -283.3 -439.7 -48.85
4.26 -312.7 -117.2 -420.1 -234.5 -332.2 -429.9 -655.1 -547.6 -508.1 -254 -175.9 136.8 -410.4 -117.2 -312.7 -302.9 -332.2 -381 -674.6 -175.9
4.265 -185.6 -136.8 -214.9 -263.8 -195.4 -351.7 -547.6 -469 -508.1 -68.39 -9.77 185.6 -332.2 -78.16 -146.6 -254 -58.62 -312.7 -459.2 39.08
4.27 -420.1 -166.1 -410.4 -410.4 -332.2 -371.3 -771.9 -664.4 -771.9 -762.1 -87.93 87.93 -351.7 -127 -342 -361.5 -351.7 -332.2 -801.2 -87.93
4.275 -254 -97.7 -107.5 -390.8 -224.7 -107.5 -596 -390.8 -556.9 -410.4 -107.5 175.9 -322.4 9.77 -263.8 -205.2 -156.3 -97.7 -517.8 -146.6
4.28 -517.8 -68.39 29.31 -459.2 -146.6 -107.5 -429.9 -293.1 -371.3 -117.2 19.54 87.93 -263.8 9.77 -439.7 -185.6 -29.31 -87.93 -400.6 -9.77
4.285 -273.6 283.3 244.3 -254 -87.93 156.3 -293.1 97.7 -214.9 469 39.08 234.5 -156.3 195.4 -449.4 -29.31 214.9 97.7 -87.93 -97.7
4.29 -146.6 244.3 390.8 -332.2 0 -78.16 -293.1 -117.2 -400.6 -107.5 195.4 185.6 -78.16 97.7 -439.7 29.31 214.9 -9.77 -254 -29.31
4.295 -351.7 381 498.3 -146.6 117.2 -39.08 -87.93 -58.62 -29.31 -68.39 185.6 273.6 58.62 156.3 -410.4 9.77 371.3 39.08 -39.08 -48.85
4.3 -390.8 214.9 322.4 -254 -156.3 -254 -478.7 -449.4 -625.3 -1172 195.4 195.4 19.54 19.54 -517.8 -146.6 78.16 -195.4 -576.5 -107.5
4.305 -459.2 312.7 322.4 -146.6 -195.4 19.54 -410.4 -78.16 -361.5 -410.4 -58.62 381 -68.39 166.1 -429.9 9.77 312.7 -29.31 -146.6 -39.08
4.31 -420.1 224.7 -78.16 -146.6 -547.6 127 -683.9 0 -566.7 -293.1 -175.9 312.7 -312.7 127 -703.5 29.31 -107.5 -9.77 -469 -381
4.315 -361.5 342 -107.5 -136.8 -498.3 214.9 -693.7 58.62 -655.1 -293.1 -234.5 390.8 -293.1 185.6 -625.3 127 0 107.5 -312.7 -342
4.32 -244.3 263.8 -136.8 -195.4 -527.6 156.3 -596 -9.77 -508.1 -185.6 -205.2 234.5 -429.9 48.85 -781.6 -19.54 -48.85 -29.31 -293.1 -185.6
4.325 -781.6 322.4 -117.2 -117.2 -381 195.4 -400.6 48.85 -527.6 -517.8 -175.9 263.8 -224.7 68.39 -655.1 -58.62 48.85 117.2 -127 -195.4
4.33 -234.5 283.3 205.2 -136.8 -87.93 166.1 -117.2 39.08 -224.7 -420.1 19.54 263.8 -68.39 58.62 -586.2 -78.16 263.8 156.3 -19.54 -9.77
4.335 -469 361.5 312.7 0 117.2 273.6 97.7 48.85 -117.2 -537.4 146.6 322.4 58.62 146.6 -361.5 -224.7 381 371.3 39.08 -48.85
4.34 254 390.8 576.5 -68.39 410.4 371.3 332.2 87.93 -19.54 -293.1 312.7 439.7 283.3 205.2 -214.9 -146.6 537.4 254 127 224.7
4.345 263.8 214.9 508.1 -214.9 302.9 127 273.6 -322.4 39.08 -908.6 224.7 234.5 254 -29.31 48.85 -283.3 488.5 -29.31 -19.54 361.5
4.35 224.7 195.4 429.9 -166.1 205.2 48.85 127 -342 -224.7 -683.9 224.7 254 214.9 0 -205.2 -293.1 332.2 -87.93 -156.3 263.8
4.355 19.54 175.9 361.5 -166.1 136.8 68.39 302.9 -214.9 547.1 -351.7 68.39 156.3 273.6 -29.31 9.77 -127 273.6 -19.54 29.31 146.6
4.36 -527.6 87.93 185.6 -322.4 19.54 -87.93 293.1 -244.3 615.5 -400.6 175.9 -78.16 244.3 -166.1 -39.08 -205.2 58.62 -146.6 68.39 58.62
4.365 -361.5 117.2 58.62 -322.4 -68.39 19.54 302.9 29.31 566.7 175.9 -48.85 -146.6 97.7 -87.93 -87.93 -175.9 107.5 -78.16 390.8 146.6
4.37 -547.6 195.4 -78.16 -361.5 -127 146.6 283.3 224.7 244.3 342 87.93 -107.5 156.3 -185.6 48.85 -87.93 -58.62 58.62 293.1 -58.62
4.375 -381 97.7 9.77 -635.6 78.16 273.6 390.8 469 146.6 1094 117.2 -117.2 214.9 -107.5 0 -48.85 48.85 117.2 693.7 117.2
4.38 -517.8 185.6 -263.8 -547.6 -97.7 410.4 195.4 625.3 -361.5 1270 9.77 -19.54 127 -97.7 117.2 97.7 -293.1 87.93 400.6 -87.93
4.385 -791.4 29.31 -136.8 -655.1 87.93 361.5 342 381 39.08 459.2 19.54 29.31 214.9 -48.85 166.1 87.93 -78.16 -9.77 527.6 302.9
4.39 -625.3 -9.77 -263.8 -537.4 78.16 400.6 302.9 459.2 0 674.2 48.85 19.54 273.6 0 29.31 107.5 -293.1 -87.93 390.8 175.9
4.395 -693.7 -214.9 -195.4 -566.7 58.62 87.93 214.9 -117.2 146.6 -1055 -205.2 -19.54 156.3 -107.5 185.6 -68.39 -214.9 -273.6 136.8 283.3
4.4 -1211 -371.3 -332.2 -556.9 -175.9 -48.85 -48.85 -283.3 -312.7 -1221 -185.6 -185.6 -58.62 -146.6 -127 -214.9 -439.7 -644.8 -234.5 244.3
4.405 -898.9 -381 -234.5 -547.6 -146.6 -136.8 -29.31 -332.2 -146.6 -1309 -244.3 -234.5 -166.1 -224.7 87.93 -107.5 -273.6 -664.4 -156.3 332.2
4.41 -1211 -469 -254 -635.6 -273.6 -273.6 -195.4 -420.1 -390.8 -1163 -205.2 -332.2 -283.3 -244.3 -127 -175.9 -332.2 -801.2 -302.9 322.4
4.415 -1466 -390.8 -889.1 -254 -625.3 -429.9 -723 -478.7 -429.9 -742.6 -605.8 -400.6 -596 -156.3 -234.5 -302.9 -850 -556.9 -683.9 -205.2
4.42 -1524 -371.3 -977.5 -185.6 -655.1 -527.6 -596 -537.4 175.9 -703.5 -566.7 -361.5 -478.7 -156.3 -146.6 -390.8 -928.2 -644.8 -635.6 -166.1
4.425 -1221 -263.8 -752.3 -19.54 -556.9 -537.4 -586.2 -635.6 9.77 -1114 -537.4 -263.8 -449.4 -107.5 39.08 -342 -596 -674.6 -537.4 97.7
4.43 -1240 107.5 -644.8 195.4 -449.4 -214.9 -342 -263.8 596 9.77 -439.7 -39.08 -410.4 29.31 -58.62 -166.1 -488.5 -429.9 -254 -19.54
4.435 -1720 263.8 -625.3 244.3 -586.2 -48.85 -566.7 -127 -127 478.7 -586.2 48.85 -488.5 -19.54 -273.6 39.08 -439.7 -263.8 -322.4 -195.4
4.44 -1231 97.7 -498.3 9.77 -449.4 -87.93 -439.7 -351.7 -185.6 -48.85 -400.6 -97.7 -322.4 -166.1 -351.7 -78.16 -439.7 -293.1 -429.9 -107.5
4.445 -1221 78.16 -605.8 -127 -576.5 29.31 -596 -283.3 -566.7 -87.93 -635.6 -117.2 -508.1 -136.8 -508.1 -97.7 -605.8 -224.7 -537.4 -234.5
4.45 -967.8 -244.3 -655.1 -381 -644.8 -205.2 -713.2 -615.5 -762.1 -1104 -566.7 -263.8 -459.2 -322.4 -537.4 -283.3 -703.5 -449.4 -732.8 -39.08
4.455 -625.3 -214.9 -732.8 -400.6 -791.4 -127 -820.7 -381 -674.6 -820.7 -527.6 -234.5 -508.1 -214.9 -449.4 -214.9 -771.9 -361.5 -693.7 -273.6
4.46 -556.9 -381 -674.6 -586.2 -703.5 -234.5 -655.1 -205.2 -244.3 -273.6 -390.8 -263.8 -586.2 -195.4 -449.4 -175.9 -655.1 -596 -429.9 39.08
4.465 -723 -488.5 -683.9 -635.6 -742.6 -312.7 -655.1 -136.8 -205.2 -136.8 -390.8 -175.9 -508.1 -97.7 -439.7 -58.62 -556.9 -723 -234.5 97.7
4.47 -547.6 -527.6 -791.4 -781.6 -752.3 -498.3 -781.6 -214.9 -508.1 -166.1 -332.2 -185.6 -508.1 -127 -742.6 -166.1 -635.6 -889.1 -469 146.6
4.475 -625.3 -429.9 -547.6 -781.6 -449.4 -459.2 -556.9 -244.3 -381 -263.8 -429.9 -39.08 -322.4 -78.16 -644.8 -58.62 -449.4 -586.2 -390.8 117.2
4.48 -342 -195.4 -488.5 -596 -312.7 -351.7 -547.6 -293.1 -625.3 -371.3 -244.3 9.77 -244.3 -19.54 -859.8 -214.9 -390.8 -420.1 -644.8 -9.77
4.485 -127 -39.08 -97.7 -429.9 48.85 -146.6 -273.6 -234.5 -371.3 -254 -87.93 48.85 29.31 58.62 -644.8 -234.5 -58.62 -224.7 -400.6 107.5
4.49 -254 107.5 -175.9 -244.3 -127 -9.77 -429.9 -224.7 -615.5 -185.6 -117.2 48.85 -117.2 0 -762.1 -371.3 -234.5 -107.5 -693.7 -244.3
4.495 29.31 234.5 68.39 9.77 58.62 244.3 -224.7 -68.39 -342 9.77 39.08 185.6 127 48.85 -488.5 -420.1 -29.31 107.5 -390.8 -234.5
4.5 -322.4 214.9 -97.7 9.77 -166.1 342 -361.5 39.08 -351.7 146.6 -68.39 166.1 -9.77 -9.77 -478.7 -449.4 -185.6 107.5 -469 -429.9
4.505 -39.08 312.7 -97.7 48.85 -195.4 508.1 -273.6 322.4 -117.2 713.2 -205.2 293.1 -9.77 68.39 -332.2 -234.5 -39.08 205.2 -87.93 -283.3
4.51 -29.31 19.54 -214.9 -205.2 -283.3 263.8 -195.4 0 390.8 29.31 -244.3 68.39 0 -87.93 -39.08 -351.7 -175.9 -107.5 -146.6 -48.85
4.515 -9.77 9.77 -342 -214.9 -293.1 410.4 -87.93 547.1 469 1593 -283.3 166.1 -87.93 175.9 -68.39 78.16 -166.1 -29.31 263.8 -78.16
4.52 -205.2 -586.2 -703.5 -605.8 -596 -293.1 -332.2 -146.6 -9.77 254 -410.4 -273.6 -156.3 -146.6 -224.7 -136.8 -605.8 -693.7 -254 78.16
4.525 -655.1 -723 -830.5 -605.8 -683.9 -508.1 -351.7 -146.6 -58.62 302.9 -655.1 -244.3 -244.3 -146.6 -283.3 19.54 -732.8 -830.5 -410.4 -9.77
4.53 -820.7 -1006 -1045 -644.8 -928.2 -898.9 -703.5 -596 -635.6 -635.6 -615.5 -449.4 -390.8 -332.2 -508.1 -166.1 -987.3 -1163 -840.3 -19.54
4.535 -947.7 -1064 -1153 -556.9 -1064 -1036 -908.6 -879.8 -1064 -1250 -703.5 -400.6 -469 -439.7 -586.2 -273.6 -1094 -1163 -1045 -224.7
4.54 -1133 -1192 -1250 -762.1 -1153 -1143 -977.5 -1104 -1133 -1534 -742.6 -488.5 -655.1 -655.1 -556.9 -508.1 -1231 -1280 -1201 -234.5
4.545 -351.7 -723 -762.1 -342 -635.6 -469 -322.4 -488.5 -87.93 -449.4 -322.4 -107.5 -117.2 -371.3 -205.2 -322.4 -752.3 -791.4 -322.4 -107.5
4.55 -1240 -810.9 -850 -674.6 -693.7 -449.4 -449.4 -615.5 -674.6 -810.9 -381 -214.9 -185.6 -547.6 -244.3 -566.7 -840.3 -947.7 -439.7 -9.77
4.555 -674.6 -390.8 -439.7 -478.7 -136.8 224.7 293.1 68.39 478.7 -117.2 -254 127 224.7 -78.16 322.4 -263.8 -439.7 -283.3 302.9 -58.62
4.56 -1016 -566.7 -655.1 -693.7 -429.9 39.08 -166.1 -342 -420.1 -1094 -488.5 -19.54 -107.5 -283.3 -244.3 -498.3 -655.1 -537.4 -156.3 -29.31
4.565 -136.8 -293.1 -371.3 -556.9 -166.1 273.6 87.93 87.93 -156.3 -312.7 -508.1 214.9 -195.4 0 29.31 -224.7 -302.9 -214.9 332.2 68.39
4.57 -156.3 -283.3 -166.1 -556.9 -9.77 127 234.5 58.62 117.2 -58.62 -263.8 87.93 -146.6 -107.5 -205.2 -107.5 -234.5 -146.6 254 78.16
4.575 -117.2 -29.31 -244.3 -351.7 -214.9 146.6 -97.7 185.6 -390.8 351.7 -508.1 214.9 -361.5 -19.54 -332.2 185.6 -224.7 29.31 127 -214.9
4.58 -293.1 -312.7 39.08 -517.8 19.54 -107.5 117.2 -68.39 -166.1 -29.31 -87.93 -48.85 -97.7 -205.2 -156.3 48.85 -39.08 -107.5 78.16 136.8
4.585 97.7 -244.3 48.85 -478.7 78.16 -107.5 29.31 -214.9 -517.8 -547.6 -87.93 78.16 29.31 -136.8 -39.08 48.85 136.8 -136.8 0 234.5
4.59 -19.54 -351.7 48.85 -498.3 9.77 -224.7 -39.08 -478.7 -478.7 -1231 -87.93 0 39.08 -234.5 -39.08 -195.4 127 -254 -195.4 322.4
4.595 195.4 -39.08 185.6 -312.7 254 97.7 332.2 -175.9 -58.62 -644.8 68.39 185.6 351.7 -107.5 185.6 -78.16 361.5 146.6 224.7 273.6
4.6 488.5 136.8 693.7 -224.7 723 166.1 742.6 -136.8 371.3 -351.7 390.8 68.39 576.5 -146.6 420.1 -283.3 850 127 664.4 732.8
4.605 576.5 420.1 683.9 58.62 713.2 459.2 762.1 39.08 381 -146.6 361.5 283.3 488.5 9.77 381 -185.6 918.4 400.6 781.6 517.8
4.61 517.8 449.4 908.6 58.62 869.6 439.7 771.9 29.31 234.5 -48.85 459.2 146.6 488.5 -107.5 400.6 -302.9 1055 351.7 810.9 654.6
4.615 664.4 566.7 1006 214.9 859.8 683.9 898.9 205.2 576.5 127 420.1 410.4 429.9 107.5 498.3 -166.1 1085 556.9 898.9 449.4
4.62 674.2 478.7 752.3 195.4 615.5 547.1 703.5 78.16 371.3 -400.6 273.6 332.2 205.2 48.85 361.5 -166.1 810.9 439.7 625.3 263.8
4.625 566.7 469 1006 351.7 820.7 566.7 869.6 127 449.4 -302.9 439.7 439.7 429.9 127 537.4 0 1006 351.7 752.3 459.2
4.63 596 322.4 791.4 312.7 576.5 420.1 674.2 48.85 185.6 -449.4 420.1 332.2 293.1 175.9 332.2 -29.31 781.6 175.9 449.4 390.8
4.635 488.5 214.9 615.5 254 400.6 351.7 390.8 48.85 0 -224.7 205.2 263.8 136.8 205.2 342 214.9 576.5 127 351.7 273.6
4.64 185.6 -58.62 312.7 87.93 254 214.9 332.2 58.62 68.39 205.2 224.7 136.8 58.62 185.6 127 273.6 254 -68.39 254 175.9
4.645 390.8 -263.8 195.4 -68.39 156.3 39.08 283.3 -39.08 381 283.3 78.16 29.31 29.31 48.85 361.5 361.5 97.7 -205.2 351.7 234.5
4.65 68.39 -429.9 205.2 -185.6 283.3 -48.85 517.8 -97.7 683.9 312.7 166.1 -19.54 87.93 -107.5 596 302.9 68.39 -342 478.7 429.9
4.655 205.2 -312.7 283.3 -175.9 361.5 107.5 732.8 39.08 898.9 420.1 244.3 39.08 283.3 -127 732.8 351.7 205.2 0 732.8 312.7
4.66 9.77 -48.85 234.5 97.7 283.3 283.3 654.6 117.2 713.2 361.5 -19.54 146.6 29.31 -68.39 605.8 127 156.3 195.4 566.7 97.7
4.665 68.39 244.3 254 254 293.1 537.4 635.1 429.9 674.2 889.1 -19.54 322.4 29.31 87.93 478.7 214.9 381 527.6 791.4 39.08
4.67 263.8 693.7 605.8 635.1 517.8 938 801.2 928.2 977 1749 97.7 596 78.16 371.3 449.4 302.9 625.3 938 1026 -58.62
4.675 527.6 830.5 752.3 781.6 605.8 918.4 635.1 742.6 703.5 986.8 166.1 771.9 68.39 371.3 459.2 175.9 762.1 1172 850 -214.9
4.68 361.5 801.2 986.8 732.8 762.1 918.4 752.3 732.8 1182 898.9 410.4 674.2 175.9 361.5 439.7 78.16 918.4 1036 908.6 -29.31
4.685 439.7 703.5 928.2 732.8 644.8 801.2 488.5 596 478.7 478.7 332.2 742.6 166.1 312.7 263.8 58.62 879.3 869.6 703.5 -19.54
4.69 -58.62 283.3 635.1 439.7 351.7 478.7 175.9 332.2 68.39 117.2 146.6 547.1 68.39 205.2 -58.62 48.85 517.8 517.8 332.2 -87.93
4.695 234.5 117.2 420.1 459.2 214.9 361.5 48.85 127 -175.9 -205.2 78.16 586.2 9.77 263.8 -107.5 48.85 342 381 166.1 -166.1
4.7 342 -146.6 224.7 136.8 156.3 205.2 -48.85 117.2 -615.5 175.9 0 449.4 29.31 293.1 -195.4 136.8 68.39 214.9 39.08 -205.2
4.705 683.9 -146.6 185.6 97.7 195.4 224.7 78.16 39.08 -29.31 -351.7 19.54 400.6 97.7 263.8 146.6 224.7 146.6 351.7 87.93 -185.6
4.71 195.4 0 78.16 -107.5 87.93 146.6 -107.5 -48.85 -312.7 -664.4 -19.54 283.3 48.85 175.9 -97.7 107.5 29.31 410.4 -254 -371.3
4.715 312.7 312.7 361.5 -87.93 214.9 263.8 -48.85 -9.77 -244.3 -566.7 -29.31 283.3 107.5 58.62 97.7 205.2 322.4 605.8 -175.9 -332.2
4.72 527.6 508.1 498.3 9.77 166.1 166.1 -185.6 -87.93 -566.7 -517.8 97.7 224.7 -19.54 -78.16 -273.6 48.85 469 605.8 -302.9 -361.5
4.725 429.9 566.7 488.5 107.5 117.2 29.31 -312.7 -234.5 -693.7 -830.5 -9.77 263.8 19.54 -68.39 -97.7 29.31 547.1 351.7 -351.7 -97.7
4.73 293.1 400.6 273.6 78.16 -117.2 -107.5 -439.7 -117.2 -517.8 29.31 -39.08 156.3 -175.9 -107.5 -195.4 -107.5 381 78.16 -224.7 -39.08
4.735 254 156.3 -19.54 -39.08 -332.2 -283.3 -517.8 -254 -302.9 -273.6 -107.5 117.2 -87.93 -68.39 19.54 -146.6 195.4 -185.6 -273.6 19.54
4.74 -478.7 -87.93 -498.3 -175.9 -781.6 -342 -889.1 -302.9 -586.2 -97.7 -273.6 87.93 -273.6 -19.54 -224.7 -127 -283.3 -410.4 -586.2 -214.9
4.745 -322.4 -214.9 -556.9 -224.7 -771.9 -293.1 -655.1 -254 -185.6 -9.77 -293.1 97.7 -136.8 39.08 97.7 -29.31 -293.1 -439.7 -342 -107.5
4.75 -283.3 -273.6 -400.6 -254 -596 -312.7 -459.2 -293.1 -39.08 -48.85 -107.5 97.7 58.62 9.77 78.16 -48.85 -175.9 -429.9 -224.7 48.85
4.755 -400.6 -263.8 -469 -146.6 -527.6 -185.6 -420.1 -175.9 -19.54 175.9 -302.9 107.5 9.77 9.77 166.1 0 -254 -127 -185.6 -224.7
4.76 -39.08 0 -48.85 -48.85 -39.08 78.16 78.16 283.3 586.2 1358 19.54 205.2 214.9 68.39 146.6 87.93 9.77 127 175.9 -185.6
4.765 0 58.62 -29.31 -136.8 0 -29.31 29.31 -39.08 117.2 224.7 -39.08 87.93 175.9 -48.85 234.5 58.62 39.08 39.08 -19.54 -166.1
4.77 -58.62 166.1 -87.93 -127 9.77 156.3 19.54 302.9 87.93 732.8 9.77 175.9 78.16 9.77 58.62 117.2 -87.93 48.85 -87.93 -322.4
4.775 -293.1 58.62 -136.8 -205.2 -136.8 48.85 -87.93 117.2 -166.1 -146.6 -39.08 185.6 0 9.77 0 97.7 -107.5 -48.85 -166.1 -283.3
4.78 -205.2 -244.3 -371.3 -488.5 -273.6 -127 -214.9 29.31 -371.3 -293.1 -58.62 39.08 -39.08 0 -234.5 39.08 -371.3 -302.9 -273.6 -214.9
4.785 -254 -293.1 -273.6 -400.6 -234.5 -9.77 19.54 254 195.4 166.1 -156.3 68.39 0 48.85 127 293.1 -244.3 -244.3 87.93 -39.08
4.79 -146.6 -400.6 -342 -469 -234.5 97.7 166.1 615.5 556.9 1202 -68.39 -29.31 97.7 146.6 175.9 390.8 -214.9 -68.39 381 78.16
4.795 -371.3 -390.8 -293.1 -293.1 -273.6 58.62 68.39 439.7 459.2 889.1 -136.8 -68.39 19.54 9.77 332.2 439.7 -195.4 9.77 273.6 -19.54
4.8 -449.4 -342 -322.4 -127 -390.8 19.54 -136.8 302.9 127 820.7 -68.39 -39.08 -58.62 -58.62 263.8 371.3 -342 107.5 -68.39 -254
4.805 -312.7 -156.3 -29.31 -19.54 -39.08 68.39 -19.54 224.7 166.1 654.6 107.5 9.77 175.9 -48.85 322.4 195.4 -87.93 244.3 -19.54 -166.1
4.81 -342 -127 -136.8 29.31 -175.9 -48.85 -449.4 -263.8 -713.2 -371.3 -19.54 29.31 19.54 -195.4 -166.1 -214.9 -312.7 166.1 -655.1 -449.4
4.815 -752.3 156.3 9.77 244.3 78.16 224.7 -302.9 -127 -283.3 -517.8 19.54 263.8 136.8 -48.85 -185.6 -293.1 -224.7 596 -527.6 -723
4.82 -156.3 302.9 273.6 400.6 381 400.6 -87.93 -9.77 -664.4 -449.4 175.9 322.4 214.9 0 -283.3 -429.9 9.77 654.6 -342 -537.4
4.825 -615.5 537.4 312.7 537.4 566.7 752.3 254 342 19.54 -263.8 117.2 527.6 273.6 263.8 -205.2 -332.2 156.3 889.1 48.85 -576.5
4.83 146.6 498.3 439.7 527.6 625.3 723 332.2 420.1 -508.1 -410.4 371.3 390.8 254 254 -224.7 -322.4 302.9 713.2 127 -205.2
4.835 508.1 596 576.5 547.1 859.8 938 752.3 898.9 68.39 752.3 449.4 449.4 488.5 439.7 -175.9 -19.54 488.5 850 703.5 -87.93
4.84 185.6 439.7 449.4 400.6 625.3 674.2 596 683.9 -224.7 400.6 488.5 185.6 508.1 342 -244.3 19.54 390.8 644.8 508.1 -48.85
4.845 361.5 390.8 400.6 361.5 420.1 478.7 488.5 576.5 -117.2 312.7 254 68.39 351.7 205.2 -87.93 136.8 410.4 390.8 469 136.8
4.85 371.3 146.6 283.3 205.2 224.7 97.7 175.9 156.3 -195.4 -254 185.6 -48.85 263.8 78.16 -107.5 19.54 322.4 263.8 254 195.4
4.855 29.31 302.9 469 478.7 244.3 68.39 68.39 156.3 185.6 -39.08 146.6 107.5 146.6 195.4 78.16 78.16 488.5 410.4 244.3 166.1
4.86 302.9 224.7 508.1 478.7 351.7 -117.2 78.16 -107.5 449.4 -361.5 68.39 107.5 48.85 78.16 214.9 -68.39 410.4 371.3 0 185.6
4.865 263.8 312.7 517.8 -9.77 410.4 273.6 283.3 0 87.93 166.1 488.5 703.5 244.3 136.8 166.1 97.7 830.5 117.2 439.7 469
4.87 508.1 576.5 810.9 146.6 771.9 488.5 625.3 234.5 185.6 234.5 752.3 898.9 459.2 302.9 351.7 273.6 1094 439.7 615.5 429.9
4.875 556.9 351.7 693.7 -19.54 674.2 175.9 439.7 -156.3 -68.39 -586.2 752.3 596 459.2 58.62 127 185.6 918.4 429.9 302.9 351.7
4.88 615.5 302.9 879.3 -97.7 810.9 166.1 771.9 -39.08 195.4 -449.4 596 537.4 547.1 78.16 527.6 390.8 1065 410.4 615.5 556.9
4.885 527.6 19.54 683.9 -293.1 635.1 -29.31 723 -117.2 371.3 -234.5 625.3 381 478.7 -39.08 205.2 371.3 830.5 234.5 576.5 566.7
4.89 117.2 -19.54 527.6 -302.9 410.4 19.54 644.8 78.16 332.2 254 439.7 371.3 449.4 58.62 273.6 508.1 713.2 195.4 664.4 420.1
4.895 390.8 -97.7 478.7 -429.9 439.7 -58.62 723 97.7 683.9 498.3 498.3 342 420.1 58.62 224.7 234.5 586.2 136.8 674.2 371.3
4.9 332.2 214.9 527.6 -127 478.7 195.4 683.9 263.8 459.2 469 547.1 664.4 547.1 332.2 263.8 224.7 742.6 234.5 605.8 254
4.905 517.8 156.3 576.5 -342 478.7 29.31 635.1 -9.77 469 -9.77 488.5 459.2 469 107.5 136.8 -136.8 791.4 107.5 469 420.1
4.91 547.1 420.1 771.9 -68.39 635.1 302.9 723 195.4 439.7 166.1 566.7 732.8 566.7 263.8 302.9 -117.2 996.6 312.7 508.1 342
4.915 156.3 420.1 635.1 -146.6 517.8 283.3 664.4 68.39 810.9 -48.85 371.3 605.8 361.5 117.2 214.9 -175.9 781.6 420.1 332.2 136.8
4.92 -263.8 381 400.6 -195.4 283.3 224.7 342 -29.31 146.6 -166.1 195.4 615.5 107.5 136.8 205.2 -136.8 566.7 224.7 0 97.7
4.925 -283.3 166.1 127 -342 68.39 58.62 244.3 -29.31 508.1 146.6 175.9 439.7 -29.31 39.08 195.4 -117.2 351.7 78.16 -9.77 68.39
4.93 -537.4 156.3 -39.08 -361.5 -214.9 -87.93 -48.85 -78.16 -48.85 283.3 48.85 420.1 -87.93 78.16 29.31 39.08 185.6 -97.7 -127 117.2
4.935 -234.5 -9.77 -127 -439.7 -293.1 -205.2 -87.93 0 -195.4 605.8 127 263.8 -9.77 78.16 -224.7 78.16 195.4 -136.8 9.77 127
4.94 -127 87.93 156.3 -371.3 -127 -68.39 78.16 78.16 244.3 693.7 127 322.4 214.9 166.1 175.9 410.4 351.7 -87.93 195.4 293.1
4.945 -117.2 -39.08 342 -478.7 0 -68.39 195.4 195.4 439.7 928.2 273.6 205.2 254 156.3 9.77 390.8 605.8 -185.6 429.9 586.2
4.95 29.31 244.3 498.3 -175.9 244.3 390.8 400.6 547.1 576.5 1055 302.9 478.7 459.2 410.4 361.5 683.9 664.4 254 566.7 302.9
4.955 -371.3 39.08 322.4 -361.5 136.8 244.3 166.1 195.4 29.31 -9.77 254 293.1 254 205.2 97.7 420.1 488.5 29.31 195.4 332.2
4.96 205.2 156.3 469 -254 420.1 478.7 478.7 469 332.2 449.4 371.3 381 498.3 244.3 371.3 302.9 703.5 -29.31 566.7 605.8
4.965 127 117.2 322.4 -254 254 302.9 400.6 234.5 214.9 -156.3 459.2 244.3 508.1 205.2 263.8 29.31 537.4 -244.3 371.3 566.7
4.97 -185.6 0 342 -478.7 136.8 107.5 459.2 -19.54 429.9 -576.5 175.9 97.7 400.6 -9.77 342 -302.9 478.7 -449.4 390.8 654.6
4.975 9.77 -97.7 78.16 -410.4 -234.5 -107.5 97.7 -224.7 332.2 -635.6 19.54 -87.93 19.54 -175.9 -39.08 -390.8 214.9 -400.6 -29.31 254
4.98 185.6 -9.77 293.1 -263.8 -39.08 -244.3 214.9 -459.2 312.7 -957.5 58.62 -234.5 48.85 -351.7 58.62 -449.4 390.8 -361.5 58.62 351.7
4.985 195.4 97.7 244.3 -58.62 -146.6 -439.7 -19.54 -625.3 87.93 -1104 -19.54 -205.2 -87.93 -459.2 -9.77 -361.5 449.4 -136.8 -234.5 97.7
4.99 342 214.9 429.9 87.93 58.62 -517.8 -97.7 -703.5 -439.7 -928.2 146.6 -48.85 97.7 -342 -78.16 -263.8 674.2 -48.85 -263.8 156.3
4.995 429.9 185.6 537.4 156.3 136.8 -596 -107.5 -556.9 -693.7 -312.7 87.93 58.62 19.54 -224.7 -214.9 -39.08 615.5 -68.39 -302.9 68.39
5 400.6 283.3 605.8 205.2 195.4 -439.7 -78.16 -498.3 -556.9 -351.7 283.3 254 117.2 78.16 -185.6 107.5 683.9 -68.39 -254 68.39
5.005 381 78.16 576.5 -19.54 351.7 -312.7 254 -283.3 -48.85 -9.77 302.9 87.93 371.3 107.5 97.7 166.1 674.2 -214.9 107.5 381
5.01 537.4 39.08 478.7 -175.9 263.8 -58.62 302.9 -48.85 87.93 107.5 302.9 107.5 322.4 185.6 107.5 273.6 478.7 -166.1 254 302.9
5.015 488.5 -78.16 371.3 -283.3 371.3 175.9 625.3 390.8 527.6 1104 420.1 29.31 488.5 312.7 175.9 361.5 517.8 -87.93 771.9 478.7
5.02 498.3 -293.1 342 -625.3 312.7 58.62 566.7 224.7 175.9 517.8 234.5 -166.1 439.7 127 244.3 224.7 537.4 -361.5 732.8 810.9
5.025 175.9 -390.8 117.2 -586.2 58.62 -58.62 263.8 48.85 -39.08 166.1 136.8 -234.5 156.3 -19.54 19.54 156.3 371.3 -439.7 469 674.2
5.03 342 -195.4 0 -351.7 0 9.77 263.8 136.8 312.7 312.7 -48.85 -136.8 9.77 0 39.08 127 351.7 -224.7 410.4 488.5
5.035 9.77 -214.9 -107.5 -273.6 -127 -312.7 19.54 -449.4 127 -1104 -19.54 -273.6 -87.93 -224.7 -39.08 -205.2 146.6 -146.6 -205.2 156.3
5.04 195.4 29.31 48.85 -29.31 175.9 -166.1 254 -302.9 214.9 -469 39.08 -48.85 78.16 -127 136.8 -117.2 263.8 107.5 -48.85 78.16
5.045 -97.7 48.85 146.6 29.31 390.8 -195.4 420.1 -244.3 517.8 -97.7 390.8 -156.3 390.8 -107.5 127 -146.6 244.3 234.5 29.31 39.08
5.05 19.54 -107.5 146.6 -107.5 312.7 -449.4 273.6 -566.7 224.7 -840.3 127 -254 244.3 -244.3 175.9 -302.9 107.5 58.62 -78.16 39.08
5.055 -78.16 9.77 -205.2 19.54 175.9 -254 234.5 -78.16 469 400.6 136.8 -185.6 205.2 -136.8 -48.85 -127 -156.3 234.5 48.85 -302.9
5.06 342 48.85 -117.2 58.62 166.1 -205.2 185.6 -68.39 351.7 -136.8 146.6 -107.5 205.2 -78.16 97.7 -87.93 -107.5 48.85 48.85 -78.16
5.065 469 -107.5 -263.8 -136.8 9.77 -283.3 68.39 -19.54 410.4 175.9 166.1 -205.2 68.39 -39.08 -87.93 -68.39 -48.85 -185.6 224.7 205.2
5.07 556.9 -97.7 -48.85 -205.2 195.4 -87.93 234.5 97.7 556.9 -87.93 224.7 -58.62 205.2 87.93 29.31 97.7 283.3 -156.3 429.9 556.9
5.075 410.4 -332.2 68.39 -478.7 175.9 -166.1 136.8 58.62 48.85 -68.39 381 -117.2 127 19.54 -87.93 68.39 322.4 -214.9 420.1 654.6
5.08 635.1 -351.7 312.7 -527.6 508.1 -19.54 449.4 234.5 469 -39.08 478.7 29.31 254 205.2 234.5 58.62 586.2 -78.16 742.6 889.1
5.085 459.2 -410.4 332.2 -605.8 566.7 -146.6 488.5 58.62 527.6 -381 605.8 -68.39 293.1 -87.93 488.5 78.16 644.8 -39.08 693.7 938
5.09 556.9 -205.2 342 -390.8 674.2 0 723 312.7 840.3 166.1 547.1 127 420.1 29.31 713.2 48.85 625.3 293.1 977 703.5
5.095 205.2 -87.93 214.9 -312.7 596 9.77 693.7 293.1 742.6 302.9 361.5 78.16 469 -107.5 556.9 29.31 420.1 478.7 850 410.4
5.1 87.93 107.5 175.9 -156.3 527.6 97.7 547.1 283.3 469 127 -68.39 136.8 322.4 -68.39 478.7 -87.93 254 566.7 615.5 185.6
5.105 39.08 214.9 107.5 -214.9 508.1 185.6 488.5 449.4 420.1 596 9.77 87.93 361.5 -29.31 517.8 -234.5 195.4 537.4 615.5 117.2
5.11 -97.7 224.7 107.5 -342 390.8 244.3 342 205.2 351.7 -127 -78.16 29.31 263.8 -9.77 498.3 -254 117.2 469 400.6 78.16
5.115 146.6 293.1 -19.54 -381 234.5 312.7 146.6 214.9 302.9 19.54 29.31 68.39 68.39 48.85 195.4 -166.1 9.77 429.9 234.5 -156.3
5.12 234.5 107.5 136.8 -556.9 234.5 136.8 39.08 -107.5 117.2 -576.5 195.4 0 117.2 -39.08 87.93 -117.2 175.9 107.5 254 273.6
5.125 185.6 146.6 136.8 -478.7 107.5 214.9 -97.7 -107.5 107.5 -351.7 214.9 136.8 19.54 39.08 -302.9 -107.5 97.7 29.31 205.2 244.3
5.13 97.7 68.39 58.62 -342 -48.85 117.2 -283.3 -146.6 -410.4 -351.7 312.7 185.6 87.93 127 -498.3 -29.31 68.39 -68.39 195.4 254
5.135 205.2 -97.7 195.4 -332.2 107.5 -146.6 -166.1 -361.5 -273.6 -664.4 332.2 136.8 136.8 -9.77 -498.3 -146.6 68.39 -127 205.2 263.8
5.14 488.5 9.77 351.7 -117.2 361.5 -127 224.7 -185.6 185.6 -527.6 683.9 205.2 449.4 39.08 -127 -9.77 263.8 -87.93 566.7 429.9
5.145 87.93 -127 342 -224.7 400.6 -293.1 302.9 -214.9 -29.31 -371.3 615.5 9.77 469 -185.6 -29.31 -48.85 244.3 -195.4 556.9 469
5.15 322.4 48.85 469 -166.1 635.1 19.54 693.7 410.4 654.6 1212 771.9 127 654.6 9.77 400.6 234.5 332.2 19.54 1065 488.5
5.155 146.6 -166.1 -19.54 -293.1 234.5 -244.3 312.7 -19.54 381 175.9 537.4 -48.85 400.6 -224.7 322.4 -29.31 -146.6 -195.4 439.7 205.2
5.16 -293.1 293.1 78.16 -29.31 302.9 -39.08 87.93 224.7 -19.54 400.6 146.6 136.8 214.9 -9.77 156.3 185.6 -117.2 -29.31 195.4 -29.31
5.165 -381 410.4 351.7 -29.31 615.5 195.4 410.4 693.7 410.4 1534 332.2 224.7 322.4 127 312.7 381 224.7 117.2 654.6 175.9
5.17 -68.39 615.5 469 156.3 732.8 175.9 498.3 400.6 410.4 9.77 410.4 283.3 390.8 87.93 508.1 263.8 420.1 342 605.8 117.2
5.175 -107.5 586.2 498.3 78.16 771.9 254 469 371.3 87.93 273.6 439.7 263.8 322.4 87.93 478.7 185.6 498.3 244.3 547.1 234.5
5.18 -205.2 693.7 527.6 342 801.2 283.3 566.7 254 478.7 -547.6 420.1 371.3 400.6 146.6 566.7 127 469 293.1 478.7 166.1
5.185 -322.4 547.1 420.1 254 752.3 283.3 498.3 312.7 29.31 29.31 400.6 400.6 420.1 205.2 586.2 107.5 302.9 136.8 459.2 244.3
5.19 -655.1 283.3 214.9 136.8 547.1 146.6 390.8 244.3 322.4 224.7 234.5 351.7 390.8 68.39 459.2 107.5 48.85 78.16 429.9 78.16
5.195 -371.3 302.9 420.1 78.16 742.6 195.4 498.3 254 420.1 381 390.8 351.7 449.4 97.7 566.7 136.8 127 175.9 410.4 39.08
5.2 -146.6 283.3 361.5 9.77 693.7 136.8 361.5 185.6 420.1 224.7 371.3 254 390.8 39.08 400.6 48.85 175.9 254 293.1 -19.54
5.205 400.6 244.3 459.2 205.2 488.5 156.3 234.5 136.8 205.2 29.31 175.9 -39.08 175.9 -78.16 429.9 -29.31 371.3 244.3 68.39 19.54
5.21 488.5 87.93 517.8 244.3 351.7 -97.7 -87.93 -361.5 -556.9 -1036 293.1 -166.1 273.6 -390.8 214.9 -312.7 224.7 185.6 -449.4 -136.8
5.215 957.5 107.5 498.3 283.3 390.8 68.39 87.93 -97.7 19.54 -254 156.3 -205.2 234.5 -312.7 224.7 -332.2 361.5 381 -68.39 -175.9
5.22 820.7 -117.2 381 234.5 146.6 -87.93 -29.31 -273.6 -332.2 -683.9 224.7 -361.5 107.5 -400.6 19.54 -537.4 117.2 185.6 -312.7 -156.3
5.225 742.6 -322.4 0 117.2 -136.8 -283.3 -195.4 -429.9 -166.1 -840.3 -97.7 -400.6 -117.2 -381 -19.54 -420.1 0 -48.85 -195.4 19.54
