    T[sec] F7  F3  F4  F8  T3  C3  Cz  C4  T4  T5  P3  Pz  P4  T6  O1  O2 
41 30.01 30.01 30.01 30.01 30.01 30.01 30.01 30.01 30.01 30.01 30.01 30.01 30.01 30.01 30.01 30.01
0 5.628 10.38 2.946 1.451 14.6 14.55 5.408 0.9233 0 0.3517 2.462 -0.8793 -1.407 0.1759 -7.386 -5.276
0.005 8.881 19.7 7.958 5.012 20.49 21.81 8.178 3.517 2.814 0 3.781 0.8793 0.2638 1.143 -9.409 -6.419
0.01 13.19 28.01 11.34 7.65 22.82 25.54 9.849 5.76 5.452 -1.143 4.748 3.254 2.198 2.198 -8.881 -6.155
0.015 16 29.59 8.53 7.211 18.99 22.12 7.167 5.892 6.727 -2.99 4.221 5.1 4.133 4.309 -5.188 -3.781
0.02 16.09 22.99 -0.3517 3.341 10.86 12.97 -0.1759 2.418 5.496 -4.66 2.462 5.54 3.341 5.892 -0.08793 -1.319
0.025 13.81 12.75 -9.805 -1.891 3.254 4.397 -8.178 -3.693 2.066 -4.836 1.319 4.836 -1.143 5.1 3.781 -0.9673
0.03 9.233 4.089 -13.76 -5.672 -1.627 0.6155 -12 -8.574 -1.451 -2.022 2.286 4.66 -6.067 2.55 6.331 -1.583
0.035 3.254 -0.3517 -10.64 -6.067 -4.968 1.011 -9.189 -8.925 -3.605 3.957 5.54 5.804 -8.354 -0.4397 8.793 -1.319
0.04 -1.407 0.1759 -3.561 -3.605 -6.287 4.177 -0.7035 -5.628 -4.748 10.55 9.497 6.595 -9.585 -5.1 10.64 -0.8793
0.045 -2.638 4.309 2.286 -0.6155 -4.441 8.134 8.134 -2.462 -5.496 14.33 11.78 4.485 -12.31 -10.64 9.849 -1.847
0.05 -2.022 6.727 2.374 0.7914 -1.803 7.87 9.673 -2.594 -5.76 13.01 9.409 -1.759 -15.65 -13.54 5.892 -3.517
0.055 -2.638 2.286 -3.825 0.1319 -2.902 -1.011 0 -6.639 -5.584 6.947 1.495 -10.46 -17.41 -11.7 0.5276 -4.045
0.06 -5.188 -8.705 -12.71 -2.506 -8.178 -16.05 -16.05 -12.97 -5.672 -1.583 -9.145 -18.38 -17.59 -8.09 -4.573 -3.869
0.065 -8.53 -21.28 -19.65 -7.035 -13.94 -29.28 -28.4 -18.16 -6.287 -9.673 -18.11 -22.42 -16.44 -6.331 -9.321 -4.045
0.07 -11.61 -30.16 -22.69 -12.09 -16.97 -34.47 -29.72 -18.25 -6.507 -15.3 -22.86 -21.54 -13.1 -5.892 -13.63 -5.012
0.075 -13.28 -32.01 -21.59 -14.77 -15.92 -30.12 -19.83 -11.96 -5.408 -18.38 -23.65 -17.85 -7.826 -5.1 -17.76 -6.947
0.08 -11.87 -24.89 -15.08 -12 -10.51 -18.25 -4.529 -2.154 -2.242 -20.22 -22.07 -13.98 -3.341 -3.605 -21.98 -10.64
0.085 -6.683 -10.29 -2.946 -3.034 -2.902 -3.781 8.134 6.771 3.078 -21.37 -19.35 -10.9 -0.5276 -1.231 -25.15 -14.6
0.09 0.1759 5.232 10.77 8.881 2.506 6.551 12.66 11.96 9.145 -20.05 -15.04 -6.859 2.638 2.462 -23.74 -15.3
0.095 6.067 14.51 18.95 17.98 3.605 9.409 9.145 12.44 12.44 -14.33 -8.266 -0.1759 6.947 5.628 -15.83 -10.9
0.1 9.057 14.99 17.15 18.99 2.55 7.123 2.99 8.705 10.64 -4.221 1.407 8.617 9.673 4.748 -3.605 -3.693
0.105 8.705 9.98 7.65 11.65 2.902 4.88 0 3.21 4.617 7.914 12.49 16.88 8.617 -0.3517 8.354 2.814
0.11 5.804 5.188 -2.154 1.495 5.584 5.979 2.814 -0.4397 -2.242 18.91 22.25 22.25 5.54 -5.628 16.8 7.298
0.115 2.99 5.32 -5.012 -3.913 9.277 10.77 10.07 -0.08793 -6.727 25.94 28.4 23.92 2.99 -7.562 20.84 9.761
0.12 2.726 10.9 1.231 -1.671 12.18 17.59 17.98 3.122 -6.859 27.87 30.43 22.95 2.286 -5.804 21.37 10.9
0.125 4.573 17.54 11.21 4.792 12.79 22.86 21.94 6.375 -2.946 24.89 28.23 20.58 4.133 -1.407 20.05 11.7
0.13 5.54 18.77 15.52 9.189 10.24 22.77 19.17 7.298 2.242 17.94 21.9 17.06 8.178 4.573 17.67 12.75
0.135 3.166 11.83 9.321 7.65 4.968 15.56 10.2 5.144 5.364 7.914 10.9 11.34 12.05 10.29 13.54 12.84
0.14 -2.198 -0.1319 -2.638 1.231 -1.891 2.638 -1.275 0.9673 5.408 -4.045 -3.517 2.638 12.66 12.84 6.595 10.11
0.145 -8.354 -11.48 -10.99 -5.364 -9.321 -12.22 -10.99 -2.814 3.957 -15.92 -18.47 -7.211 9.936 11.61 -2.198 5.012
0.15 -12.22 -18.77 -10.86 -7.914 -15.74 -24.4 -15.83 -3.825 2.682 -23.83 -29.02 -14.68 7.035 8.442 -9.849 0.3517
0.155 -12.66 -22.38 -5.276 -5.628 -18.95 -30.12 -15.65 -1.583 2.374 -24.71 -31.22 -16.8 6.067 5.54 -13.19 -1.407
0.16 -10.9 -24.09 -0.4836 -1.319 -17.94 -28.89 -13.19 1.715 3.341 -18.29 -24.89 -13.54 6.243 3.517 -10.99 0
0.165 -9.585 -24.58 0.04397 1.495 -13.67 -22.82 -11.17 3.473 5.1 -7.211 -13.45 -7.826 5.628 2.286 -4.66 2.814
0.17 -9.321 -22.34 -2.418 1.847 -7.65 -14.47 -9.849 2.638 5.716 4.66 -1.319 -2.814 3.254 1.671 2.814 4.66
0.175 -8.793 -16.14 -4.309 0.7914 -1.143 -5.32 -7.298 0.08793 3.473 14.6 8.442 0 0.1759 0.7914 8.09 4.133
0.18 -6.859 -7.386 -2.726 -0.4836 5.012 3.429 -2.242 -2.286 -0.4397 20.66 15.04 1.495 -1.847 -0.9673 9.497 1.407
0.185 -4.045 0.04397 1.671 -1.627 10.07 10.95 4.441 -2.858 -3.166 22.16 18.73 3.166 -0.8793 -2.462 7.562 -0.8793
0.19 -1.495 3.473 5.496 -2.066 13.54 16.18 10.9 -0.3957 -3.034 19.79 19.61 5.979 3.781 -1.495 4.748 -0.1759
0.195 0.1759 3.517 6.859 -1.011 14.29 17.89 15.34 4.88 -0.3957 13.81 17.23 9.233 10.2 2.198 3.254 3.957
0.2 0.7914 3.298 7.606 1.715 10.55 14.9 16.97 11.04 3.21 5.1 10.82 11.17 13.89 5.364 3.957 9.321
0.205 1.143 5.188 10.55 5.012 2.418 7.826 16.4 15.21 5.716 -4.924 1.495 10.64 12.05 4.924 5.979 12.66
0.21 1.935 8.134 14.55 6.859 -6.727 -0.1319 14.68 15.52 4.792 -13.63 -8.002 7.65 5.716 0.8793 7.035 12.4
0.215 2.726 8.442 15.17 5.628 -12.84 -6.287 11.39 11.34 0.4836 -18.82 -15.04 3.254 -2.022 -3.869 5.276 8.705
0.22 2.022 3.605 10.07 1.451 -14.11 -10.24 4.748 3.254 -4.089 -20.22 -18.64 -1.759 -8.705 -6.595 0.4397 3.254
0.225 -0.2638 -4.265 1.803 -3.341 -11.34 -12.57 -5.144 -6.815 -5.848 -18.73 -18.91 -6.771 -13.45 -6.243 -5.804 -2.286
0.23 -2.55 -9.936 -4.968 -5.848 -5.979 -12.75 -14.38 -15.48 -4.924 -14.6 -16.18 -10.55 -15.56 -3.781 -11.26 -6.595
0.235 -2.902 -9.761 -7.43 -5.056 0.3078 -9.585 -17.72 -19.52 -3.429 -7.738 -10.55 -12.05 -14.33 -1.759 -13.81 -8.881
0.24 -1.495 -5.188 -6.331 -3.078 5.892 -3.254 -13.23 -17.89 -2.902 0.8793 -2.638 -10.64 -10.29 -1.847 -12.93 -9.057
0.245 -0.4397 -0.6595 -4.836 -2.77 9.365 4.397 -3.825 -12.31 -3.473 9.497 5.716 -7.298 -4.221 -3.341 -9.145 -6.683
0.25 -0.9673 0.4397 -6.155 -4.748 10.07 10.46 4.924 -5.452 -4.748 15.21 11.61 -3.781 2.462 -3.341 -3.869 -1.935
0.255 -2.55 -1.319 -9.849 -6.991 7.474 11.78 8.266 0.1319 -6.111 15.83 12.49 -1.671 7.826 -0.6155 1.143 3.869
0.26 -3.781 -2.726 -11.17 -6.727 1.627 7.079 5.144 3.254 -6.331 10.55 7.826 -1.583 9.233 2.286 4.66 7.65
0.265 -3.429 -0.7474 -5.76 -3.341 -5.32 -0.6595 -0.6595 4.485 -4.792 1.935 0.4397 -2.11 6.331 2.462 5.54 7.211
0.27 -1.231 4.177 4.792 1.495 -9.805 -6.287 -3.825 5.584 -2.462 -5.716 -5.1 -0.8793 2.286 0.1759 4.397 2.814
0.275 1.583 8.705 13.81 5.012 -9.673 -6.287 -2.198 7.298 -0.4836 -8.881 -5.628 2.99 0.2638 -2.198 2.638 -2.902
0.28 3.429 9.849 15.3 5.012 -6.067 -1.715 1.143 7.606 0.6155 -7.474 -1.847 8.354 0.08793 -2.99 1.847 -7.298
0.285 3.869 8.134 8.354 1.407 -2.11 3.517 1.495 3.737 0.6155 -4.045 2.902 11.87 -0.9673 -2.55 2.374 -9.233
0.29 4.045 6.155 -3.385 -3.737 0.2638 6.683 -2.77 -4.485 -1.759 -0.9673 5.364 11.34 -4.397 -2.022 3.254 -9.057
0.295 4.397 6.023 -14.51 -8.09 1.495 7.342 -9.101 -13.89 -6.903 0.7035 4.397 6.595 -9.233 -2.99 2.902 -8.002
0.3 4.397 7.386 -20.09 -10.29 2.726 6.859 -13.06 -19.74 -12.18 1.583 1.671 0.08793 -12.84 -5.54 0.9673 -6.595
0.305 3.078 8.574 -18.03 -9.936 4.88 6.639 -11.74 -18.86 -13.72 2.814 -0.3517 -5.188 -12.4 -7.298 -1.143 -3.957
0.31 1.231 8.53 -10.2 -6.463 7.65 6.991 -5.364 -11.34 -9.805 5.54 0.2638 -6.771 -6.331 -4.924 -1.319 1.495
0.315 1.055 7.826 -0.3078 0.04397 9.893 7.298 3.254 -0.6155 -1.935 9.409 3.517 -4.397 3.341 1.671 1.407 9.057
0.32 3.429 7.914 9.321 8.134 10.86 6.947 10.73 8.661 6.771 12.84 7.914 0.08793 11.96 8.53 5.716 15.39
0.325 7.035 9.189 17.76 14.73 10.77 6.331 15.3 13.94 13.28 14.86 11.78 4.748 16.44 11.61 8.617 16.97
0.33 9.321 9.893 22.91 17.02 10.73 6.507 16.88 15.7 15.21 15.48 14.25 8.09 17.41 10.29 7.914 13.01
0.335 8.705 7.958 22.16 14.11 10.9 7.079 15.43 15.39 12.44 14.25 14.42 9.321 16.18 6.683 3.781 5.364
0.34 5.54 2.946 15.26 7.562 9.365 5.672 9.717 13.01 7.298 10.29 10.99 7.562 11.87 2.286 -2.022 -3.078
0.345 2.11 -3.166 5.232 0.5276 3.913 0.04397 -0.4836 7.606 2.462 2.638 3.429 2.374 3.078 -2.374 -7.035 -9.936
0.35 0.4397 -7.826 -4.089 -3.869 -5.012 -8.881 -12.53 -0.4397 -1.363 -7.386 -6.859 -4.924 -8.969 -6.683 -9.673 -13.45
0.355 0.4397 -10.07 -10.46 -4.924 -14.16 -17.23 -21.32 -8.749 -5.1 -16.88 -16.36 -11.7 -20.14 -10.38 -9.321 -13.19
0.36 -0.3517 -10.99 -13.32 -4.529 -19.96 -20.97 -23.43 -14.47 -8.266 -22.25 -21.1 -15.04 -25.5 -12.57 -6.243 -9.321
0.365 -4.221 -12.44 -14.2 -5.232 -20.97 -19.21 -19.52 -15.92 -9.541 -21.28 -19.17 -12.75 -21.72 -11.7 -0.6155 -2.022
0.37 -9.585 -14.51 -15.56 -7.386 -17.94 -13.94 -12.75 -13.06 -8.178 -14.6 -11.7 -5.452 -9.057 -5.979 6.419 7.298
0.375 -12.13 -14.55 -17.63 -8.486 -12.4 -7.87 -6.023 -6.991 -4.704 -5.188 -2.286 3.781 6.947 2.902 12.57 15.04
0.38 -8.53 -9.497 -16.62 -5.848 -5.892 -2.594 0.04397 0.6595 0.3517 2.814 5.188 11.08 18.38 10.46 15.12 16.88
0.385 0.08793 0.5716 -8.354 0.9233 0.3957 1.891 6.947 8.793 6.023 7.123 8.793 14.07 20.14 12.93 12.66 11.17
0.39 9.057 11.21 5.848 9.101 5.848 6.331 14.99 15.61 9.761 8.354 9.233 12.49 13.19 10.02 6.683 0.5276
0.395 12.93 15.96 18.64 13.98 9.409 9.936 20.97 18.16 9.145 8.266 8.266 8.002 1.847 4.045 0 -9.761
0.4 9.497 11.48 22.34 12.13 9.409 10.2 19.52 13.15 4.265 7.562 6.595 2.374 -9.849 -2.726 -4.66 -15.39
0.405 1.319 0.6595 14.99 4.045 5.76 5.936 8.925 1.055 -2.066 5.716 4.397 -2.902 -18.2 -7.826 -6.507 -14.51
0.41 -5.716 -8.442 1.539 -5.276 1.055 -0.1319 -4.617 -11.96 -6.991 2.462 1.759 -6.507 -19.26 -8.969 -6.155 -8.266
0.415 -6.947 -8.969 -9.453 -10.42 -0.8354 -3.078 -10.95 -17.15 -8.354 -1.319 -0.7035 -7.298 -11.7 -5.804 -5.188 0.4397
0.42 -2.462 -0.3957 -11.43 -9.541 1.011 -0.8354 -4.529 -10.2 -5.276 -4.573 -2.638 -5.364 2.022 0 -4.397 8.178
0.425 2.902 9.849 -4.617 -5.056 3.825 3.473 9.761 5.1 1.099 -6.155 -4.045 -2.55 16.27 5.892 -4.133 12.49
0.43 4.309 12.35 3.869 -0.9673 3.561 4.133 20.27 19.17 7.298 -5.979 -5.716 -1.143 24.62 10.38 -4.485 12.49
0.435 0.5276 3.166 6.771 0.8354 -1.187 -1.803 17.32 23.08 9.98 -5.012 -7.914 -2.99 22.86 12.05 -5.804 7.826
0.44 -5.628 -12.57 3.693 1.055 -8.09 -11.78 1.319 14.82 9.057 -4.485 -9.936 -7.738 10.9 10.02 -8.354 -0.6155
0.445 -9.761 -24.05 0.3957 1.627 -12.35 -18.64 -16.8 0.2198 6.859 -4.221 -10.02 -12.13 -5.276 5.276 -10.55 -9.761
0.45 -8.53 -22.77 1.539 3.385 -10.11 -15.74 -23.92 -11.08 5.012 -2.814 -6.067 -12.31 -16.8 0.7035 -10.38 -15.12
0.455 -1.935 -8.617 6.287 5.1 -1.451 -2.638 -14.73 -13.23 3.561 0.7914 1.495 -6.683 -18.2 -1.759 -6.683 -13.98
0.46 6.243 10.51 10.2 4.485 9.189 13.94 4.045 -7.298 2.506 5.892 10.38 2.726 -10.9 -2.374 -0.7035 -7.474
0.465 11.78 25.06 10.02 1.143 16.75 25.59 20.31 1.011 1.891 10.46 16.88 11.34 -0.7914 -2.11 4.573 0.08793
0.47 12.84 29.77 5.892 -2.462 19.35 28.23 26.12 7.035 1.407 12.93 18.82 15.12 7.035 -1.407 6.683 4.924
0.475 10.55 25.54 0.8793 -3.473 18.16 23.61 21.81 9.013 0.5716 12.84 15.92 12.84 9.849 -0.7035 5.54 5.012
0.48 6.507 16.49 -1.803 -1.671 14.68 15.17 12.22 6.947 -0.4397 9.673 8.881 5.979 7.298 -1.583 2.902 1.055
0.485 1.935 5.892 -2.154 0.1319 8.925 5.144 1.539 1.319 -1.407 3.254 -0.7035 -2.286 0.9673 -4.397 0.7914 -4.133
0.49 -2.374 -4.529 -3.561 -0.4836 0.7474 -5.32 -8.398 -6.375 -2.682 -5.628 -10.73 -8.881 -5.628 -7.386 -0.3517 -7.65
0.495 -5.276 -13.19 -8.046 -3.429 -8.266 -14.6 -16.31 -13.32 -4.177 -14.86 -18.38 -11.78 -9.936 -8.354 -1.495 -8.881
0.5 -5.628 -16.71 -12.13 -5.936 -14.82 -19.39 -19.61 -15.74 -4.045 -21.02 -20.66 -10.55 -10.99 -6.507 -3.517 -8.793
0.505 -3.341 -12.27 -9.849 -5.144 -15.48 -16.62 -15.17 -11.12 -0.5276 -20.66 -16.18 -5.892 -8.705 -2.022 -5.628 -7.826
0.51 0.3517 -1.099 0 -0.8354 -9.453 -6.375 -3.166 -0.5716 5.056 -12.22 -6.067 0.3517 -3.517 3.781 -5.804 -5.364
0.515 3.078 10.02 10.95 3.869 -0.3517 5.628 10.11 10.16 9.189 0.9673 5.188 5.628 2.11 8.266 -3.078 -0.9673
0.52 1.935 12.93 14.6 4.836 5.364 11.04 14.68 13.89 9.101 12.57 12.31 7.298 4.485 8.793 0.8793 4.133
0.525 -3.517 3.913 6.947 0.3078 3.21 5.056 5.1 7.386 4.836 16.53 11.96 4.485 1.583 4.924 3.341 7.65
0.53 -10.29 -12.18 -8.31 -6.771 -5.056 -8.749 -13.59 -5.056 -1.803 11.78 5.364 -1.407 -3.957 -0.3517 2.55 8.178
0.535 -13.63 -25.06 -22.16 -11.65 -13.01 -21.24 -28.89 -14.99 -8.134 2.11 -3.781 -7.386 -8.002 -4.221 -0.8793 5.716
0.54 -11.08 -26.2 -25.9 -11.3 -14.47 -24.67 -30.47 -16.18 -11.26 -7.211 -11.7 -11.17 -8.09 -6.067 -4.397 1.759
0.545 -4.045 -15.17 -17.23 -6.243 -8.31 -18.33 -17.89 -8.925 -10.11 -12.66 -16.62 -12.05 -4.66 -6.771 -5.364 -0.9673
0.55 3.429 0.4836 -2.55 0.9233 1.187 -7.562 0.1759 1.231 -6.375 -13.81 -18.29 -10.29 -0.2638 -6.683 -2.814 -1.143
0.555 7.914 11.26 9.233 7.694 7.826 0.9673 12.84 8.134 -2.726 -12.31 -16.88 -6.859 2.198 -5.892 1.847 0.7035
0.56 7.826 12.53 13.89 12.31 7.474 4.265 14.82 8.749 -0.04397 -9.849 -12.22 -2.198 0.6155 -5.012 6.507 2.11
0.565 4.133 6.947 13.19 14.07 1.539 4.089 9.013 4.968 2.154 -6.771 -4.309 3.254 -3.517 -3.869 9.936 1.231
0.57 -0.3517 0.5716 10.38 12.93 -4.309 4.748 2.77 1.187 3.473 -1.847 5.979 8.969 -5.979 -1.935 12.05 -0.7914
0.575 -3.078 -2.198 6.551 9.145 -4.66 8.134 0.5716 0.3957 2.946 4.924 15.83 13.72 -3.693 0.8793 13.01 -1.935
0.58 -3.254 -1.539 1.407 3.385 1.451 11.91 0.8793 1.627 0.7035 11.87 22.07 15.74 2.198 3.254 12.93 -0.8793
0.585 -1.495 0.1759 -4.573 -2.726 10.2 12.71 -0.2638 2.066 -1.671 16.36 22.69 14.33 8.09 4.397 11.43 2.198
0.59 1.495 1.363 -10.16 -6.815 16.62 9.936 -4.001 0.3957 -3.254 16.88 18.29 10.29 11.17 5.276 8.354 5.452
0.595 4.836 2.418 -12.88 -7.167 17.85 6.023 -7.255 -2.154 -3.649 13.98 10.9 4.66 10.29 5.979 3.693 6.419
0.6 6.947 4.397 -10.68 -4.309 14.16 3.517 -6.727 -3.693 -2.77 8.442 2.55 -1.671 5.716 5.452 -2.022 3.517
0.605 6.507 6.639 -3.737 -0.4836 7.87 2.55 -2.55 -3.298 -1.187 1.495 -5.54 -8.354 -0.3517 3.078 -7.738 -1.935
0.61 3.429 6.463 3.957 2.418 1.363 1.319 1.891 -1.143 -0.4397 -5.364 -12.4 -13.98 -4.748 0.08793 -11.87 -6.859
0.615 -0.6155 1.979 8.134 3.825 -4.001 -1.759 2.99 1.847 -1.231 -10.82 -16.44 -16.53 -5.804 -1.671 -12.75 -8.442
0.62 -3.869 -5.1 8.266 4.133 -8.53 -6.551 0.1319 4.529 -2.066 -13.63 -16.88 -14.16 -4.045 -1.583 -9.585 -6.331
0.625 -4.836 -10.24 7.211 3.737 -12.05 -10.33 -3.517 6.375 -0.5716 -13.19 -13.45 -6.419 -0.8793 0.1759 -3.254 -1.935
0.63 -2.99 -9.189 7.035 3.254 -13.1 -10.02 -3.957 7.386 3.078 -9.233 -7.211 4.309 3.254 3.605 4.397 3.166
0.635 1.055 -1.935 6.947 2.77 -9.936 -5.012 -0.3517 6.991 6.551 -2.726 0.08793 14.16 7.474 7.211 10.82 7.386
0.64 5.628 7.123 5.1 1.979 -2.726 2.022 3.781 3.913 7.606 4.66 6.947 19.61 9.936 8.705 14.51 9.936
0.645 8.969 12.62 1.187 0.7914 6.199 8.046 4.748 -1.935 5.804 11.52 12.93 19.7 9.409 7.123 15.3 10.55
0.65 9.936 12.27 -3.385 -0.08793 14.25 12.4 2.638 -7.782 2.198 17.32 18.55 16.53 7.298 4.221 13.98 9.673
0.655 8.793 8.442 -5.848 -0.04397 19.83 16.66 1.451 -9.321 -1.143 21.63 23.57 12.84 5.54 1.935 11.17 7.123
0.66 6.595 5.848 -3.166 1.143 22.42 21.37 4.309 -4.485 -1.847 22.95 26.12 9.673 4.748 1.055 6.419 2.638
0.665 4.748 6.991 4.573 2.77 21.76 24.27 9.98 4.353 0.9673 19.96 23.57 5.892 4.573 1.143 -0.6155 -3.166
0.67 4.573 10.11 12.75 4.045 17.81 21.54 13.28 12.05 4.968 12.13 14.68 0.2638 3.957 2.198 -8.969 -8.53
0.675 6.155 10.51 15.21 4.221 10.33 10.55 9.321 13.41 6.815 0.8793 0.9673 -7.386 1.847 3.254 -16.27 -11.87
0.68 7.211 4.704 9.849 2.594 -0.1759 -7.079 -2.286 6.815 5.408 -11.26 -13.89 -15.04 -2.55 2.462 -20.31 -12.84
0.685 4.66 -6.683 -0.08793 -1.143 -11.74 -25.37 -16.27 -4.353 1.979 -21.1 -25.24 -19.35 -8.002 -0.7914 -20.22 -12.05
0.69 -2.462 -19.39 -9.805 -6.023 -20.44 -36.01 -24.4 -13.81 -1.979 -25.5 -29.11 -18.11 -11.08 -5.1 -16.62 -9.849
0.695 -11.87 -27.66 -15.83 -10.38 -22.86 -33.9 -21.9 -16.71 -5.892 -22.86 -23.92 -11.61 -9.761 -8.617 -10.9 -6.771
0.7 -18.82 -27.7 -17.02 -12.75 -18.73 -20.27 -10.51 -13.06 -8.661 -14.25 -11.61 -2.11 -5.452 -10.46 -3.957 -3.429
0.705 -19.79 -19.21 -14.03 -12.75 -10.99 -1.451 3.254 -6.551 -9.277 -2.55 3.605 7.035 -0.7914 -10.2 3.517 -0.08793
0.71 -14.51 -5.232 -9.057 -10.55 -3.078 15.12 13.54 -0.6595 -7.606 8.354 16.62 13.37 2.638 -7.035 10.99 3.078
0.715 -6.155 9.277 -4.309 -6.683 2.682 24.4 17.81 3.122 -4.353 15.12 23.13 15.56 4.836 -1.759 16.44 5.012
0.72 0.6155 19.57 -0.1759 -2.418 5.804 24.49 16.22 4.792 -0.2198 15.92 21.19 13.45 5.1 2.638 17.15 4.397
0.725 3.429 22.51 3.385 0.8793 6.419 16.58 10.51 4.441 3.561 11.17 12.13 7.65 3.517 4.133 11.7 0.7914
0.73 3.254 18.07 5.232 2.77 5.144 4.88 3.034 2.55 5.012 4.309 0.7035 0.6155 0.9673 2.638 2.11 -4.045
0.735 2.99 8.925 3.913 3.385 2.55 -5.628 -3.385 0.08793 3.122 -0.9673 -7.65 -4.573 -1.231 -0.08793 -7.035 -7.738
0.74 3.957 -0.4397 0.6155 3.122 -0.9673 -11.17 -6.287 -1.539 0 -2.55 -9.585 -5.188 -2.462 -2.198 -11.52 -8.354
0.745 4.573 -6.375 -1.275 2.506 -4.485 -10.29 -4.045 -0.6595 -1.099 -0.7035 -5.012 -0.9673 -1.759 -2.462 -9.936 -5.364
0.75 2.814 -7.562 0.08793 2.11 -6.243 -4.353 2.77 3.737 0.6595 2.726 2.726 5.628 1.583 -0.08793 -4.221 0.3517
0.755 -1.231 -5.452 3.473 2.11 -5.188 2.814 10.95 9.893 3.473 5.54 9.321 10.38 6.419 3.254 1.583 6.683
0.76 -5.452 -2.726 5.979 1.539 -2.506 6.507 15.21 13.63 4.748 5.716 10.55 9.497 9.233 4.485 3.957 11.43
0.765 -7.211 -1.495 5.188 -0.4397 -1.055 3.869 12.35 11.48 3.254 2.286 5.628 2.55 7.914 2.198 2.286 13.63
0.77 -5.452 -2.418 0.3957 -3.561 -2.506 -3.517 4.397 3.957 -0.5716 -3.517 -2.99 -7.123 3.869 -1.759 -1.407 13.89
0.775 -1.935 -5.1 -6.595 -6.023 -6.331 -11.3 -3.254 -4.836 -5.188 -9.761 -11.17 -14.68 -0.08793 -4.836 -4.748 12.84
0.78 0 -8.574 -11.78 -6.375 -10.33 -15.21 -6.375 -10.9 -7.914 -14.6 -15.56 -17.41 -3.254 -6.331 -6.859 9.849
0.785 -1.935 -11.7 -11.74 -4.617 -12.53 -13.98 -4.748 -12.62 -7.782 -17.06 -15.65 -16.09 -6.419 -7.211 -8.705 4.045
0.79 -6.683 -13.59 -7.43 -2.154 -11.96 -9.145 -1.891 -10.82 -6.375 -17.06 -13.45 -13.89 -9.936 -7.914 -11.52 -3.869
0.795 -10.9 -13.76 -2.594 -0.6155 -9.409 -4.177 -1.583 -7.518 -5.76 -15.65 -11.7 -13.28 -13.1 -8.002 -15.3 -11.87
0.8 -11.96 -11.87 0.4397 -0.8793 -7.079 -2.33 -5.1 -4.089 -5.276 -13.98 -11.96 -14.07 -14.42 -7.123 -18.47 -17.23
0.805 -9.673 -8.002 2.33 -1.979 -6.331 -4.045 -9.673 -0.3957 -2.682 -12.31 -13.1 -13.45 -11.87 -3.869 -18.03 -17.41
0.81 -5.364 -2.726 4.309 -1.891 -6.463 -6.507 -10.64 4.001 2.506 -9.233 -11.96 -8.09 -4.66 2.462 -11.7 -11.7
0.815 -0.7035 3.166 6.111 0.4397 -5.32 -5.936 -5.584 8.134 7.914 -3.078 -6.067 2.286 4.397 9.936 0.3517 -1.935
0.82 3.166 8.793 6.331 3.298 -2.022 -1.143 2.55 8.617 10.16 5.628 3.605 13.98 9.497 13.98 14.95 7.65
0.825 5.276 12.97 3.385 3.341 2.33 5.672 7.65 2.814 7.342 14.77 13.37 21.46 6.947 11.52 27.35 13.98
0.83 5.364 14.16 -3.385 -0.7035 5.979 10.95 5.716 -8.046 -0.08793 21.46 18.82 21.19 -1.583 3.957 33.5 15.92
0.835 3.517 11.52 -12.05 -6.903 7.518 11.87 -2.286 -18.86 -9.013 23.57 18.29 13.81 -10.64 -4.573 31.83 13.72
0.84 0.08793 6.155 -17.28 -11.12 6.683 8.134 -11.17 -23.7 -14.33 20.58 12.93 3.605 -15.56 -10.55 23.3 8.266
0.845 -3.517 0.9233 -14.42 -10.33 4.441 2.242 -14.95 -19.7 -13.01 13.54 5.628 -4.309 -14.07 -11.87 10.55 0.8793
0.85 -5.188 -1.539 -4.133 -4.485 2.462 -1.935 -10.55 -8.398 -6.507 4.748 -0.6155 -6.859 -6.595 -8.178 -2.726 -5.716
0.855 -3.254 -0.9233 7.474 3.254 1.715 -2.462 0.1319 5.188 0.8793 -3.429 -4.397 -4.397 4.045 -0.9673 -13.1 -8.881
0.86 1.583 0.7035 14.6 8.881 1.539 -0.5716 11.39 15.39 6.419 -9.673 -6.067 0 13.63 6.595 -18.47 -7.123
0.865 6.595 0.7914 15.48 10.33 0.7474 1.099 17.85 19.43 9.98 -12.75 -6.243 3.078 19.26 12.13 -17.94 -1.319
0.87 9.145 -1.187 12.27 9.189 -0.4836 1.451 18.11 18.6 12 -12.13 -5.276 3.166 20.14 14.95 -12.84 5.452
0.875 8.793 -3.298 8.661 8.178 -1.055 0.9673 14.25 16 12.27 -8.442 -3.869 0.08793 16.44 14.16 -6.067 8.354
0.88 6.507 -3.122 7.386 8.354 -0.4836 0.3957 8.266 12.75 10.24 -4.221 -3.605 -5.452 7.65 8.705 -2.022 4.133
0.885 3.869 -0.5716 8.046 8.31 0.1759 -1.143 0.7035 7.738 5.76 -2.198 -5.892 -12.84 -4.924 -0.7035 -3.254 -5.716
0.89 2.022 1.099 7.255 6.551 -0.4836 -5.1 -7.87 -0.04397 -0.5276 -3.517 -10.99 -20.49 -16.97 -10.11 -9.057 -15.48
0.895 0.9673 -1.143 2.682 3.605 -3.298 -11.87 -15.7 -9.365 -6.551 -7.123 -16.62 -25.59 -22.95 -14.86 -15.83 -18.64
0.9 -0.4397 -7.167 -3.341 1.583 -7.518 -19.52 -19.35 -16.4 -8.661 -10.64 -19.87 -25.76 -20.4 -13.28 -19.17 -12.93
0.905 -3.429 -12.57 -5.979 2.286 -11.39 -23.96 -15.65 -17.02 -4.748 -12.13 -18.47 -19.26 -9.849 -6.595 -16.62 -0.9673
0.91 -7.65 -13.01 -3.078 5.54 -12.66 -21.24 -4.353 -9.409 2.726 -10.46 -12.22 -7.211 5.188 1.759 -8.881 11.7
0.915 -11.34 -7.958 2.33 8.837 -10.42 -11.39 9.893 3.517 8.661 -6.067 -3.078 6.947 19.08 8.002 1.319 19.87
0.92 -12.75 -1.275 5.848 9.057 -5.892 1.055 19.43 15.12 9.541 -0.3517 5.716 17.94 25.76 9.057 10.46 21.37
0.925 -10.82 2.418 5.32 5.408 -1.011 10.2 18.82 19.3 5.672 5.012 12.13 21.81 22.42 5.364 16.53 17.23
0.93 -5.54 2.374 1.847 0.5716 3.341 13.28 9.453 14.73 -0.4836 9.321 15.3 18.03 11.34 0.4397 18.82 10.46
0.935 1.935 1.715 -1.583 -1.759 7.518 11.87 -1.935 5.012 -6.199 11.61 15.39 9.321 -2.022 -2.462 17.59 3.254
0.94 8.705 3.825 -2.55 -0.6595 10.73 9.101 -8.969 -4.573 -9.145 10.64 12.49 0.2638 -13.01 -3.341 13.1 -3.957
0.945 11.17 7.738 -1.363 1.407 11.21 6.595 -9.761 -10.24 -8.617 6.067 7.298 -5.188 -18.11 -2.99 6.507 -10.46
0.95 7.562 8.53 -1.319 1.407 7.738 4.045 -6.683 -10.2 -5.848 -0.2638 1.407 -5.628 -15.3 -1.407 -0.08793 -14.42
0.955 -0.6155 2.506 -4.485 -1.407 1.187 0.5276 -3.429 -5.012 -2.242 -5.54 -3.166 -2.198 -5.979 1.671 -4.924 -14.33
0.96 -9.145 -8.09 -8.266 -5.012 -5.672 -3.649 -2.066 2.814 1.935 -7.738 -5.276 1.935 4.748 5.1 -7.386 -10.99
0.965 -13.28 -15.56 -7.562 -6.155 -9.717 -6.507 -1.803 9.717 6.639 -6.859 -5.276 3.693 11.34 7.298 -8.354 -6.859
0.97 -9.761 -13.19 -1.363 -3.517 -8.837 -5.584 -0.8354 12.44 9.629 -4.397 -4.309 1.935 11.26 7.035 -9.233 -4.133
0.975 0.1759 -1.539 5.892 1.055 -3.341 -1.011 1.231 8.881 8.09 -2.638 -3.693 -1.847 5.364 3.781 -10.29 -3.517
0.98 11.52 11.74 8.705 4.089 3.825 4.045 2.594 -0.4836 2.066 -2.726 -3.869 -5.1 -2.814 -2.198 -10.29 -3.605
0.985 18.82 18.25 5.628 3.561 9.717 6.243 2.066 -11.3 -4.836 -4.045 -3.781 -5.276 -8.617 -8.266 -7.562 -1.935
0.99 19.61 15.61 0.2198 1.363 13.45 5.32 1.319 -16.62 -8.442 -4.309 -1.935 -1.407 -7.562 -10.38 -1.583 2.462
0.995 16.36 9.101 -1.671 1.231 15.7 4.309 3.649 -11.48 -6.463 -1.319 2.374 5.54 0.4397 -6.595 5.716 8.002
1 13.1 6.463 3.605 4.88 16.71 6.155 9.98 2.462 0.5716 4.748 8.442 13.1 10.82 0.5276 11.43 10.99
1.005 12.13 10.86 13.89 9.936 15.74 11.17 17.06 17.72 9.277 11.78 14.68 18.73 17.76 7.298 13.72 9.585
1.01 12.75 18.69 21.68 12.4 12.49 16.93 20.05 25.85 14.51 17.59 19.52 21.28 18.73 11.17 13.28 5.628
1.015 12.22 23.26 20.14 9.805 8.134 20.18 16.14 22.91 13.37 20.31 22.07 20.58 14.33 11.61 12.49 2.55
1.02 8.09 20.66 9.585 2.99 4.309 19.08 6.507 11.34 7.738 19.26 21.9 17.23 6.859 9.057 13.01 2.022
1.025 0.8793 12.44 -3.341 -4.397 2.242 14.38 -4.265 -1.979 2.242 15.12 18.73 12.4 -0.9673 5.364 14.6 3.341
1.03 -5.804 3.298 -12.18 -8.705 2.374 9.057 -11.3 -10.2 -0.1319 9.849 13.54 7.474 -6.067 2.726 15.56 4.485
1.035 -8.266 -2.902 -14.73 -8.749 3.781 5.672 -12.66 -10.82 0.08793 5.364 7.562 3.517 -7.474 2.022 14.68 3.605
1.04 -5.716 -5.32 -12.4 -6.375 4.836 4.353 -10.64 -6.551 0.9673 2.11 1.935 0.7035 -6.859 1.407 11.17 0.4397
1.045 -1.231 -4.924 -7.826 -4.397 4.177 3.385 -8.969 -2.55 0.5716 -0.6155 -2.902 -2.022 -6.683 -0.8793 5.54 -3.693
1.05 0.8793 -3.429 -3.913 -4.089 1.803 1.143 -9.453 -2.154 -2.594 -3.693 -7.562 -6.155 -8.09 -5.364 -1.143 -7.211
1.055 -1.407 -2.242 -2.902 -5.012 -1.803 -2.946 -11.34 -5.979 -8.661 -7.298 -12.13 -11.96 -11.34 -11.34 -8.178 -9.673
1.06 -6.947 -3.078 -5.364 -6.463 -6.683 -8.749 -13.37 -12.53 -15.3 -10.82 -16.27 -18.29 -16 -17.5 -14.42 -11.52
1.065 -12.49 -7.211 -10.24 -8.486 -12.49 -15.08 -14.6 -19.3 -19.43 -13.1 -18.29 -22.16 -19.79 -21.37 -18.55 -12.4
1.07 -14.51 -14.29 -15.7 -10.86 -17.19 -19.57 -14.03 -22.82 -19.61 -12.49 -16.36 -20.93 -18.91 -19.7 -18.82 -10.9
1.075 -11.87 -20.97 -19.08 -12.62 -17.85 -19.74 -10.68 -20.22 -16.14 -8.793 -10.2 -14.25 -11.78 -12.05 -14.77 -6.155
1.08 -6.067 -22.38 -17.02 -12.49 -13.19 -14.86 -4.529 -11.34 -9.321 -3.254 -1.935 -4.748 -1.143 -1.407 -8.002 0.1759
1.085 0 -15.78 -8.398 -9.805 -4.88 -6.639 2.858 0.7474 -0.2638 1.847 5.188 3.341 8.002 7.65 -0.8793 5.276
1.09 4.924 -3.473 2.858 -5.188 3.517 1.891 9.321 11.56 8.266 5.364 9.057 7.738 12.49 12.84 4.66 7.386
1.095 8.266 8.046 10.2 -0.3517 8.793 7.738 12.53 17.1 13.28 6.859 9.497 8.442 12.22 13.89 8.266 7.035
1.1 10.11 12.84 10.46 2.682 9.233 9.013 11.21 15.92 13.81 6.419 7.211 6.947 8.705 11.61 10.02 5.54
1.105 9.409 9.585 6.287 3.341 5.936 6.111 6.111 10.24 11.17 4.309 3.517 4.836 4.397 7.65 9.673 4.309
1.11 5.892 1.935 2.638 2.77 1.891 1.495 0.04397 4.441 6.947 1.143 -0.7914 2.462 1.319 3.957 6.507 3.254
1.115 0.8793 -4.441 2.198 2.55 -0.1759 -2.11 -4.133 1.583 2.33 -1.935 -5.012 -0.6155 -0.8793 0.9673 0.4397 0.8793
1.12 -2.902 -6.287 4.397 2.946 0.2198 -3.517 -5.804 1.055 -1.319 -4.397 -8.266 -4.397 -4.133 -2.198 -7.123 -3.605
1.125 -3.341 -3.869 6.419 2.902 1.935 -2.858 -5.54 0.3078 -3.341 -5.716 -9.145 -7.474 -8.442 -5.1 -13.01 -8.354
1.13 0 0.08793 5.408 1.671 3.385 -0.7035 -3.781 -1.891 -4.265 -5.628 -7.035 -7.65 -10.82 -5.628 -13.98 -9.497
1.135 4.309 3.341 1.143 -0.2198 3.385 2.154 -0.3957 -4.573 -5.056 -4.309 -2.814 -4.309 -8.354 -2.638 -9.145 -4.748
1.14 5.1 4.573 -3.254 -1.979 0.9673 3.869 3.254 -5.979 -5.32 -2.638 0.7914 0.7035 -2.374 2.11 -0.9673 3.781
1.145 -0.2638 2.946 -5.012 -3.254 -4.089 2.33 4.485 -5.804 -4.221 -1.143 1.759 4.397 3.429 5.716 6.507 11.26
1.15 -9.761 -2.242 -5.1 -4.353 -10.16 -3.034 1.187 -5.32 -2.242 0.3517 0.2638 4.836 5.804 6.419 10.11 13.63
1.155 -17.67 -10.55 -6.463 -5.452 -14.07 -10.16 -5.892 -5.892 -0.8793 2.462 -1.847 2.198 3.869 3.957 9.321 10.02
1.16 -18.91 -18.69 -9.321 -6.287 -13.37 -15.43 -12.93 -7.606 -0.4836 4.221 -2.99 -1.583 -0.7035 -0.7914 5.188 2.198
1.165 -13.1 -21.59 -9.98 -5.848 -8.09 -15.7 -14.42 -8.31 -0.3078 3.781 -3.254 -4.924 -4.66 -6.067 -0.5276 -5.979
1.17 -3.781 -16.14 -5.716 -3.254 -0.6595 -10.24 -7.298 -5.232 -0.08793 0.3517 -3.869 -7.035 -4.573 -9.145 -6.419 -11.34
1.175 4.133 -4.353 1.891 0.8793 5.364 -1.935 5.584 1.583 -0.2198 -5.1 -5.804 -8.002 -0.6155 -9.145 -10.99 -12.49
1.18 7.386 6.859 8.31 4.309 7.518 4.177 15.96 8.222 -0.4397 -10.11 -8.09 -8.178 3.693 -7.211 -12.93 -9.849
1.185 5.892 10.42 9.541 4.924 5.496 4.836 16.27 9.893 -0.04397 -11.34 -8.178 -6.947 5.1 -4.924 -10.9 -4.66
1.19 2.374 4.573 5.364 3.385 1.891 1.319 6.463 5.628 0.9233 -7.123 -3.605 -3.166 3.957 -2.198 -5.012 1.935
1.195 -0.1759 -5.188 0.04397 2.726 -0.3078 -1.715 -5.32 -0.2198 2.33 0.9673 4.66 2.902 2.814 1.055 2.198 8.002
1.2 -0.7035 -10.2 -0.3078 5.232 -0.3517 -0.6595 -9.321 -2.154 4.792 8.266 12.66 9.497 3.693 4.133 7.035 11.08
1.205 0.1759 -5.32 6.463 10.24 0.3957 4.353 -1.231 2.418 8.705 10.2 15.56 13.72 6.859 6.331 6.947 10.29
1.21 1.583 6.903 15.43 14.42 0.7474 10.2 14.38 10.95 12.49 5.716 11.7 14.16 11.43 7.914 2.462 7.211
1.215 2.726 18.6 18.55 14.64 0.6595 12.71 27.35 17.02 13.41 -2.198 3.166 10.82 14.33 8.705 -3.078 4.397
1.22 2.99 22.12 12.71 10.24 0.6155 9.541 28.4 15.17 10.38 -8.969 -5.628 4.836 12.05 7.123 -6.595 2.814
1.225 1.583 15.34 2.022 3.649 0.6155 1.495 15.83 5.012 4.397 -11.34 -11.17 -2.198 3.781 2.374 -6.947 1.495
1.23 -1.319 2.022 -7.123 -1.495 0.3517 -7.738 -3.473 -7.87 -2.77 -8.793 -12.22 -8.793 -7.211 -3.781 -5.364 -0.7914
1.235 -5.012 -11.56 -11.52 -3.649 -0.7035 -14.38 -19.57 -16.58 -9.365 -3.517 -10.02 -13.19 -15.65 -9.145 -3.341 -4.66
1.24 -8.266 -20.49 -11.87 -4.265 -2.814 -16.44 -26.25 -17.76 -13.1 1.231 -6.595 -13.98 -18.29 -11.87 -1.759 -8.354
1.245 -10.55 -22.69 -10.99 -5.979 -5.364 -14.11 -23.26 -13.1 -12.49 4.045 -2.726 -10.2 -14.68 -11.17 0.5276 -9.145
1.25 -11.26 -18.16 -10.64 -8.925 -6.551 -8.134 -14.07 -6.375 -8.661 5.452 1.759 -2.814 -6.947 -6.947 4.573 -5.628
1.255 -9.585 -8.046 -10.07 -10.64 -4.968 0.04397 -2.946 -0.7914 -4.309 7.035 6.595 5.276 0.9673 -0.9673 9.673 0.4397
1.26 -5.452 4.88 -6.639 -8.749 -1.363 7.826 6.111 2.022 -1.187 8.705 10.11 10.29 4.573 3.341 13.19 4.836
1.265 -0.2638 15.78 0.1319 -3.825 1.759 11.83 10.16 2.198 0.5276 9.145 10.38 9.673 2.726 4.485 13.1 4.748
1.27 3.869 19.21 6.287 1.011 2.286 10.29 8.046 0.7035 0.8354 6.859 6.507 4.397 -1.407 3.869 8.793 1.319
1.275 4.485 12.57 6.463 2.682 -0.3078 4.001 0.8354 -1.407 -0.2198 1.671 -0.1759 -2.286 -3.869 3.341 2.11 -1.847
1.28 0.7035 -0.9673 0 0.08793 -4.88 -3.913 -8.398 -3.825 -1.715 -5.364 -7.035 -6.859 -3.429 3.078 -4.748 -2.462
1.285 -5.892 -13.59 -7.958 -4.529 -8.969 -9.717 -15.12 -5.804 -2.638 -12.13 -11.7 -8.178 -1.847 2.198 -10.11 -1.055
1.29 -10.9 -17.81 -11.78 -7.43 -9.629 -10.29 -15.26 -6.155 -3.473 -16.18 -12.75 -6.947 -0.7035 0.2638 -13.28 0.3517
1.295 -9.936 -11.34 -9.365 -6.287 -5.408 -5.584 -8.178 -4.133 -4.968 -16.18 -10.46 -4.748 -1.055 -2.374 -13.89 -0.1759
1.3 -2.814 1.187 -2.462 -1.891 1.935 1.319 2.022 -0.5276 -6.111 -12.49 -6.243 -2.462 -2.55 -5.188 -11.96 -2.55
1.305 6.331 12.18 5.496 2.99 8.442 6.683 9.717 3.166 -4.924 -6.859 -1.407 0.1759 -3.254 -6.683 -7.386 -4.397
1.31 12.31 16.14 11.26 6.771 11.08 8.661 11.83 6.551 -0.8793 -0.2638 3.429 4.221 -0.8793 -4.836 -0.8793 -3.166
1.315 12.75 12.93 13.32 9.189 9.365 7.782 9.013 9.629 4.485 6.331 7.826 9.321 4.748 0.3517 6.155 1.055
1.32 9.233 6.595 12.57 10.42 5.628 5.584 3.869 11.87 9.365 12.4 11.26 13.63 10.64 6.507 11.96 5.54
1.325 5.012 1.671 10.64 10.16 3.078 3.517 -1.099 12.4 12.49 17.06 13.19 15.12 13.72 10.99 15.12 7.298
1.33 3.078 0.5276 7.738 8.09 4.177 2.946 -4.089 11.12 12.93 19.96 13.54 13.28 13.72 13.37 15.56 6.155
1.335 4.133 3.078 4.045 5.012 8.749 4.485 -3.649 8.969 10.6 20.75 12.84 9.497 11.96 13.72 13.72 3.605
1.34 6.419 7.87 1.319 2.11 13.67 7.43 0.1759 6.903 7.255 19.08 11.34 5.716 9.057 11.78 10.02 1.231
1.345 8.002 12.75 1.715 0.6155 15.21 10.02 5.936 5.32 4.397 14.95 8.969 2.814 4.836 7.123 5.276 -0.6155
1.35 8.002 14.99 4.177 0.6155 11.87 10.51 10.68 3.693 1.319 9.145 5.54 0.1759 -0.7914 0.9673 0.7914 -2.198
1.355 6.331 12.05 4.617 0.7035 5.32 7.782 11.34 0.6595 -3.605 2.902 1.143 -3.078 -7.298 -5.628 -2.374 -4.221
1.36 2.11 3.605 0.3957 -1.055 -1.759 2.154 6.243 -4.924 -9.98 -3.166 -3.869 -7.562 -13.89 -11.87 -4.133 -7.211
1.365 -4.924 -6.903 -6.727 -5.1 -7.035 -3.957 -2.198 -11.96 -15.08 -8.793 -8.442 -11.87 -18.38 -16.09 -5.1 -9.936
1.37 -12.84 -13.76 -12.49 -9.145 -9.013 -7.079 -7.914 -16.49 -16.36 -13.19 -10.82 -13.63 -17.41 -16 -6.595 -10.38
1.375 -17.15 -12.44 -13.06 -10.02 -7.65 -5.232 -5.892 -14.86 -13.1 -15.48 -10.2 -11.17 -10.02 -10.99 -8.617 -7.386
1.38 -14.33 -3.341 -7.474 -6.551 -4.485 -0.08793 2.946 -6.947 -5.804 -15.39 -7.386 -5.188 0.8793 -2.902 -10.29 -2.11
1.385 -4.836 7.914 1.627 -0.4836 -1.847 4.133 12.13 3.473 3.298 -13.19 -4.221 1.319 10.73 5.1 -10.46 3.693
1.39 6.859 14.51 9.101 5.188 -0.9673 4.485 14.95 11.61 10.82 -9.673 -2.638 4.924 16.36 11.17 -8.617 8.354
1.395 14.95 13.23 11.17 8.398 -1.759 0.9233 9.805 14.33 13.63 -5.804 -2.99 4.221 16.62 13.98 -6.067 10.38
1.4 15.83 6.243 8.486 8.486 -3.473 -3.825 0.3517 11.43 11.78 -2.814 -4.573 0.08793 11.87 12.49 -4.748 9.057
1.405 10.38 -1.055 4.485 6.199 -5.056 -6.639 -7.386 5.056 7.474 -0.8793 -5.54 -4.573 4.045 7.123 -5.1 5.1
1.41 3.078 -4.924 0.9233 2.77 -5.452 -5.848 -9.497 -1.363 2.418 0.8793 -4.309 -6.683 -3.166 0.5276 -5.54 0.4397
1.415 -1.495 -4.704 -2.506 -0.4397 -4.177 -2.506 -6.551 -5.54 -2.462 3.166 -0.6155 -4.836 -7.211 -4.66 -3.693 -2.99
1.42 -2.198 -2.242 -5.628 -2.99 -2.066 0.8354 -2.242 -7.255 -6.199 5.628 3.869 -0.2638 -7.826 -8.09 0.8793 -4.66
1.425 -0.7914 0.5276 -6.551 -4.529 -0.1319 2.242 0.3078 -7.342 -7.738 7.386 7.123 3.957 -6.683 -9.936 6.155 -4.66
1.43 0.5276 2.506 -4.397 -4.88 1.275 1.803 1.275 -6.683 -7.782 7.914 8.002 5.628 -5.1 -10.02 9.409 -3.517
1.435 1.407 2.594 -0.9233 -4.397 2.638 0.5716 1.627 -6.243 -7.738 7.474 6.419 3.781 -4.309 -8.793 9.321 -2.022
1.44 2.11 -0.1319 0.8354 -4.177 3.385 -1.363 0.7035 -7.123 -7.914 6.067 2.99 -0.3517 -5.54 -7.298 6.947 -1.495
1.445 2.814 -5.716 -1.011 -5.188 2.374 -4.529 -3.298 -9.717 -7.386 3.341 -1.319 -4.66 -8.178 -5.979 4.133 -2.198
1.45 3.254 -11.78 -6.419 -6.947 -0.6595 -8.31 -9.805 -12.13 -5.804 -0.4397 -5.1 -6.507 -9.145 -3.693 2.55 -3.693
1.455 2.99 -14.2 -12.13 -7.738 -4.704 -10.55 -14.86 -11.56 -3.298 -4.573 -7.298 -5.012 -5.892 0.2638 2.022 -4.748
1.46 1.759 -10.11 -13.63 -6.639 -7.738 -9.277 -14.25 -6.727 0.08793 -7.474 -6.859 -1.143 0.7035 4.485 1.407 -4.836
1.465 -0.08793 -1.011 -8.617 -4.485 -8.09 -4.265 -6.991 0.5716 4.001 -7.386 -3.693 2.814 7.123 7.123 0.4397 -3.517
1.47 -1.583 7.255 -0.2198 -2.594 -5.1 2.33 3.166 6.771 6.507 -3.254 1.231 5.012 10.11 7.123 -0.08793 -0.8793
1.475 -1.583 9.013 5.76 -1.671 0.1319 7.079 10.2 8.617 5.628 3.517 6.155 4.573 7.914 4.221 0.2638 1.671
1.48 0.08793 3.122 6.551 -1.319 4.792 7.123 9.936 5.276 1.715 9.409 8.354 1.935 1.231 -1.319 0.9673 2.374
1.485 2.55 -5.804 3.913 -0.6595 6.155 2.418 3.605 -0.4836 -2.55 10.9 6.771 -1.231 -6.507 -7.386 0.7914 0.6155
1.49 4.485 -11.65 1.055 0.7035 3.781 -3.825 -2.902 -4.353 -5.144 7.738 2.726 -2.99 -10.02 -10.38 -0.4397 -1.847
1.495 4.836 -11.08 -0.5276 2.154 -0.3517 -7.782 -4.353 -3.385 -5.364 2.99 -0.9673 -2.198 -6.947 -8.354 -1.495 -2.99
1.5 3.254 -5.848 -0.8354 2.066 -3.825 -7.87 -0.6595 1.099 -3.078 -0.08793 -2.198 0.5276 0.2638 -2.638 -0.9673 -2.022
1.505 0.1759 -0.04397 -0.1759 0 -4.88 -5.232 3.913 5.54 0.9233 -0.4397 -0.6155 3.693 6.947 3.254 1.143 0.2638
1.51 -2.638 3.385 1.099 -2.154 -2.814 -1.715 5.76 7.518 4.924 0.6155 2.198 5.892 10.11 7.386 3.341 2.55
1.515 -2.902 4.704 2.858 -1.803 1.759 1.407 4.573 7.298 7.167 0.5276 4.045 6.507 9.936 9.321 3.429 3.429
1.52 -0.4397 5.628 5.32 1.715 6.947 4.177 2.638 6.683 7.826 -2.022 3.781 5.804 8.002 9.145 0.8793 2.902
1.525 2.902 7.167 8.09 6.419 10.6 7.386 2.198 6.903 8.31 -5.892 2.726 5.188 6.243 8.266 -2.022 2.286
1.53 5.188 8.661 9.101 9.365 12.05 12.05 4.177 7.958 8.793 -7.474 3.429 5.892 6.155 7.826 -2.286 3.078
1.535 5.628 9.453 6.771 9.409 12 17.94 7.518 8.705 8.31 -4.397 6.947 8.09 7.123 7.65 0.9673 5.012
1.54 5.012 10.2 2.946 7.43 11.3 22.73 10.33 7.87 6.419 1.847 11.52 10.38 6.771 5.452 5.54 6.155
1.545 4.133 11.74 1.495 5.496 9.98 22.91 11.34 5.54 3.693 7.386 13.63 10.73 3.781 0.3517 7.65 4.836
1.55 3.517 13.59 3.649 4.968 7.826 16.71 10.55 3.254 0.2198 9.145 10.82 7.738 -0.5276 -5.892 5.979 1.407
1.555 2.55 12.97 6.771 5.452 4.792 5.408 8.266 2.198 -3.693 6.859 3.693 1.847 -4.133 -10.46 1.847 -2.374
1.56 0 7.298 7.298 5.056 0.8793 -7.167 3.825 1.495 -6.947 2.814 -4.221 -4.836 -6.771 -12.13 -1.495 -5.276
1.565 -4.133 -3.298 3.957 2.594 -3.341 -16.58 -2.858 -0.4836 -7.738 -0.6155 -9.321 -10.38 -8.969 -11.17 -2.374 -6.683
1.57 -8.354 -15.08 -2.154 -0.8354 -6.771 -19.61 -10.16 -4.221 -6.023 -2.55 -10.55 -13.1 -10.46 -7.738 -1.759 -6.683
1.575 -10.2 -22.64 -8.398 -2.814 -8.749 -16.66 -15.12 -7.826 -3.122 -4.573 -9.849 -13.45 -10.29 -3.078 -2.286 -5.54
1.58 -9.057 -22.6 -11.48 -2.198 -9.849 -11.61 -15.92 -9.101 0 -8.617 -10.46 -12.57 -8.266 1.055 -5.892 -3.869
1.585 -6.419 -15.87 -9.936 0 -10.82 -8.486 -12.93 -7.123 2.814 -14.33 -13.19 -11.08 -4.66 3.341 -10.99 -2.11
1.59 -4.133 -6.683 -5.892 1.495 -11.12 -8.046 -7.694 -2.462 4.221 -18.03 -15.21 -8.354 0.08793 4.133 -13.98 -0.1759
1.595 -2.902 0.2638 -2.902 1.099 -9.233 -7.606 -2.286 2.638 3.385 -15.74 -12.57 -3.341 5.012 4.045 -11.43 1.407
1.6 -2.55 2.902 -2.374 -1.011 -4.66 -4.397 1.583 5.584 1.319 -6.507 -4.045 3.166 8.002 2.902 -3.781 1.847
1.605 -2.462 1.891 -2.946 -3.473 0.7914 1.671 3.298 5.1 0 5.628 7.123 9.057 7.914 0.8793 5.54 0.8793
1.61 -2.11 -0.4836 -3.078 -4.309 4.66 8.134 3.517 2.418 -0.1319 15.21 15.56 11.7 5.716 -0.3517 11.96 -0.2638
1.615 -1.407 -1.847 -2.33 -2.506 5.32 11.83 3.737 0.08793 0.1759 18.29 17.59 10.46 3.429 -0.1759 13.45 -0.7035
1.62 -1.055 -0.8354 -0.2638 0.9673 3.385 11.34 4.66 -0.2638 0.7035 15.12 13.72 6.947 1.495 0.6155 10.82 -0.3517
1.625 -1.759 2.418 3.298 4.001 1.363 8.134 6.023 1.539 1.979 9.497 8.09 3.957 0.4397 1.407 7.298 0.6155
1.63 -2.99 6.419 6.991 4.924 1.671 5.452 7.035 4.924 3.869 5.628 4.66 3.341 1.143 2.726 5.188 2.286
1.635 -3.517 8.881 8.178 3.693 4.353 5.012 6.639 8.442 5.584 4.748 3.693 3.605 3.517 4.924 4.045 4.221
1.64 -2.814 8.134 5.979 1.099 6.243 5.1 3.473 9.717 6.507 4.045 2.286 1.847 5.188 6.683 1.407 5.188
1.645 -1.407 4.133 1.627 -1.627 3.913 2.726 -2.374 6.771 6.243 0.1759 -2.638 -3.781 3.693 6.419 -4.309 4.133
1.65 -0.3517 -1.319 -2.858 -3.254 -2.726 -2.594 -8.486 0.04397 3.913 -6.859 -10.2 -11.34 -0.9673 4.133 -11.78 1.231
1.655 -0.6155 -5.804 -6.067 -3.078 -9.717 -8.178 -11.61 -7.562 -0.5276 -13.1 -15.92 -16.27 -6.419 0.7914 -16.8 -2.022
1.66 -2.198 -7.606 -6.507 -1.847 -12.27 -10.51 -10.33 -12.57 -5.1 -13.98 -15.48 -15.12 -9.936 -2.55 -15.83 -3.781
1.665 -4.485 -6.771 -3.825 -1.011 -8.705 -8.266 -6.199 -12.75 -7.167 -8.354 -8.442 -8.266 -9.761 -5.012 -8.442 -2.374
1.67 -5.364 -4.792 -0.1759 -1.407 -1.143 -3.034 -1.715 -8.31 -6.463 0.7035 1.055 0.3517 -5.54 -5.188 1.583 1.935
1.675 -3.605 -3.298 1.319 -2.814 5.804 1.671 1.055 -2.242 -5.1 8.002 7.386 6.155 0.5276 -3.605 9.233 7.211
1.68 0.2638 -2.858 -0.1319 -4.617 8.178 2.814 1.407 1.143 -4.617 9.409 7.474 6.595 4.748 -2.198 11.52 10.2
1.685 3.605 -3.034 -3.166 -6.331 5.188 0.1759 0 -0.1759 -4.485 5.188 2.726 3.254 5.452 -1.759 9.321 9.673
1.69 4.309 -3.166 -5.76 -7.123 -0.04397 -3.254 -1.715 -4.309 -3.473 0 -2.11 -0.1759 4.485 -0.4397 6.595 7.474
1.695 2.286 -2.902 -6.903 -6.199 -3.473 -4.353 -2.682 -6.947 -0.6595 -1.671 -2.99 -0.8793 4.309 2.902 6.067 6.243
1.7 -0.7914 -2.418 -5.364 -3.473 -3.473 -2.462 -2.902 -5.232 4.089 0.9673 0.2638 0.9673 5.1 6.947 7.826 6.771
1.705 -3.254 -1.759 -0.5716 0.3957 -1.407 0.7474 -2.726 0.1319 9.453 5.364 4.924 3.517 5.1 9.233 9.673 8.178
1.71 -4.133 -1.011 5.628 4.309 0.3957 3.737 -1.583 6.287 12.35 8.354 8.178 5.188 3.869 8.793 10.11 9.321
1.715 -3.869 -0.1319 9.849 6.859 1.099 5.848 0.7914 9.936 10.55 8.881 8.881 5.979 2.11 6.243 9.585 10.02
1.72 -3.166 0.7914 9.717 6.595 1.099 7.079 3.166 9.233 5.32 7.826 7.914 6.419 0.7035 2.99 9.233 10.64
1.725 -2.286 1.671 5.496 3.166 1.231 7.167 3.254 4.573 0.3078 6.507 6.155 6.947 0 0.4397 9.321 11.61
1.73 -0.4397 2.154 -0.8354 -1.583 1.803 5.628 0.1759 -1.363 -2.154 4.836 3.781 6.683 0 -0.3517 8.178 12.22
1.735 2.902 2.198 -6.815 -4.836 2.242 1.979 -4.309 -5.936 -2.506 1.231 -0.2638 4.573 -0.4397 -0.1759 3.781 10.55
1.74 6.331 2.198 -9.277 -4.704 1.187 -3.605 -7.342 -7.738 -1.759 -5.54 -6.331 0.6155 -2.902 -1.143 -4.045 4.573
1.745 8.002 2.902 -6.507 -1.935 -1.495 -9.189 -6.595 -6.947 -0.8793 -14.51 -12.75 -3.693 -6.683 -3.869 -12.4 -4.748
1.75 7.211 4.573 -0.6155 1.363 -4.045 -11.34 -1.979 -4.045 -0.7035 -20.93 -15.65 -5.716 -8.442 -6.155 -16.62 -13.63
1.755 5.892 6.771 4.221 3.122 -3.649 -7.914 3.957 0.04397 -1.715 -20.05 -12.31 -3.869 -6.067 -5.979 -14.33 -17.76
1.76 5.716 8.046 5.54 2.198 0.1319 -0.4836 7.474 3.561 -2.726 -11.17 -3.429 0.6155 -1.143 -3.781 -6.859 -16.27
1.765 6.243 6.947 3.737 -0.5276 5.012 6.551 6.199 4.748 -2.418 1.583 6.683 5.188 3.166 -1.231 1.583 -10.99
1.77 5.364 2.99 0.5716 -3.166 7.694 9.409 1.935 3.649 -0.9233 11.7 12.93 7.211 5.364 0.8793 7.035 -5.1
1.775 1.847 -2.286 -2.594 -3.957 6.727 7.342 -1.319 1.847 0.2198 14.51 12.49 6.155 5.54 2.55 7.914 -0.9673
1.78 -2.902 -6.287 -4.309 -2.902 2.858 2.374 -0.9233 0.5276 0.5716 9.849 6.419 2.638 4.221 2.99 4.924 0.3517
1.785 -5.716 -6.859 -3.605 -1.319 -1.715 -2.462 2.418 -0.1759 0.1759 1.319 -1.671 -1.671 1.495 1.935 0 -0.3517
1.79 -4.221 -4.265 -1.187 -0.2198 -4.968 -5.188 5.628 -0.8354 -1.011 -5.892 -8.09 -5.716 -2.198 0 -4.924 -1.935
1.795 0.2638 -1.275 0.8354 0.4836 -6.243 -6.243 5.32 -1.979 -3.21 -8.881 -11.08 -9.057 -6.419 -1.759 -8.354 -3.341
1.8 3.166 -0.5716 1.583 1.055 -6.815 -7.386 0.2638 -3.781 -4.968 -8.617 -11.43 -11.34 -10.55 -3.341 -8.969 -4.133
1.805 0.7035 -2.726 1.275 1.407 -7.782 -9.233 -7.035 -5.188 -4.66 -7.386 -10.2 -11.34 -12.31 -4.045 -6.067 -3.605
1.81 -5.628 -5.584 0.1319 1.143 -8.178 -9.761 -11.52 -4.397 -2.506 -5.979 -7.211 -7.386 -8.969 -2.638 0 -0.7914
1.815 -9.849 -6.111 -1.671 0.2198 -6.155 -6.463 -8.881 -0.9673 -0.3517 -3.957 -2.198 0.4397 -0.6155 0.4397 6.947 3.781
1.82 -7.386 -3.034 -2.858 -1.099 -1.759 0.5276 0.2638 3.034 0.3517 -0.8793 4.133 9.585 8.09 2.99 11.26 7.826
1.825 0.7035 1.803 -1.539 -2.11 2.55 7.914 10.82 4.704 -0.08793 2.022 9.057 15.39 11.96 2.99 10.29 8.53
1.83 8.793 5.32 1.979 -1.539 4.353 12.05 16.84 2.858 -1.363 3.254 9.936 14.95 9.233 1.407 4.309 5.276
1.835 11.7 5.76 5.496 0.9233 3.429 11.87 15.74 -0.9233 -3.034 1.847 6.331 8.705 2.286 -0.5276 -3.781 -0.8793
1.84 9.233 4.397 7.342 4.133 1.979 9.233 8.969 -4.001 -4.221 -0.8793 0.7914 0.3517 -5.1 -2.462 -10.38 -7.738
1.845 5.276 4.177 7.782 5.979 2.462 7.298 1.143 -4.353 -4.309 -2.814 -2.902 -5.628 -9.497 -4.836 -13.37 -13.01
1.85 4.836 6.639 7.386 5.276 5.408 7.342 -3.166 -1.671 -4.045 -2.11 -2.902 -7.386 -9.233 -7.123 -12.93 -15.39
1.855 8.53 10.42 6.463 2.858 8.31 7.474 -2.946 2.11 -4.353 0 -1.231 -6.507 -5.716 -8.178 -11.43 -15.12
1.86 12.13 12.09 5.54 0.3078 7.123 3.913 -0.9233 4.089 -4.529 0.3517 -1.671 -6.771 -2.638 -7.914 -11.34 -13.72
1.865 10.9 9.145 4.792 -1.055 0.2638 -4.704 -1.011 2.374 -2.99 -3.254 -5.979 -9.849 -2.374 -6.067 -13.01 -12.31
1.87 3.869 1.671 2.99 -0.9673 -8.969 -14.95 -4.001 -1.847 0.1319 -9.321 -11.87 -13.81 -4.045 -2.55 -14.77 -10.9
1.875 -4.924 -7.123 -1.231 -0.1319 -14.47 -20.53 -7.518 -5.892 2.99 -13.45 -14.42 -14.6 -5.452 1.143 -14.16 -9.233
1.88 -10.64 -13.23 -6.947 0.1319 -12.62 -17.89 -9.101 -7.87 3.781 -12.66 -11.08 -10.99 -5.892 2.286 -10.29 -7.562
1.885 -11.43 -13.81 -11.26 -0.8793 -5.276 -8.969 -8.31 -7.65 1.935 -7.562 -3.869 -5.188 -6.331 -0.7035 -4.309 -5.979
1.89 -8.442 -9.013 -12.18 -2.594 2.066 0.6155 -6.419 -6.243 -2.242 -2.11 1.935 -1.495 -7.123 -6.067 0.8793 -4.133
1.895 -4.485 -1.495 -10.02 -3.429 4.397 5.628 -4.704 -4.66 -7.606 0.1759 2.198 -2.286 -7.826 -10.46 3.254 -1.319
1.9 -2.198 4.66 -5.496 -2.374 0.1759 4.089 -3.078 -3.034 -10.99 -1.407 -2.198 -6.067 -7.211 -11.7 2.55 2.286
1.905 -2.814 5.979 0.5716 0.08793 -7.826 -1.891 -0.2638 -0.4397 -9.365 -4.221 -6.947 -8.442 -3.605 -8.442 0.8793 6.859
1.91 -6.331 0.7914 6.375 2.902 -14.73 -8.398 4.924 4.397 -2.594 -4.836 -7.562 -6.155 4.748 -0.7914 0.4397 12.31
1.915 -11.43 -9.057 9.453 4.968 -16.88 -12.66 11.12 11.08 6.243 -2.198 -4.133 -0.5276 15.83 9.233 1.583 17.41
1.92 -16.09 -18.69 9.145 5.276 -14.2 -14.64 14.38 16.44 13.59 1.407 -0.2638 3.605 24.18 17.32 2.286 19.7
1.925 -17.67 -22.29 6.683 3.737 -9.101 -14.86 11.52 16.93 16.93 2.902 0.08793 2.374 24.53 20.05 0.5276 17.59
1.93 -13.98 -16.66 3.737 1.627 -3.298 -12.35 4.221 11.87 15.34 2.462 -2.374 -2.99 16.97 17.5 -3.254 11.26
1.935 -5.188 -3.649 1.627 0.5276 2.858 -5.452 -2.022 4.177 9.936 2.462 -3.517 -7.65 5.804 11.7 -6.331 2.814
1.94 4.836 10.68 1.583 1.099 8.969 5.1 -3.034 -2.022 4.001 4.836 0 -7.035 -3.781 5.012 -5.804 -4.836
1.945 10.99 19.61 3.781 2.418 13.5 15.04 1.011 -4.66 0.1759 8.354 7.123 -1.319 -8.969 -1.143 -1.583 -9.673
1.95 10.64 19.35 5.848 2.99 14.38 19.08 5.804 -4.485 -1.715 9.233 12.4 4.924 -9.761 -5.628 2.99 -10.9
1.955 5.54 11.56 4.573 1.715 10.9 14.9 6.771 -4.045 -4.177 4.836 10.82 6.771 -8.442 -8.793 3.957 -9.673
1.96 0.4397 1.715 -0.4397 -1.231 4.309 5.232 2.418 -5.364 -7.694 -3.693 2.55 3.166 -8.09 -11.34 0.08793 -8.002
1.965 -1.143 -4.617 -6.199 -4.704 -2.154 -3.605 -4.001 -7.694 -10.2 -11.7 -6.859 -2.022 -8.442 -12.84 -5.364 -6.683
1.97 0.9673 -5.364 -9.541 -6.639 -4.968 -5.892 -7.694 -8.134 -9.585 -13.37 -10.73 -3.957 -6.947 -10.9 -7.386 -4.836
1.975 4.397 -2.33 -9.629 -6.023 -2.858 -1.231 -6.419 -5.012 -5.76 -7.474 -6.947 -0.6155 -1.935 -4.924 -3.605 -1.495
1.98 5.628 0.9233 -7.255 -3.781 1.583 4.66 -3.254 -0.4836 -0.6155 1.759 0.1759 4.573 3.869 1.935 3.781 2.462
1.985 3.517 2.154 -3.825 -1.891 4.177 5.1 -2.902 1.363 3.254 7.914 4.397 6.947 6.595 6.155 9.936 5.276
1.99 0 1.231 -1.143 -1.363 2.858 -1.319 -6.639 -0.9673 3.913 8.09 2.99 4.836 5.364 6.683 11.61 5.804
1.995 -2.11 -0.2198 0 -1.275 -0.6155 -9.673 -10.99 -5.012 1.583 4.836 -0.9673 1.319 2.462 5.276 9.497 4.133
2 -1.495 -0.8354 0.7035 -0.5276 -2.99 -12.75 -11.56 -6.639 -0.4397 2.814 -1.935 0.7914 0.7914 3.957 7.035 1.407
2.005 0.1759 -0.3517 2.066 0.9233 -2.242 -7.386 -7.167 -4.001 0.4397 4.748 2.726 4.924 1.759 3.605 6.947 -0.8793
2.01 0.8793 0.2198 2.99 1.935 0.9233 3.385 -0.7914 0.7914 3.078 9.321 10.55 11.17 4.221 3.869 8.705 -1.671
2.015 0.08793 0.3517 1.055 1.011 3.913 12.66 2.638 3.078 3.341 12.4 15.65 14.42 5.188 2.638 10.02 -1.583
2.02 -0.9673 0.3078 -4.089 -2.374 4.397 14.47 0.1759 -0.6155 -0.8354 10.9 13.89 11.61 1.759 -2.022 8.969 -1.847
2.025 -1.055 0.4836 -10.16 -7.123 2.198 8.442 -6.727 -9.189 -7.518 5.628 6.595 4.133 -5.54 -8.705 6.771 -2.814
2.03 0.4397 0.3957 -14.64 -10.46 -0.3517 -0.1759 -13.01 -17.06 -12.66 0.8793 -0.6155 -2.99 -12.4 -13.19 6.155 -3.517
2.035 2.638 -1.143 -16.53 -10.33 -1.011 -5.628 -14.25 -18.82 -13.45 0.5276 -3.078 -5.716 -14.86 -12.13 8.266 -3.078
2.04 3.254 -4.66 -15.39 -7.035 0 -5.979 -10.38 -13.72 -9.497 3.517 -0.7914 -3.957 -12.93 -7.035 10.46 -2.198
2.045 1.319 -8.53 -11.04 -2.33 0.5276 -3.825 -4.836 -5.892 -3.034 5.892 2.198 -1.055 -9.585 -1.671 8.969 -2.198
2.05 -1.231 -9.761 -4.485 2.066 -0.1759 -2.242 -0.6595 0.04397 1.979 4.133 2.022 -0.7035 -7.035 1.583 2.11 -3.341
2.055 -0.9673 -6.067 2.11 5.76 -0.8793 -2.022 1.275 2.286 3.605 -1.231 -1.407 -3.429 -5.364 2.814 -7.738 -4.748
2.06 3.957 1.627 7.167 8.705 0.5276 -1.803 1.891 2.242 3.605 -6.771 -5.012 -7.035 -3.517 3.517 -15.65 -4.836
2.065 11.34 9.453 9.98 10.55 4.309 -0.04397 2.506 2.858 5.452 -8.442 -4.836 -7.738 0.5276 5.628 -17.59 -2.286
2.07 16.44 13.06 10.24 10.95 8.442 3.561 4.441 6.595 10.07 -5.188 -0.08793 -3.429 8.002 10.11 -13.19 2.814
2.075 15.56 11.34 8.661 10.11 10.29 7.606 8.09 12.97 14.77 0.7035 6.419 4.66 17.32 15.21 -5.452 8.881
2.08 8.793 7.035 7.386 8.486 8.442 10.07 12.44 18.51 16.49 5.276 10.82 12.75 23.74 16.88 1.671 13.45
2.085 0.1759 4.265 8.31 6.639 4.177 10.24 15.56 19.39 14.07 6.419 11.43 17.06 23.13 13.19 6.595 15.04
2.09 -4.924 4.617 9.849 4.88 0.8354 9.321 15.74 14.6 8.178 5.716 9.497 16.36 15.48 5.979 10.2 14.16
2.095 -3.957 6.111 8.354 3.034 0.5276 8.617 12.27 6.595 1.011 6.067 7.914 12.31 4.836 -0.9673 13.89 12.31
2.1 0.4397 5.188 2.682 0.4397 2.022 7.562 5.496 -0.4397 -4.309 8.178 8.002 7.386 -4.309 -5.276 17.32 9.936
2.105 3.166 0.5716 -4.177 -2.902 2.022 4.441 -2.33 -3.21 -6.111 10.55 8.266 3.693 -8.881 -6.507 18.55 6.771
2.11 0.9673 -5.672 -8.266 -5.936 -0.9673 -1.011 -7.782 -1.055 -5.76 10.9 6.771 1.231 -8.442 -5.452 15.92 2.726
2.115 -4.748 -9.805 -8.398 -7.386 -4.924 -6.859 -8.574 2.814 -6.463 8.53 2.902 -1.231 -6.155 -3.957 9.585 -1.759
2.12 -9.849 -9.277 -6.111 -7.518 -6.287 -9.98 -5.584 3.341 -9.277 4.66 -1.847 -5.364 -6.419 -3.869 1.495 -5.979
2.125 -11.17 -4.88 -4.573 -7.738 -3.254 -8.617 -2.066 -2.418 -12.35 0.7035 -5.54 -10.82 -10.82 -5.364 -5.54 -8.53
2.13 -8.178 0.3078 -5.848 -8.705 2.858 -3.341 -0.3957 -11.78 -13.01 -2.638 -7.035 -15.56 -15.48 -5.54 -9.936 -7.914
2.135 -3.078 3.561 -8.969 -9.145 8.398 2.858 -0.4836 -17.76 -9.761 -6.507 -7.65 -17.15 -15.21 -2.638 -11.78 -4.133
2.14 1.055 4.133 -9.585 -7.035 9.585 6.243 -0.7914 -14.86 -2.55 -11.87 -8.881 -14.51 -8.178 2.374 -12.49 0.9673
2.145 2.55 2.902 -3.913 -1.671 5.584 4.792 0.04397 -2.814 6.595 -17.85 -10.9 -8.178 3.166 6.947 -12.13 5.716
2.15 2.11 1.099 6.287 5.364 -0.5716 0.5276 2.99 13.28 13.94 -20.49 -11.26 0.1759 15.04 9.233 -9.585 9.321
2.155 1.583 -0.3078 15.3 10.9 -4.089 -1.979 7.782 26.86 16.31 -15.83 -6.947 9.057 24.01 9.321 -3.605 12.13
2.16 2.11 -0.6595 18.77 12 -2.33 0.2638 13.19 33.28 14.25 -4.133 2.198 16.71 28.58 7.562 5.012 14.33
2.165 3.166 0.7474 16.75 8.354 3.21 6.815 17.37 32.23 10.73 9.849 12.84 21.37 28.84 5.364 13.19 15.3
2.17 3.957 3.517 11.87 2.77 8.705 13.76 18.77 26.6 7.65 19.79 19.52 21.54 26.03 3.869 16.97 13.81
2.175 3.781 6.023 6.375 -1.231 10.38 16.27 16.14 18.99 4.573 21.46 18.64 16.36 20.22 2.902 13.98 8.969
2.18 2.462 6.067 1.847 -2.242 6.639 11.61 9.145 10.2 0.7474 15.12 10.73 7.211 10.46 0.6155 5.364 0.4397
2.185 0.1759 3.122 -0.3078 -1.143 -0.5276 1.539 -0.2198 0.7914 -3.21 5.54 0.5276 -2.55 -1.759 -3.166 -4.573 -9.849
2.19 -1.847 -0.8793 0.1759 0.4836 -6.595 -7.606 -6.859 -6.551 -6.199 -1.583 -6.155 -8.354 -11.52 -5.892 -11.17 -17.94
2.195 -1.935 -2.594 3.254 2.198 -7.079 -9.717 -6.155 -8.222 -6.771 -3.166 -5.979 -7.738 -13.63 -4.748 -12.05 -20.66
2.2 0.5276 0.1319 8.046 3.737 -1.715 -3.385 1.891 -3.385 -3.913 -0.1759 -0.5276 -2.022 -7.914 -0.1759 -8.617 -17.59
2.205 3.869 5.979 12.22 4.529 5.364 6.727 11.39 3.913 1.671 3.517 5.804 4.485 0.7035 4.836 -3.781 -11.34
2.21 5.54 10.38 11.7 3.737 8.925 13.59 14.82 7.43 6.463 5.1 8.617 7.562 6.507 7.562 0 -5.276
2.215 3.517 9.277 3.781 0.8354 6.243 12.27 8.31 2.858 6.639 3.429 5.804 5.1 5.628 6.243 1.583 -2.198
2.22 -1.935 2.242 -8.53 -3.429 -1.451 2.726 -5.936 -8.705 2.198 -0.8793 -1.495 -1.583 -2.11 0.8793 1.143 -2.99
2.225 -8.705 -7.255 -18.33 -7.035 -10.07 -10.24 -20.62 -21.02 -3.385 -6.595 -10.55 -9.497 -12.49 -5.716 -0.8793 -5.979
2.23 -13.37 -14.47 -20 -7.43 -14.95 -20 -27.57 -26.34 -6.727 -11.52 -17.41 -14.95 -18.99 -9.585 -4.045 -7.738
2.235 -13.72 -16.22 -13.63 -3.649 -14.11 -21.98 -22.73 -20.93 -6.595 -14.33 -19.61 -15.56 -17.85 -8.53 -7.562 -5.979
2.24 -10.29 -12.44 -2.946 2.154 -9.629 -16.4 -8.837 -7.826 -3.561 -14.33 -16.62 -11.87 -10.29 -4.221 -10.38 -1.143
2.245 -5.452 -5.364 7.079 6.419 -5.144 -7.167 6.991 5.452 0.4397 -12.22 -10.73 -6.155 -1.231 -0.3517 -11.7 3.781
2.25 -1.495 1.671 12.57 6.991 -2.726 1.055 17.94 12.49 2.638 -8.969 -5.1 -2.11 4.748 1.231 -11.61 6.155
2.255 0.7035 5.716 11.61 4.573 -2.11 5.056 20.05 10.86 1.099 -5.892 -2.902 -2.462 5.276 0.08793 -11.34 4.485
2.26 1.055 4.836 5.628 1.407 -2.198 3.21 12.88 2.55 -2.77 -4.397 -5.188 -7.562 0.08793 -2.902 -12.05 -0.3517
2.265 -0.7035 -0.8354 -1.715 -0.4397 -2.77 -3.869 -0.4836 -7.474 -5.672 -4.573 -10.2 -14.16 -7.035 -5.716 -13.28 -5.188
2.27 -4.045 -8.969 -7.518 -0.3078 -3.869 -12.84 -13.76 -13.5 -5.276 -5.452 -13.89 -16.53 -10.2 -5.452 -12.31 -6.155
2.275 -7.123 -15.43 -10.02 1.187 -5.364 -18.95 -20.4 -11.96 -1.935 -5.716 -13.01 -10.82 -5.54 -1.495 -7.035 -1.759
2.28 -8.09 -16.62 -8.222 2.374 -6.639 -18.82 -17.5 -4.221 2.374 -4.66 -6.947 1.671 4.221 2.99 2.022 5.188
2.285 -6.155 -11.87 -2.99 1.671 -6.771 -12.22 -7.738 4.221 5.364 -2.902 1.495 14.95 12.13 4.309 11.52 10.38
2.29 -2.462 -4.045 1.671 -0.9673 -4.968 -1.935 2.594 7.518 4.485 -0.5276 8.705 22.07 11.7 0.7914 17.15 10.11
2.295 0.8793 2.55 1.539 -4.089 -1.143 7.826 7.606 2.946 -0.7035 2.022 12.13 19.43 1.407 -6.067 16.44 3.693
2.3 1.935 5.54 -3.605 -6.023 3.298 13.37 4.924 -7.386 -7.079 4.397 11.7 9.497 -14.68 -13.28 10.38 -7.123
2.305 1.055 5.672 -9.453 -5.848 6.815 13.59 -2.902 -17.59 -10.07 5.716 8.617 -1.759 -28.84 -17.41 2.022 -18.64
2.31 0.2638 5.32 -11.52 -3.605 8.705 10.51 -10.42 -21.46 -8.002 5.364 4.66 -8.881 -33.59 -15.83 -5.188 -26.29
2.315 1.847 5.628 -9.013 -0.8354 9.277 7.298 -13.5 -16.8 -3.122 3.605 1.055 -10.29 -27 -9.233 -9.673 -27.44
2.32 4.836 5.804 -4.66 0.08793 8.793 5.276 -12.22 -7.211 1.319 0.6155 -2.11 -8.266 -13.72 -1.231 -11.43 -21.98
2.325 6.419 4.397 -1.715 -2.374 6.903 3.605 -9.717 0.9673 3.693 -2.726 -5.188 -6.067 -0.9673 4.309 -10.99 -11.96
2.33 4.485 1.143 -2.022 -7.123 3.869 1.011 -7.87 3.869 3.473 -5.276 -7.914 -5.452 7.123 6.859 -8.617 -0.7035
2.335 0.3517 -2.154 -4.617 -10.86 0.4836 -2.726 -6.507 1.495 1.407 -6.507 -9.849 -6.067 9.936 7.123 -4.836 8.09
2.34 -3.254 -3.869 -5.979 -10.9 -2.638 -7.255 -4.924 -3.429 -0.5716 -6.595 -10.73 -6.947 8.354 5.54 -0.7914 11.34
2.345 -4.573 -4.001 -3.693 -7.211 -5.496 -11.48 -3.341 -7.958 -1.187 -5.892 -10.11 -7.123 4.133 2.462 2.374 9.145
2.35 -4.133 -4.485 0.5716 -1.935 -7.606 -13.67 -2.55 -9.365 -0.7474 -3.781 -7.211 -5.892 0.7035 -0.3517 4.397 5.1
2.355 -3.605 -6.727 3.385 2.462 -7.914 -12.49 -2.242 -6.199 -0.1319 0.4397 -1.495 -2.374 1.407 -1.143 5.892 3.605
2.36 -3.781 -9.145 3.913 4.704 -5.54 -7.738 -1.055 1.363 1.187 5.628 5.892 3.341 6.947 0.3517 7.035 6.243
2.365 -3.166 -7.87 4.968 5.276 -0.3078 -0.4836 2.99 11.52 4.309 9.321 12.22 9.849 15.21 3.166 6.947 10.55
2.37 0.7035 -0.5276 8.617 5.76 6.683 7.738 10.73 20.93 7.738 9.321 14.68 14.25 22.07 6.155 4.133 12.57
2.375 8.354 10.86 13.23 6.771 13.1 14.86 19.92 25.59 8.442 5.1 11.87 13.81 23.13 7.562 -1.671 9.321
2.38 15.92 20.66 15.39 7.079 15.65 18.51 25.41 22.42 5.188 -1.407 5.364 7.826 15.65 5.364 -8.53 1.231
2.385 18.29 23.04 12.88 5.1 12.31 17.19 23.08 12 -0.2198 -6.507 -0.9673 -0.8793 1.935 -0.1759 -12.66 -7.738
2.39 13.28 16.31 6.331 1.363 4.529 11.91 13.45 -0.8354 -4.88 -6.859 -3.693 -7.914 -11.34 -6.067 -11.17 -12.75
2.395 3.781 4.221 -0.9673 -1.627 -3.429 5.452 1.671 -10.16 -6.859 -1.935 -1.759 -9.936 -18.11 -9.233 -4.485 -12.22
2.4 -4.748 -6.683 -4.836 -1.979 -7.914 0.08793 -6.947 -12.97 -5.804 5.012 2.462 -7.386 -17.41 -9.585 3.078 -8.442
2.405 -8.705 -11.34 -3.254 0.04397 -8.178 -3.254 -10.2 -10.6 -2.858 9.761 5.1 -3.254 -12.57 -8.002 6.947 -5.1
2.41 -7.65 -8.925 0.8793 2.374 -5.892 -4.836 -9.145 -6.111 -0.3078 9.497 4.133 -0.5276 -6.683 -4.573 5.54 -3.341
2.415 -3.693 -2.33 3.21 3.034 -3.737 -5.408 -6.859 -2.022 0.4836 4.748 -0.08793 -0.2638 -1.319 0.5276 1.319 -1.847
2.42 0.08793 4.265 2.286 1.583 -3.693 -5.979 -6.199 0.7474 0.9233 -2.11 -5.012 -1.143 2.902 5.892 -1.671 0.7035
2.425 2.286 8.002 0.3957 -0.6155 -5.716 -6.639 -7.694 2.33 2.594 -8.09 -7.914 -1.319 5.804 9.145 -0.9673 4.836
2.43 2.55 7.782 -0.2638 -1.759 -7.65 -6.243 -9.233 2.902 4.397 -10.73 -7.211 0.5276 7.211 9.233 2.99 9.057
2.435 1.407 4.397 -0.3078 -1.099 -7.342 -3.429 -8.134 2.242 3.385 -9.057 -2.726 3.957 6.771 6.067 7.738 11.43
2.44 -1.055 -0.3517 -1.319 -0.04397 -4.529 1.231 -3.913 0 -1.099 -4.836 3.254 7.65 3.869 0.3517 10.55 10.64
2.445 -3.869 -4.485 -3.737 -0.4397 -1.055 5.452 1.231 -2.99 -6.419 -0.4397 8.002 9.761 -0.1759 -5.364 10.46 7.474
2.45 -5.1 -6.595 -6.947 -2.242 1.143 6.595 4.617 -4.968 -9.101 2.022 8.969 8.969 -2.902 -8.09 8.442 4.309
2.455 -2.374 -6.155 -9.629 -3.913 1.539 3.298 4.573 -4.836 -8.222 2.198 5.628 5.188 -3.254 -7.211 6.067 2.638
2.46 3.605 -4.001 -10.24 -4.133 0.3517 -3.561 1.055 -4.133 -5.188 0.8793 -0.5276 -1.055 -3.429 -5.54 4.045 2.286
2.465 9.585 -1.363 -8.31 -3.21 -1.319 -10.86 -3.781 -5.144 -2.726 0 -5.979 -7.474 -5.628 -5.628 2.902 2.11
2.47 11.96 0.5716 -5.144 -1.979 -2.066 -14.11 -6.287 -7.958 -3.034 1.671 -7.211 -11.26 -8.617 -6.859 2.55 2.022
2.475 9.849 1.715 -2.506 -0.6155 -0.7474 -10.6 -3.517 -9.365 -5.32 5.716 -3.166 -10.11 -8.53 -6.419 2.638 2.55
2.48 5.364 2.418 0.2198 1.099 1.759 -1.979 3.737 -6.067 -5.584 9.585 3.341 -4.66 -3.166 -2.55 2.11 3.605
2.485 1.231 2.814 4.485 3.517 3.561 6.991 11.3 2.33 -0.5276 10.11 8.178 2.286 6.243 4.309 -0.08793 4.66
2.49 -1.231 2.286 9.277 6.199 3.21 11.87 14.64 12.4 8.134 6.155 8.705 7.65 15.83 11.96 -3.429 5.452
2.495 -2.462 0.3517 11.12 7.782 0.9673 11.12 12 18.51 14.99 -0.2638 5.716 9.849 20.84 17.06 -6.067 5.804
2.5 -3.517 -2.11 8.31 6.903 -1.671 6.859 5.188 16.8 15.92 -5.979 2.286 9.585 18.2 16.88 -5.979 5.54
2.505 -4.485 -2.902 3.078 3.649 -2.946 2.858 -1.539 8.442 11.56 -7.914 1.319 8.793 9.849 11.96 -2.022 5.1
2.51 -3.869 -0.1759 -0.7474 0.3957 -1.495 2.462 -3.781 -0.8354 5.452 -5.012 3.781 9.321 1.583 6.155 4.748 5.452
2.515 -0.8793 5.584 -1.099 -0.4397 2.33 5.892 -0.3517 -5.32 1.143 1.407 8.002 11.34 -1.407 3.078 12.22 7.386
2.52 2.726 11.12 1.187 1.099 6.463 9.936 5.056 -3.649 0.4836 8.705 11.26 13.54 0.8793 2.99 18.11 9.936
2.525 3.605 12.31 3.122 2.638 8.398 10.6 7.211 0.5716 2.462 14.6 12.05 14.25 5.188 4.045 21.28 12.31
2.53 0.4397 7.298 1.319 1.715 7.606 6.771 3.649 3.298 3.605 18.03 10.46 12.31 8.09 4.66 21.98 13.72
2.535 -4.045 -1.143 -4.133 -1.671 5.848 0.6155 -3.034 2.77 1.407 18.91 7.826 8.178 8.09 3.781 20.58 13.72
2.54 -5.628 -7.562 -8.881 -5.452 4.968 -4.045 -7.694 0.4836 -2.99 17.15 5.1 2.99 5.452 1.143 16.88 11.61
2.545 -2.55 -7.43 -7.606 -7.035 5.452 -4.529 -6.419 -0.8793 -6.287 13.1 2.814 -1.231 2.022 -2.022 11.26 7.826
2.55 2.902 -0.9673 0 -5.188 6.463 -0.4836 0.8793 0.3078 -6.419 8.266 1.847 -2.902 0.3517 -3.429 5.1 4.045
2.555 6.771 7.167 8.574 -1.055 6.903 5.716 10.16 3.341 -4.353 4.397 2.374 -1.319 1.495 -1.759 0.2638 1.495
2.56 6.243 11.48 12.62 2.506 5.496 10.07 15.12 5.056 -1.847 1.495 3.166 1.319 2.99 0.9673 -2.462 0
2.565 2.286 9.541 10.55 3.385 2.022 9.101 12.05 2.946 -0.2638 -1.935 1.759 2.022 1.847 2.198 -4.221 -1.847
2.57 -1.407 2.946 4.353 1.539 -2.726 2.594 2.682 -2.462 -0.7035 -7.562 -3.517 -1.231 -2.638 0.7035 -7.211 -5.188
2.575 -2.11 -4.353 -2.814 -1.363 -7.518 -6.551 -7.474 -8.266 -3.341 -15.39 -12.05 -7.562 -9.057 -2.726 -12.13 -9.673
2.58 -0.8793 -9.321 -8.134 -4.001 -11.96 -14.68 -13.81 -11.43 -6.243 -23.21 -20.58 -13.19 -14.77 -6.595 -17.59 -14.25
2.585 -1.055 -11.17 -9.98 -5.628 -15.74 -18.82 -15.04 -10.55 -6.595 -27.17 -24.27 -14.33 -16.97 -8.442 -20.14 -16.53
2.59 -4.221 -10.55 -8.53 -5.54 -17.5 -17.5 -12.44 -5.979 -3.737 -24.09 -20.49 -9.761 -13.72 -6.419 -17.06 -15.12
2.595 -7.826 -8.002 -4.704 -3.166 -15.39 -11.21 -7.826 0.6595 0.6595 -14.25 -10.55 -1.935 -5.804 -1.143 -9.409 -10.38
2.6 -8.09 -3.473 1.187 1.055 -9.013 -2.55 -2.418 6.727 4.836 -1.583 1.055 4.485 2.462 3.957 -1.143 -5.188
2.605 -3.957 2.242 8.178 5.408 -0.2198 5.276 3.166 9.893 7.606 8.705 9.497 6.595 7.211 5.892 3.166 -1.759
2.61 2.198 6.639 12.79 7.606 7.914 10.2 8.486 9.849 8.178 14.07 12.31 4.309 7.298 4.836 2.198 -0.6155
2.615 6.507 6.903 11.3 6.595 12.97 11.3 11.91 7.474 6.507 14.51 10.2 0.1759 4.133 2.638 -2.374 -0.4397
2.62 6.507 2.55 4.089 2.99 14.03 8.442 10.77 3.649 4.001 11.7 4.924 -4.045 -0.6155 0.2638 -7.211 -0.6155
2.625 3.341 -3.429 -3.869 -1.011 11.83 2.374 3.869 -1.055 2.066 6.947 -1.671 -7.914 -5.892 -2.55 -9.936 -0.7035
2.63 0.7035 -6.727 -7.87 -2.902 8.574 -4.485 -5.936 -5.892 0.3078 1.671 -7.826 -11.26 -9.849 -5.804 -9.409 -0.6155
2.635 0.9673 -4.88 -6.991 -1.847 5.936 -9.233 -12.97 -9.453 -2.594 -2.726 -11.26 -12.75 -10.82 -8.881 -5.716 -0.2638
2.64 3.078 0.2198 -3.825 0.04397 3.781 -9.98 -13.32 -10.68 -6.287 -4.836 -10.02 -10.2 -8.354 -10.82 0.3517 0.7035
2.645 3.341 3.781 -1.891 0.04397 0.7914 -6.903 -7.606 -9.057 -8.31 -3.781 -3.605 -2.902 -2.902 -10.2 8.002 2.638
2.65 -0.3517 1.979 -3.473 -2.77 -3.078 -1.715 0 -4.836 -7.211 0.1759 5.452 6.859 3.957 -5.979 14.95 5.364
2.655 -6.507 -4.573 -7.914 -6.463 -6.375 3.341 4.485 0.4836 -3.561 4.836 13.01 14.33 9.673 0.6155 18.11 7.035
2.66 -11.52 -11.08 -11.65 -8.134 -7.342 6.375 3.385 4.309 0.7474 6.859 14.77 14.95 10.38 5.54 14.68 4.836
2.665 -12.49 -12.44 -10.99 -6.375 -5.584 7.035 -1.539 4.441 4.001 4.133 10.11 8.354 4.485 5.892 4.748 -2.11
2.67 -9.057 -7.255 -5.936 -2.022 -2.022 6.639 -5.54 1.539 4.485 -2.11 1.847 -1.319 -4.66 2.638 -8.266 -11.7
2.675 -3.166 1.319 0.3078 2.33 1.231 6.331 -4.704 -1.759 1.935 -8.969 -5.892 -8.881 -11.96 -1.231 -19.7 -19.87
2.68 2.022 8.134 4.88 4.089 1.847 5.056 -0.08793 -3.517 -1.627 -14.16 -11.17 -11.87 -14.77 -3.781 -26.29 -23.92
2.685 4.221 9.233 6.859 2.374 -1.187 0.6155 3.473 -3.649 -3.825 -17.06 -14.68 -12.13 -13.89 -5.012 -27.79 -23.74
2.69 3.166 4.353 5.716 -1.275 -6.287 -7.342 2.198 -3.385 -4.265 -18.03 -17.5 -13.01 -11.61 -5.276 -25.68 -20.93
2.695 0.6155 -3.429 1.319 -4.177 -9.98 -16.09 -3.561 -3.825 -4.485 -16.88 -19.26 -15.56 -9.761 -5.188 -21.37 -17.67
2.7 -1.407 -9.936 -4.529 -4.792 -9.497 -21.32 -9.849 -5.232 -4.88 -13.28 -18.11 -17.67 -8.881 -5.1 -15.39 -14.77
2.705 -2.11 -12 -8.266 -3.429 -4.573 -19.83 -11.7 -6.111 -4.485 -6.947 -12.31 -16.09 -7.298 -4.397 -7.738 -10.9
2.71 -1.055 -9.409 -7.342 -1.143 2.638 -11.91 -6.507 -4.089 -2.506 1.055 -2.902 -9.321 -2.11 -1.671 1.231 -3.957
2.715 1.231 -4.001 -2.022 1.187 9.321 -1.275 3.957 1.891 0.3517 8.705 6.771 0.6155 7.211 2.902 9.761 5.804
2.72 3.693 1.407 5.584 2.99 12.66 7.079 14.33 9.893 3.254 13.45 13.37 10.02 17.15 6.859 15.65 15.12
2.725 5.1 5.188 12.49 4.089 12.27 10.95 19.79 16.09 5.452 14.51 16.09 16 22.69 7.826 17.76 19.96
2.73 5.54 7.342 15.52 4.573 10.46 12.44 19.57 17.85 5.848 13.63 16.62 18.38 22.16 6.507 16.62 18.82
2.735 6.331 9.101 13.01 4.441 10.11 15.08 16.09 14.95 3.781 13.01 17.15 18.38 16.71 4.573 13.45 13.1
2.74 7.65 11.3 6.683 3.341 11.61 19.08 11.3 8.793 0.3078 12.84 17.06 16.27 8.442 2.726 9.057 5.804
2.745 8.53 12.84 0.08793 0.8793 12.31 20.62 4.968 1.539 -2.506 10.9 13.81 10.9 -0.3517 0.6155 3.254 -0.5276
2.75 6.947 11.3 -4.397 -1.979 8.925 15.43 -3.473 -4.441 -4.133 5.54 5.276 1.847 -7.738 -1.671 -3.254 -5.012
2.755 2.462 5.584 -6.639 -3.737 0.8354 2.946 -12.71 -7.782 -5.276 -2.638 -6.771 -9.145 -12.31 -3.517 -9.409 -8.178
2.76 -3.693 -2.594 -6.595 -3.473 -9.321 -12.4 -19.26 -8.574 -5.892 -10.55 -17.94 -18.11 -14.25 -4.573 -13.1 -11.17
2.765 -8.969 -9.629 -4.309 -2.066 -17.02 -23.65 -19.7 -8.09 -5.012 -14.6 -22.95 -21.37 -13.81 -4.221 -13.37 -13.54
2.77 -10.64 -12.62 -1.803 -1.143 -18.38 -25.68 -13.41 -7.342 -2.726 -13.1 -20.05 -17.76 -10.82 -1.759 -10.64 -13.45
2.775 -8.09 -11.74 -2.462 -2.11 -13.28 -19.08 -4.573 -7.211 -0.5276 -7.65 -11.96 -10.11 -6.067 1.847 -6.859 -9.761
2.78 -3.605 -9.98 -7.694 -4.88 -5.804 -9.541 -0.3078 -8.354 0.4397 -2.374 -4.045 -3.254 -2.462 3.693 -4.309 -3.869
2.785 -0.7035 -10.24 -14.95 -7.958 -1.187 -3.473 -4.66 -10.46 0.1759 -0.7914 -0.4397 -0.8793 -2.286 2.022 -3.957 1.671
2.79 -0.7035 -12.49 -19.79 -8.793 -1.627 -2.946 -14.47 -11.61 -1.275 -3.166 -1.759 -2.902 -4.836 -1.935 -4.748 5.364
2.795 -2.374 -13.63 -18.69 -6.023 -4.968 -5.32 -20.97 -9.321 -3.385 -6.859 -5.1 -6.155 -6.859 -5.188 -4.924 7.211
2.8 -3.166 -10.42 -10.6 -0.9233 -7.43 -6.551 -17.32 -2.902 -4.089 -8.793 -7.035 -6.947 -5.892 -6.155 -3.166 8.266
2.805 -1.847 -2.682 1.671 3.473 -6.507 -4.177 -3.605 5.584 -1.363 -7.298 -5.452 -3.869 -1.319 -4.397 0.7914 9.673
2.81 0.8793 6.287 12.53 5.452 -2.022 1.671 13.37 12.97 4.133 -2.638 -0.3517 2.462 5.628 -0.3517 6.595 12.22
2.815 3.605 12.66 16.8 5.188 4.089 9.233 24.97 16.36 9.497 4.045 6.683 9.849 12.57 4.573 13.1 15.21
2.82 4.924 14.64 14.2 4.265 9.277 15.92 26.03 14.25 11.96 10.82 13.98 16 15.74 7.738 18.99 16.88
2.825 4.309 13.37 8.749 3.869 11.74 19.92 17.89 8.134 11.08 16.36 20.05 19.52 14.07 7.562 22.86 15.92
2.83 2.638 11.17 4.309 4.089 11.74 20.97 7.167 1.935 7.474 20.05 23.92 20.22 9.761 5.012 24.36 12.57
2.835 1.231 9.409 2.066 4.133 10.46 19.96 0.6595 -0.3517 2.77 21.9 25.24 19.08 6.155 2.198 23.21 8.266
2.84 0.3517 8.002 1.891 3.298 8.574 17.41 0.6595 2.066 -0.3957 21.1 23.21 16.53 4.397 0.5276 19.7 3.517
2.845 -0.4397 6.375 3.649 1.803 5.628 13.45 4.704 6.859 -0.08793 16.8 17.59 12.66 3.781 0.7035 14.07 -0.8793
2.85 -1.495 4.617 6.287 0.8793 1.627 8.398 8.705 10.33 2.858 9.145 8.881 7.474 3.429 2.99 6.771 -4.221
2.855 -2.286 3.166 7.386 1.495 -2.858 2.198 9.189 9.585 5.364 -0.5276 -1.319 1.495 2.374 5.892 -1.143 -6.067
2.86 -2.286 2.198 5.408 2.77 -7.079 -5.276 4.441 3.693 5.144 -10.46 -11.17 -4.397 -0.2638 6.331 -8.793 -7.123
2.865 -1.847 0.9233 0.3957 3.034 -10.29 -13.5 -4.704 -5.54 2.11 -18.38 -18.64 -9.585 -4.748 2.726 -14.6 -8.002
2.87 -1.231 -1.231 -6.111 1.627 -11.48 -20 -14.64 -14.29 -2.814 -22.25 -21.98 -13.01 -9.145 -3.254 -17.41 -8.617
2.875 -0.5276 -3.957 -11.48 -0.2638 -10.07 -21.9 -20.14 -18.51 -8.002 -21.28 -20.84 -14.25 -11.43 -8.442 -16.97 -8.266
2.88 0 -5.716 -12.05 -0.8793 -6.683 -18.25 -18.16 -16.62 -10.86 -16.53 -16.09 -13.54 -11.17 -10.82 -14.25 -6.947
2.885 -0.08793 -5.276 -6.023 0.3517 -2.946 -10.86 -9.585 -9.849 -9.101 -10.2 -9.761 -11.52 -8.617 -10.11 -10.82 -4.748
2.89 -0.3517 -2.726 3.517 2.638 -0.04397 -2.638 1.495 -0.9673 -3.385 -3.869 -3.429 -8.178 -3.869 -6.683 -7.211 -1.935
2.895 -0.1759 0.5276 10.55 4.133 1.935 4.133 9.936 6.947 3.166 1.407 2.374 -2.99 2.814 -1.407 -3.429 1.055
2.9 0.7914 3.473 11.34 3.341 3.429 8.705 12.49 11.52 8.222 5.54 7.562 3.869 9.936 4.221 0.7914 3.605
2.905 2.55 6.111 7.474 0.5276 4.748 11.7 10.2 12.22 11.17 8.266 12.13 11.43 15.92 9.673 5.012 5.979
2.91 4.66 9.145 3.473 -1.759 6.243 14.29 8.178 11.26 12.35 9.936 15.65 17.59 20.66 15.21 8.617 9.497
2.915 6.595 12.57 3.298 -0.7474 8.046 16.93 11.21 11.43 12.4 10.55 17.15 20.14 23.74 19.79 10.38 14.16
2.92 7.474 15.21 8.486 4.353 9.277 18.42 19.48 13.67 12.18 9.761 15.74 17.67 23.65 20.66 9.761 18.2
2.925 6.331 15.12 17.15 11.61 8.617 17.23 28.18 16.14 12.22 6.859 11.17 10.82 18.99 16 7.035 19.08
2.93 3.341 11.34 24.14 17.54 5.848 12.97 31.83 16.36 11.26 2.286 4.309 2.022 10.99 7.474 3.341 16.18
2.935 -0.2638 4.441 24.53 19.26 1.539 6.111 27.87 13.06 7.738 -2.814 -3.078 -5.452 2.814 -0.7035 0 10.64
2.94 -3.429 -3.693 17.5 15.48 -3.737 -2.814 17.76 7.079 2.462 -7.474 -9.585 -9.849 -2.462 -5.804 -2.55 5.1
2.945 -5.716 -11.21 6.683 7.386 -9.673 -13.54 5.276 0.7914 -1.715 -10.64 -14.33 -11.08 -3.781 -6.683 -3.957 1.847
2.95 -6.683 -16.88 -3.913 -1.979 -14.9 -24.01 -5.848 -3.473 -3.473 -11.43 -16.71 -10.46 -1.671 -4.309 -4.397 1.495
2.955 -6.331 -20.22 -12.22 -9.365 -17.45 -30.91 -13.98 -5.628 -3.781 -9.585 -16.62 -9.673 0.7035 -1.055 -4.309 2.55
2.96 -4.66 -20.58 -17.63 -13.28 -15.96 -31.35 -19.79 -7.782 -4.221 -6.243 -14.25 -9.761 -0.4397 0 -4.748 1.847
2.965 -2.374 -17.59 -19.79 -14.16 -10.95 -24.75 -24.01 -11.56 -5.408 -3.078 -10.55 -10.64 -6.595 -2.022 -6.419 -1.847
2.97 0 -11.83 -19.04 -13.1 -4.045 -13.19 -25.32 -15.74 -7.298 -1.231 -6.331 -10.82 -14.16 -5.364 -8.881 -7.123
2.975 2.11 -5.232 -16.09 -10.6 2.242 -0.8354 -21.98 -17.28 -9.365 -0.7035 -2.638 -8.793 -18.11 -7.562 -10.55 -11.26
2.98 3.429 -0.08793 -11.17 -7.079 5.54 7.386 -14.55 -14.47 -10.2 -1.319 -0.3517 -4.66 -16.88 -8.266 -9.849 -12.57
2.985 3.517 2.066 -4.617 -2.99 4.748 8.881 -6.771 -8.969 -8.969 -2.55 0.2638 0.1759 -12.22 -8.266 -6.243 -11.34
2.99 2.902 1.583 1.011 0.6595 1.319 5.012 -2.462 -3.957 -6.683 -3.693 -0.3517 3.869 -7.211 -7.386 -0.7035 -8.793
2.995 2.902 0.1319 2.99 2.946 -1.583 -0.1319 -2.77 -1.363 -5.276 -3.781 -1.231 5.54 -3.517 -5.276 4.66 -6.067
3 3.781 -0.2638 1.011 2.814 -2.022 -2.814 -5.584 -0.6595 -4.792 -2.462 -1.143 5.1 -1.319 -2.55 7.914 -4.397
3.005 4.924 1.099 -1.847 0.1319 -0.08793 -1.451 -7.298 0.2198 -3.605 0.08793 0.1759 3.693 0.1759 -0.08793 8.53 -3.693
3.01 5.1 3.166 -3.341 -3.561 2.638 2.77 -5.54 2.638 -1.319 3.693 2.55 2.638 2.374 1.759 7.65 -3.254
3.015 3.517 3.605 -3.913 -6.419 4.265 7.035 -1.539 4.573 0.2638 7.298 4.924 2.11 3.869 2.638 6.507 -2.726
3.02 0.2638 0.8793 -5.452 -7.518 3.166 7.606 0.2638 1.979 -0.3078 9.057 5.452 1.319 1.583 1.055 5.188 -2.99
3.025 -3.869 -4.704 -8.881 -7.386 -0.7474 2.726 -3.298 -6.639 -3.034 7.211 3.254 -0.7035 -5.892 -3.254 3.078 -4.133
3.03 -7.211 -10.86 -13.15 -6.551 -5.496 -5.584 -10.68 -17.63 -6.595 2.462 -0.8793 -3.869 -15.3 -8.09 -0.2638 -5.54
3.035 -7.826 -14.2 -15.39 -4.748 -7.826 -12.53 -16.14 -23.61 -9.321 -2.726 -5.012 -6.947 -20.84 -10.82 -4.309 -6.243
3.04 -5.54 -12.13 -12.05 -1.495 -6.067 -13.76 -14.68 -19.83 -9.233 -5.979 -6.947 -8.617 -19.26 -10.73 -7.298 -6.067
3.045 -1.671 -4.66 -2.286 2.638 -1.055 -8.266 -6.199 -7.606 -5.716 -5.716 -5.804 -8.002 -11.61 -8.354 -8.09 -5.1
3.05 1.671 5.056 9.541 6.243 4.529 1.407 5.144 6.551 -0.9233 -2.374 -1.935 -5.1 -0.9673 -4.221 -5.979 -2.99
3.055 3.341 12.4 16.36 7.43 8.09 10.55 13.81 15.87 1.583 2.198 2.726 -0.7035 8.617 0.7035 -1.935 0.2638
3.06 2.55 13.76 14.42 4.924 7.474 14.47 15.74 16.8 0.7474 5.452 6.331 3.605 13.89 4.397 2.198 4.309
3.065 -0.4397 8.53 6.199 -0.3078 2.77 11.3 10.77 10.82 -1.715 5.364 7.035 6.067 13.72 5.54 4.924 7.562
3.07 -4.133 -0.5276 -2.858 -5.144 -3.561 3.385 2.418 2.594 -3.913 2.374 4.66 5.716 9.761 4.66 5.364 8.705
3.075 -6.419 -8.837 -8.574 -6.287 -8.31 -4.573 -4.88 -3.605 -5.188 -1.671 0.3517 2.55 4.221 2.902 3.781 6.859
3.08 -6.155 -12.35 -9.145 -3.254 -9.629 -8.969 -8.661 -6.595 -5.364 -5.1 -4.045 -1.935 -2.198 0.4397 0.6155 1.847
3.085 -3.693 -9.585 -5.54 1.011 -7.958 -8.617 -8.617 -7.167 -4.66 -6.771 -6.947 -5.892 -8.442 -2.638 -2.814 -4.485
3.09 -0.2638 -2.33 -1.055 3.034 -4.617 -4.617 -5.496 -6.331 -4.177 -6.243 -7.123 -7.211 -12.22 -4.748 -5.1 -9.321
3.095 2.726 5.54 0.9233 1.275 -0.8793 0.6595 -0.9233 -4.66 -4.836 -3.869 -4.573 -5.54 -11.96 -4.836 -5.364 -10.73
3.1 4.133 10.42 -0.04397 -2.682 2.154 4.265 2.242 -2.858 -5.54 -1.143 -0.9673 -2.286 -8.617 -3.429 -3.781 -9.057
3.105 3.341 10.42 -2.242 -5.979 3.693 4.001 1.495 -1.935 -4.221 0.7035 1.847 0.7035 -4.573 -1.583 -1.143 -5.892
3.11 1.055 5.804 -4.177 -6.111 3.781 0.5716 -3.034 -1.847 -0.4397 1.759 3.429 2.814 -1.055 0.6155 1.495 -2.374
3.115 -1.231 -1.143 -5.892 -3.21 3.385 -3.122 -8.354 -1.231 3.737 3.166 4.485 4.66 2.11 3.166 3.869 1.143
3.12 -2.726 -7.079 -6.815 0.1759 3.254 -4.089 -10.6 0.9233 6.683 5.276 6.067 6.947 5.012 5.276 5.892 4.397
3.125 -3.166 -8.617 -5.54 1.539 3.825 -0.9233 -7.43 4.792 8.178 7.738 8.178 9.057 7.386 6.067 7.298 6.595
3.13 -2.55 -4.089 -1.011 1.011 5.32 5.672 0.6595 9.453 8.617 9.057 9.761 9.673 9.233 5.892 7.474 7.562
3.135 -0.08793 5.628 5.936 1.099 7.386 12.79 10.6 13.41 8.398 8.266 9.585 7.738 9.849 4.924 5.979 6.859
3.14 3.781 16.71 13.81 3.693 8.486 16.36 17.67 14.77 8.53 5.276 6.859 3.605 8.266 2.286 2.814 4.66
3.145 7.65 23.17 19.92 7.738 6.947 13.81 18.29 12.22 9.233 1.495 2.814 -0.7914 4.66 -2.022 -0.2638 2.022
3.15 8.881 20.22 20.31 10.16 3.034 6.243 12.27 6.331 8.925 -0.1759 -0.08793 -3.166 1.495 -5.804 -1.583 0.7914
3.155 6.067 7.606 12.57 8.442 -1.011 -2.11 2.726 -0.7035 5.892 1.583 -0.08793 -2.286 1.583 -6.595 -0.08793 1.759
3.16 -0.5276 -8.881 -0.3078 2.77 -2.638 -7.079 -5.936 -6.331 1.231 5.979 2.462 0.8793 4.748 -4.045 3.254 3.781
3.165 -8.002 -20.31 -10.6 -3.649 -0.7914 -6.551 -9.936 -8.002 -1.539 9.761 6.067 4.66 9.057 0.6155 6.155 5.012
3.17 -11.78 -20.14 -11.7 -6.507 3.517 -1.275 -7.123 -4.089 -0.2638 10.82 8.705 7.738 12.75 5.716 6.595 4.221
3.175 -8.793 -8.837 -3.254 -3.561 8.178 5.276 1.187 4.265 4.133 8.793 9.233 9.057 14.16 9.233 3.957 0.9673
3.18 -0.3517 6.243 8.837 3.078 10.29 8.925 9.98 12.4 9.057 4.573 7.298 7.562 11.43 9.057 -1.231 -4.748
3.185 8.178 16.05 16.71 8.617 8.486 7.035 13.1 14.55 11.78 -0.5276 2.99 2.638 4.221 5.364 -7.386 -11.43
3.19 11.52 15.74 14.95 9.453 4.133 1.231 8.442 8.442 10.38 -5.452 -2.55 -4.221 -4.924 0.7914 -12.4 -16.18
3.195 8.178 7.606 4.529 5.628 0.04397 -4.001 -0.5276 -2.374 4.704 -9.233 -7.474 -9.849 -11.78 -2.11 -14.42 -16.36
3.2 0.8793 -1.451 -7.035 -0.2198 -1.935 -5.144 -7.562 -11.74 -2.462 -11.17 -9.497 -10.55 -13.72 -3.078 -12.4 -11.52
3.205 -5.716 -5.848 -12.05 -4.968 -2.242 -1.935 -8.31 -14.42 -7.43 -10.46 -7.474 -5.276 -10.55 -3.078 -6.771 -3.605
3.21 -8.002 -4.88 -8.661 -6.639 -2.198 2.726 -3.166 -9.717 -8.486 -7.035 -2.374 2.99 -4.045 -2.55 0.2638 3.605
3.215 -5.716 -1.803 -1.715 -5.056 -2.682 5.1 3.078 -1.187 -6.463 -2.198 2.374 8.617 2.286 -1.495 5.452 7.035
3.22 -1.671 -0.08793 3.429 -1.891 -3.869 2.814 5.364 5.54 -2.594 0.8793 3.078 7.211 4.573 -0.2638 5.892 5.54
3.225 0.4397 -0.5276 5.276 0.6595 -5.32 -2.99 2.198 7.167 1.935 0.08793 -1.407 -0.7914 2.11 0.7035 1.495 1.583
3.23 -0.4397 -1.759 5.012 1.495 -5.979 -8.442 -2.55 4.66 5.276 -3.781 -8.354 -9.936 -1.847 1.935 -4.748 -0.4397
3.235 -2.902 -2.638 3.605 0.8354 -5.012 -10.11 -4.001 1.143 5.496 -7.562 -12.84 -14.16 -3.429 3.429 -8.969 1.671
3.24 -4.66 -3.429 1.803 -0.3517 -3.034 -7.826 -0.7035 -1.187 2.902 -8.09 -11.87 -11.08 -1.935 3.781 -8.617 6.507
3.245 -4.66 -4.968 0.1319 -1.143 -1.319 -4.309 4.265 -2.33 0 -5.1 -6.331 -3.957 0.4397 2.462 -4.397 10.2
3.25 -3.166 -6.859 -0.7474 -0.6155 -0.3517 -1.891 7.474 -2.286 -1.319 -0.4397 -0.08793 2.374 1.759 0.7914 1.231 10.64
3.255 -0.9673 -7.167 -0.3078 1.187 0.4397 -0.7474 8.046 -0.6155 -1.143 3.341 3.429 5.012 1.583 0.3517 5.892 8.354
3.26 1.143 -4.045 2.154 2.814 1.715 0.1759 7.298 2.506 -0.1759 4.924 3.517 4.485 0.8793 1.319 8.705 5.892
3.265 2.638 1.891 5.804 2.286 3.254 1.935 6.727 5.716 0.7035 4.924 2.11 3.517 1.143 2.902 10.2 4.924
3.27 3.693 7.562 7.167 -0.5716 4.704 4.265 6.067 6.947 0.3957 5.012 1.759 4.133 3.254 4.485 10.82 5.804
3.275 4.573 9.365 3.166 -3.957 5.408 5.892 3.825 4.968 -1.495 5.979 2.99 5.892 6.155 5.628 10.2 6.331
3.28 4.485 6.111 -4.573 -5.76 4.485 5.188 -1.187 0 -3.957 6.419 4.221 6.595 6.595 4.836 7.298 4.045
3.285 2.374 -0.2198 -10.55 -5.408 1.319 1.891 -7.694 -5.848 -4.968 4.397 3.166 4.485 2.55 1.495 1.671 -1.231
3.29 -1.407 -6.199 -10.82 -4.001 -3.078 -2.066 -11.56 -9.365 -4.485 -0.1759 -0.2638 0.5276 -3.781 -2.902 -5.012 -7.123
3.295 -5.364 -8.749 -6.331 -3.034 -6.639 -4.089 -9.497 -8.705 -3.957 -5.188 -4.309 -3.078 -8.354 -6.243 -10.64 -10.73
3.3 -7.211 -6.947 -0.8793 -3.385 -7.562 -3.166 -2.594 -4.88 -3.869 -8.354 -6.771 -4.748 -8.705 -7.738 -13.37 -10.9
3.305 -5.54 -1.803 2.682 -4.309 -5.892 -0.3957 4.309 -0.7035 -3.254 -8.705 -6.859 -3.957 -5.364 -7.386 -12.57 -8.442
3.31 -0.9673 4.177 3.473 -4.045 -2.682 2.242 6.815 1.671 -1.935 -6.507 -5.188 -1.671 -0.5276 -5.1 -8.617 -4.573
3.315 4.485 8.442 2.11 -1.583 0.4836 3.561 3.825 1.847 -0.7914 -2.638 -2.726 1.055 3.078 -1.583 -2.462 -0.6155
3.32 8.09 9.409 0.3957 1.627 2.286 3.21 -2.066 0 -0.3078 1.583 -0.08793 3.341 3.254 1.495 4.221 1.935
3.325 7.914 7.474 -0.2638 3.166 2.374 2.066 -6.507 -2.858 0.04397 5.276 2.462 4.748 0.08793 2.638 9.849 2.374
3.33 4.748 4.924 -0.2198 1.891 2.198 1.979 -5.936 -5.012 0.5716 8.178 5.276 5.452 -3.429 2.55 12.49 0.8793
3.335 1.407 4.353 -0.3078 -0.9233 3.473 4.265 -0.1319 -4.309 0.9673 10.11 7.914 5.716 -4.485 2.286 11.87 -1.407
3.34 0.6155 6.639 0 -3.298 6.111 7.65 7.035 -0.6155 1.187 10.46 9.057 5.012 -3.166 1.495 8.53 -3.517
3.345 2.462 9.805 1.715 -4.001 8.134 8.925 9.936 3.825 1.495 8.705 7.211 2.55 -1.847 -0.08793 4.485 -4.397
3.35 5.012 10.24 3.429 -3.122 7.518 5.628 5.54 5.979 1.099 5.276 2.462 -1.759 -2.11 -2.11 1.495 -3.341
3.355 5.892 5.76 2.33 -1.319 3.825 -1.715 -4.309 3.957 -0.6155 1.231 -3.517 -6.947 -3.781 -3.254 0.4397 -0.7035
3.36 3.605 -2.11 -1.979 0.3517 -1.803 -9.893 -14.47 -1.451 -2.902 -2.55 -8.442 -10.64 -5.892 -3.693 0.6155 2.462
3.365 -1.407 -9.057 -6.375 1.275 -7.255 -14.55 -18.91 -7.079 -3.825 -5.54 -9.849 -10.29 -6.595 -3.781 0.9673 5.276
3.37 -7.035 -11.17 -7.518 1.275 -10.11 -12.44 -14.42 -8.661 -3.254 -6.331 -6.771 -4.748 -4.221 -3.254 1.319 7.826
3.375 -9.936 -7.87 -5.32 0.5716 -9.013 -4.177 -3.166 -4.924 -2.858 -4.309 -0.3517 3.781 0.5276 -2.198 2.022 9.585
3.38 -8.881 -2.374 -2.066 -0.7035 -5.1 5.144 7.606 0.7474 -3.649 -0.3517 5.979 10.29 4.309 -1.759 2.726 9.145
3.385 -4.836 1.055 -0.4836 -2.242 -1.319 9.145 10.64 3.341 -4.924 2.902 8.442 10.29 3.693 -2.55 2.198 5.364
3.39 -0.1759 0.2638 -1.891 -2.902 -0.04397 4.968 4.089 0.5276 -5.936 3.078 5.276 3.078 -0.7914 -3.429 -0.3517 -0.7035
3.395 2.902 -3.561 -5.1 -1.759 -1.583 -4.441 -6.727 -4.968 -6.375 0 -1.583 -7.035 -5.716 -3.254 -4.309 -6.243
3.4 3.254 -7.079 -6.507 0.4397 -4.485 -12.93 -13.63 -8.398 -5.716 -4.66 -7.826 -13.81 -7.826 -2.462 -7.474 -8.442
3.405 0.7914 -7.167 -3.385 2.198 -6.287 -14.51 -11.17 -6.419 -3.298 -7.298 -8.881 -12.66 -5.716 -1.935 -7.123 -6.155
3.41 -2.374 -3.298 2.682 2.638 -4.748 -7.43 -0.08793 0.4397 0.3078 -5.452 -3.517 -4.133 0.1759 -1.583 -2.638 -0.8793
3.415 -3.957 2.286 7.123 2.682 0.3517 4.748 12.79 8.398 3.781 0.4397 5.364 7.035 7.123 -0.5276 3.869 4.133
3.42 -2.726 6.375 7.255 3.693 6.463 14.73 19.3 12.84 6.375 6.595 12.31 14.51 11.34 0.5276 8.705 5.979
3.425 0.2638 6.771 4.704 5.848 9.893 16.75 15.52 11.96 8.046 8.793 13.1 14.77 10.73 1.319 9.145 4.133
3.43 2.902 3.473 2.462 7.826 8.969 11.21 5.54 7.87 7.914 6.331 8.354 9.497 7.035 2.022 6.155 1.319
3.435 3.605 -0.8354 2.242 7.826 5.408 4.133 -2.066 4.529 5.012 2.286 2.814 3.517 3.341 2.902 2.99 0.4397
3.44 2.11 -3.078 4.133 4.88 2.198 1.495 -1.319 3.825 0.5716 0.7035 1.143 1.055 1.319 3.166 2.55 1.935
3.445 -0.7914 -1.627 6.859 0.1319 0.9673 4.704 6.419 4.704 -2.682 2.902 4.221 2.902 0.5276 2.462 5.276 4.045
3.45 -3.341 1.979 7.694 -3.473 1.099 9.497 14.07 4.88 -3.254 6.859 8.617 6.419 0.4397 1.671 8.617 4.924
3.455 -3.957 4.133 4.397 -3.737 0.4397 9.541 14.16 2.946 -1.715 8.53 9.321 7.65 0.6155 1.935 9.321 3.693
3.46 -2.374 1.891 -2.198 -1.055 -2.638 1.539 4.221 -0.9673 0.3957 5.1 3.781 4.309 0.1759 2.814 5.716 0.9673
3.465 -0.1759 -4.441 -8.398 1.495 -7.65 -11.39 -10.68 -5.452 2.022 -2.374 -5.364 -2.11 -0.6155 3.254 -0.5276 -1.319
3.47 1.143 -11.52 -11.12 1.495 -11.39 -21.32 -21.15 -8.266 1.935 -9.673 -12.75 -7.65 -0.6155 3.254 -6.067 -1.671
3.475 1.143 -15.12 -9.717 -0.9673 -10.68 -21.37 -20.18 -8.046 -0.2198 -12.49 -13.63 -8.969 0.7035 2.902 -8.881 -0.2638
3.48 0.1759 -12.97 -4.836 -3.737 -5.496 -11.56 -8.574 -5.32 -2.946 -10.46 -8.705 -6.155 1.759 1.495 -9.585 0.3517
3.485 -0.5276 -6.023 1.935 -4.265 1.231 1.539 5.892 -1.803 -3.517 -6.683 -2.286 -2.638 0.3517 -0.9673 -10.38 -2.022
3.49 0.2638 2.374 7.738 -1.495 6.419 10.73 14.95 1.363 -1.011 -4.573 0.9673 -1.847 -2.99 -3.254 -13.01 -7.211
3.495 3.341 8.705 9.585 3.122 8.705 12.31 14.64 3.957 2.99 -5.188 -0.2638 -4.748 -6.067 -3.605 -16.36 -12.84
3.5 7.298 10.73 6.947 6.375 8.09 7.342 6.771 5.408 6.639 -7.211 -4.045 -9.145 -7.386 -2.726 -18.03 -15.92
3.505 8.969 8.266 1.979 5.584 4.924 -0.5716 -3.649 4.66 8.486 -8.969 -7.65 -12.13 -6.859 -1.847 -16.18 -15.12
3.51 6.243 2.726 -3.034 0.8793 -0.08793 -7.782 -11.43 1.363 7.298 -9.673 -9.936 -12.22 -5.1 -1.671 -11.61 -10.99
3.515 0 -3.561 -7.079 -4.66 -5.848 -11.96 -13.67 -3.737 2.946 -9.849 -11.17 -10.55 -3.693 -2.11 -7.035 -6.067
3.52 -6.331 -7.958 -9.277 -7.914 -10.73 -12.57 -11.12 -9.321 -2.462 -10.2 -12.05 -9.145 -4.221 -3.166 -5.1 -2.814
3.525 -9.321 -8.881 -9.057 -7.694 -12.84 -9.98 -6.639 -13.5 -5.892 -10.11 -11.87 -8.881 -6.419 -4.397 -5.188 -1.671
3.53 -7.123 -6.815 -7.518 -5.056 -10.51 -4.836 -2.946 -14.33 -6.199 -7.298 -8.617 -8.178 -7.738 -4.397 -4.66 -0.7035
3.535 -1.143 -3.957 -6.595 -2.11 -3.957 1.143 -1.187 -11.08 -4.66 -0.5276 -2.022 -5.276 -5.716 -2.726 -1.495 1.759
3.54 4.573 -2.286 -6.595 -0.8354 3.825 5.144 -1.451 -5.408 -2.902 7.386 5.364 -0.5276 -1.495 -0.8793 3.254 4.836
3.545 6.331 -1.891 -5.936 -1.583 8.837 5.012 -2.682 0 -1.407 11.87 9.321 3.341 1.935 -0.3517 6.243 5.716
3.55 3.517 -1.671 -3.693 -2.946 8.925 1.275 -3.122 3.078 -0.4397 10.02 7.562 3.869 2.902 -0.7035 4.485 2.902
3.555 -1.143 -0.6595 -1.187 -3.122 4.836 -3.341 -1.891 3.605 -0.2198 3.254 1.495 0.8793 1.671 -0.2638 -1.055 -2.462
3.56 -4.485 0.4836 0.1759 -1.715 -1.099 -6.727 -0.3517 2.154 0 -3.957 -4.66 -3.254 -0.2638 1.143 -6.595 -7.211
3.565 -4.836 0.6595 0.4836 0.5276 -6.375 -8.002 -0.4836 0.08793 1.143 -7.474 -7.386 -5.54 -1.407 2.814 -7.914 -8.354
3.57 -2.462 -0.1759 0.8793 3.254 -8.617 -6.595 -1.847 -0.3517 2.946 -5.716 -5.364 -4.045 -0.08793 3.957 -4.045 -5.1
3.575 0.9673 -0.1319 2.594 6.683 -6.155 -1.627 -1.627 2.198 3.957 -0.1759 0.4397 0.6155 3.693 4.309 2.638 0.5276
3.58 3.781 2.902 6.463 10.29 0.2638 6.903 2.242 7.167 3.737 6.067 7.562 6.683 8.002 3.254 8.617 5.452
3.585 4.133 8.266 11.08 12.13 7.65 16.44 8.354 11.48 3.122 10.73 13.81 11.87 10.46 1.319 12.22 7.914
3.59 2.022 11.78 12 10.29 12 21.85 12.05 11.91 2.286 13.28 17.15 14.6 10.82 0.3517 13.89 9.145
3.595 -1.583 9.233 5.408 4.441 10.55 18.16 8.881 7.079 0.4836 13.1 15.74 13.63 9.497 1.495 14.25 10.38
3.6 -4.836 0.6155 -6.639 -3.254 3.122 4.089 -1.451 -1.715 -1.979 9.233 8.178 8.442 6.243 3.166 12.57 11.08
3.605 -6.507 -9.189 -16.93 -9.277 -7.167 -15.26 -14.03 -10.99 -4.045 1.055 -4.221 -0.08793 0.7914 3.166 7.65 9.409
3.61 -5.979 -14.51 -19.21 -10.6 -15.26 -30.34 -21.24 -16.22 -5.144 -8.881 -16.53 -8.617 -4.836 1.319 0.08793 5.364
3.615 -3.781 -13.23 -13.59 -7.035 -16.93 -33.28 -18.77 -14.86 -5.584 -15.56 -22.51 -12.84 -7.738 -0.7914 -6.683 0.9673
3.62 -1.495 -8.134 -5.144 -1.803 -11.96 -23.43 -9.013 -8.002 -4.836 -14.95 -18.55 -10.55 -6.419 -1.847 -8.793 -0.8793
3.625 -0.7914 -3.385 0.9673 1.363 -3.341 -6.815 1.847 0.7474 -1.715 -6.683 -6.419 -2.99 -1.319 -0.7035 -4.485 0.8793
3.63 -1.231 -0.2198 2.99 1.451 5.628 9.497 10.11 8.486 3.122 5.276 8.354 6.067 5.716 3.078 3.693 5.188
3.635 -1.231 3.517 2.682 0.2638 13.15 21.59 15.87 13.72 7.518 15.83 19.87 12.75 12.13 8.09 11.08 8.617
3.64 0.1759 9.805 3.341 -0.1319 18.03 28.14 20.05 15.43 9.541 20.75 24.62 14.77 14.25 11.26 13.72 8.09
3.645 2.374 16.22 5.804 0.3078 18.86 28.45 20.97 12.75 8.617 19.52 22.34 12.22 10.29 9.936 11.26 3.517
3.65 3.693 17.45 6.859 0.5276 14.82 21.81 15.48 6.023 4.968 13.81 14.77 6.419 2.022 4.66 5.979 -1.935
3.655 3.254 10.11 3.254 0.04397 7.079 9.233 3.078 -2.374 -0.5716 5.892 4.397 -0.8793 -6.683 -1.847 0.3517 -5.188
3.66 1.671 -2.462 -3.122 -0.4836 -1.231 -5.012 -11.26 -9.189 -5.584 -2.814 -6.595 -8.178 -12.84 -7.826 -4.924 -5.54
3.665 0.08793 -12.31 -6.375 0.08793 -6.507 -14.2 -19.3 -11.34 -7.474 -11.26 -14.95 -13.19 -15.21 -11.61 -9.936 -4.573
3.67 -0.4397 -12.79 -2.814 2.286 -6.551 -13.1 -15.08 -7.958 -6.067 -16.71 -17.59 -13.45 -13.19 -11.87 -13.81 -3.341
3.675 0.1759 -4.397 4.397 4.836 -2.506 -2.946 -0.9233 -0.9673 -3.166 -16.8 -13.37 -8.178 -7.386 -8.178 -14.6 -2.11
3.68 1.319 6.331 9.365 5.408 1.407 8.178 13.19 5.232 0.08793 -11.61 -4.66 0.2638 -0.08793 -2.286 -11.17 -0.7035
3.685 2.11 12.27 8.749 3.298 1.451 11.83 17.81 7.562 3.693 -3.781 3.693 7.474 6.243 3.341 -4.221 0.9673
3.69 2.55 10.86 4.045 0.6155 -2.11 6.199 11.61 6.287 7.079 3.166 8.354 10.38 10.82 7.386 3.341 2.55
3.695 2.814 4.88 -0.2638 0.3517 -5.496 -2.682 1.891 4.265 8.661 7.738 9.145 9.145 13.54 9.233 8.705 2.99
3.7 2.286 -0.9673 -0.3957 3.166 -5.32 -7.167 -3.254 3.429 7.914 9.849 8.442 6.067 13.19 7.914 10.46 1.495
3.705 0.3517 -4.133 3.649 6.639 -1.539 -4.529 -1.539 3.605 5.628 10.2 8.002 3.341 8.617 3.957 9.321 -1.583
3.71 -2.286 -4.485 8.002 7.738 2.946 1.671 3.166 3.517 2.814 8.969 7.386 1.583 1.319 0 7.035 -4.397
3.715 -3.166 -2.638 8.574 5.452 5.452 6.023 5.936 2.55 0 5.979 4.748 0.2638 -5.1 -1.407 4.836 -5.1
3.72 0 1.363 5.672 1.231 5.276 5.892 4.968 0.9233 -1.935 1.231 -0.08793 -1.319 -8.178 -0.1759 3.078 -3.517
3.725 6.419 7.211 2.946 -2.462 3.825 3.122 2.462 -0.6595 -2.506 -3.517 -4.924 -2.198 -6.947 1.583 1.935 -0.5276
3.73 13.01 12.93 2.462 -4.089 3.166 1.803 1.583 -1.627 -2.682 -5.716 -6.507 -1.055 -2.11 2.638 1.319 2.726
3.735 15.74 15.56 2.594 -3.649 4.089 3.605 2.726 -1.847 -3.825 -4.133 -3.781 2.022 3.781 2.462 1.231 5.1
3.74 13.19 13.72 1.671 -2.33 5.232 6.155 3.254 -1.759 -5.232 -0.7035 0.7914 5.1 7.474 0.7035 0.7914 5.364
3.745 6.859 9.013 0.5276 -1.099 4.836 6.155 1.187 -1.187 -5.1 1.319 3.517 5.804 7.211 -1.583 -0.4397 3.254
3.75 0.8793 4.748 1.231 0.2198 2.902 3.605 -1.407 0.6595 -2.902 0.8793 3.517 4.309 5.188 -2.55 -2.11 0.5276
3.755 -1.759 3.078 4.309 2.154 1.187 1.495 -0.6155 4.221 -0.3517 -0.1759 2.726 2.726 4.133 -1.055 -2.726 -0.7035
3.76 -0.9673 3.341 8.705 4.045 0.7474 1.847 4.573 7.606 1.055 0.08793 3.341 2.814 4.221 0.7914 -1.583 -0.5276
3.765 0.4397 3.034 12.22 4.704 0.6155 3.341 10.46 8.222 1.319 1.495 4.748 3.605 2.902 0.7914 0.4397 -0.1759
3.77 0.7914 0.5276 12.44 3.781 -0.5276 2.594 11.65 4.836 0.6595 1.671 3.693 2.462 -1.407 -1.495 1.495 -1.231
3.775 0 -3.693 8.178 2.242 -3.122 -2.33 5.672 -1.011 -0.7474 -1.319 -1.759 -2.11 -7.826 -4.748 0.2638 -4.045
3.78 -0.7914 -7.914 0.8793 1.099 -6.111 -10.07 -5.232 -6.903 -2.33 -6.595 -9.936 -8.617 -13.72 -7.65 -2.11 -7.298
3.785 -1.055 -10.42 -6.331 0.08793 -7.87 -16.36 -15.65 -10.6 -3.166 -10.38 -15.92 -12.75 -15.74 -8.881 -3.078 -8.178
3.79 -1.143 -10.73 -11.52 -1.363 -6.815 -16.71 -20 -10.73 -3.429 -8.793 -14.68 -10.55 -11.43 -7.298 -0.2638 -4.133
3.795 -1.583 -8.749 -13.89 -3.649 -2.594 -9.541 -16 -7.167 -3.781 -1.407 -5.716 -1.847 -1.583 -2.99 5.54 3.605
3.8 -2.638 -4.265 -12.62 -6.067 3.298 2.198 -5.76 -1.231 -3.693 7.738 6.331 8.969 8.881 1.407 10.9 10.82
3.805 -3.869 1.935 -7.123 -7.65 8.178 13.28 5.54 4.441 -2.462 13.45 15.21 16.36 14.42 3.517 12.22 12.57
3.81 -4.66 7.298 0 -7.43 9.893 18.77 12.71 7.342 -0.9233 13.45 17.23 16.62 12.84 2.55 8.53 7.65
3.815 -4.836 7.914 3.341 -5.628 7.65 16.18 12.05 5.628 -1.187 8.881 12.13 10.02 5.364 -0.08793 1.583 -1.143
3.82 -4.748 1.979 -0.04397 -3.737 1.759 5.584 2.506 -0.5716 -3.429 2.198 2.286 -0.4397 -4.66 -3.254 -5.54 -9.936
3.825 -4.836 -8.046 -7.826 -3.298 -6.111 -9.453 -12.57 -8.442 -5.628 -5.276 -8.881 -10.55 -13.37 -5.54 -10.99 -15.04
3.83 -4.924 -16.27 -14.11 -4.221 -12.71 -22.12 -25.59 -12.44 -5.628 -12.13 -17.67 -15.83 -16.18 -5.276 -13.72 -14.86
3.835 -4.748 -17.37 -14.2 -5.232 -14.55 -25.19 -28.18 -8.617 -3.078 -16 -20.14 -14.07 -11.17 -2.11 -13.54 -10.29
3.84 -4.573 -10.68 -7.474 -5.188 -10.68 -16.36 -17.85 1.759 0.9233 -14.42 -14.42 -5.892 -1.143 1.407 -10.38 -4.133
3.845 -5.276 -0.8354 2.374 -3.869 -3.825 -0.4397 -0.4397 12.22 4.748 -6.947 -2.55 4.309 7.474 2.55 -4.924 0.6155
3.85 -6.771 5.76 9.057 -1.583 1.451 13.15 13.5 15.61 6.111 3.254 9.233 10.73 9.585 0.7914 0.9673 2.198
3.855 -7.211 5.584 8.266 1.143 2.154 16.44 15.7 9.409 3.869 10.64 14.25 9.497 3.781 -2.55 4.573 0.1759
3.86 -5.276 -0.04397 1.275 3.605 -1.935 7.694 5.276 -2.946 -0.2638 10.29 8.969 0.8793 -7.298 -5.628 4.045 -4.66
3.865 -1.319 -6.815 -6.419 4.485 -7.782 -7.342 -10.73 -14.47 -3.078 2.374 -3.166 -10.11 -17.5 -7.035 0.3517 -9.761
3.87 2.198 -10.68 -10.73 3.21 -10.73 -19.13 -22.07 -18.91 -3.078 -7.65 -14.33 -16.97 -20.75 -5.54 -3.605 -11.61
3.875 3.078 -10.2 -11.08 0.4397 -8.002 -21.1 -22.38 -14.82 -1.319 -12.84 -18.03 -16.36 -15.04 -1.847 -5.276 -8.442
3.88 0.8793 -6.287 -8.705 -2.374 -1.187 -14.42 -13.59 -6.375 0.3517 -10.9 -13.45 -9.936 -4.66 1.143 -4.485 -2.638
3.885 -2.11 -0.7035 -4.441 -3.869 4.924 -5.584 -2.77 0.3957 0.9673 -5.1 -5.54 -2.55 3.429 0.8793 -3.078 1.495
3.89 -2.902 4.485 0.4836 -3.21 6.639 -0.1319 4.441 2.638 -0.08793 -0.08793 0.2638 2.198 6.067 -2.374 -2.902 1.495
3.895 -0.1759 7.87 4.001 -0.9233 3.649 1.011 7.474 1.495 -2.99 1.495 2.286 3.957 4.66 -5.892 -3.869 -2.022
3.9 3.781 8.53 5.144 1.407 -1.231 0.6595 8.837 -0.08793 -5.584 0.7035 2.198 4.309 2.55 -7.562 -4.133 -5.364
3.905 4.485 6.243 4.792 2.418 -4.573 1.495 10.77 -0.2198 -5.056 0 2.638 4.485 2.462 -6.067 -2.638 -4.397
3.91 0.08793 1.671 4.617 2.682 -4.089 4.001 13.5 1.627 -0.5716 0.9673 4.309 4.485 5.276 -0.9673 0 2.286
3.915 -6.859 -3.913 5.584 3.737 -0.2638 6.287 15.43 4.66 5.892 2.99 5.892 3.166 9.761 6.683 1.847 12.22
3.92 -11.61 -9.013 8.222 6.287 3.781 6.111 14.77 7.562 11.74 3.957 5.716 0.3517 12.93 13.63 1.319 20.05
3.925 -10.99 -12.09 12.05 9.145 5.056 3.034 11.74 9.365 15.21 2.55 3.341 -2.814 13.01 17.23 -1.231 21.81
3.93 -5.452 -12 14.86 10.6 2.858 -0.7035 8.574 10.42 15.56 -0.6155 -0.5276 -4.924 10.82 17.15 -4.045 17.41
3.935 1.055 -8.53 14.38 9.673 -0.8793 -3.122 6.639 10.9 13.01 -4.485 -5.188 -5.892 8.002 14.68 -5.628 9.936
3.94 5.012 -2.858 10.33 6.727 -4.001 -4.485 4.397 9.805 9.365 -8.266 -10.46 -7.035 4.573 10.55 -5.892 2.462
3.945 4.924 2.022 4.66 2.682 -5.364 -6.859 -1.055 5.364 6.331 -11.7 -15.74 -9.497 -0.5276 5.012 -5.716 -3.254
3.95 3.166 3.034 -1.627 -1.451 -5.232 -10.86 -10.51 -2.33 3.254 -13.45 -18.73 -12.13 -6.507 -0.6155 -5.188 -6.595
3.955 3.078 -0.7914 -8.705 -5.144 -4.133 -14.51 -20.4 -10.9 -1.803 -11.43 -16.71 -12.31 -10.9 -5.364 -3.781 -7.474
3.96 5.54 -6.639 -15.26 -8.09 -2.55 -14.6 -25.5 -16.84 -8.486 -5.276 -9.057 -8.442 -12.05 -8.793 -0.7035 -6.243
3.965 8.53 -9.497 -17.63 -9.717 -0.6595 -9.321 -21.98 -17.23 -13.45 2.726 1.759 -1.143 -9.321 -10.64 3.429 -3.166
3.97 9.409 -5.76 -13.15 -8.925 2.154 0.4397 -9.849 -11.17 -13.59 9.673 11.61 7.123 -2.99 -9.673 7.738 1.231
3.975 7.826 3.737 -3.122 -4.924 6.243 11.83 6.419 -0.5716 -8.661 13.45 17.67 13.72 5.1 -5.54 10.73 5.892
3.98 5.804 14.38 8.266 0.8793 10.38 20.75 20.36 10.11 -0.8793 14.33 19.79 16.97 11.61 -0.4397 11.87 8.881
3.985 5.54 20.93 16.53 5.892 12.62 24.62 26.69 16.58 6.287 13.72 19.35 16.71 13.63 2.99 11.08 8.793
3.99 7.826 21.28 18.55 8.046 11.91 23.3 24.84 17.41 9.673 12.84 17.59 13.45 11.43 4.221 8.442 6.067
3.995 11.17 17.15 14.42 7.43 8.793 18.33 17.59 13.85 8.134 11.34 13.98 8.09 7.035 4.133 4.133 2.374
4 12.05 11.74 7.474 5.364 4.529 11.26 8.398 8.134 4.177 7.826 7.914 1.759 2.374 3.078 -0.9673 -0.8793
4.005 8.266 6.639 1.539 2.946 0.3078 3.298 -0.08793 1.715 1.363 1.847 0.3517 -3.693 -1.583 1.407 -5.1 -3.166
4.01 0.7035 1.319 -2.462 0.5276 -2.99 -3.561 -5.936 -4.177 0.5276 -3.957 -5.452 -6.067 -3.693 -0.1759 -6.155 -3.781
4.015 -6.771 -4.792 -6.243 -2.066 -4.792 -7.298 -7.958 -8.486 -0.5716 -6.595 -6.683 -4.573 -3.957 -1.671 -3.254 -2.726
4.02 -10.55 -10.33 -9.849 -5.056 -5.276 -7.474 -6.551 -10.55 -3.649 -5.1 -3.869 -1.407 -3.869 -3.605 1.407 -1.055
4.025 -9.497 -12.53 -10.95 -7.606 -5.144 -5.804 -3.649 -10.2 -7.826 -2.022 -0.6155 0.2638 -5.276 -6.067 4.133 -0.08793
4.03 -5.1 -9.805 -7.87 -8.266 -4.704 -4.397 -1.363 -7.65 -10.86 -0.3517 -0.2638 -1.407 -7.474 -7.386 2.638 -0.6155
4.035 0 -3.473 -2.374 -6.023 -3.737 -4.221 -0.7035 -3.605 -11.04 -0.8793 -2.902 -5.276 -8.705 -6.067 -2.286 -2.462
4.04 3.517 3.034 2.198 -1.803 -2.286 -4.529 -1.363 0.3957 -7.562 -2.11 -5.364 -8.266 -7.826 -3.166 -7.298 -5.276
4.045 4.573 7.079 3.825 1.979 -0.6155 -3.385 -1.627 3.254 -1.319 -1.671 -4.309 -7.386 -4.748 -0.4397 -9.233 -8.178
4.05 4.133 8.442 2.638 3.781 1.363 0.6155 0.5716 5.1 4.573 1.319 0.6155 -2.374 -0.08793 1.671 -7.123 -9.585
4.055 3.693 8.705 0.6155 3.825 3.781 6.595 5.32 6.727 7.211 4.66 6.243 3.869 4.924 3.693 -3.078 -8.793
4.06 4.221 9.233 0.3078 3.385 5.979 10.82 9.365 7.518 6.199 4.836 7.914 7.65 7.474 5.364 -0.4397 -6.683
4.065 5.364 9.321 2.682 3.341 6.551 9.541 8.617 5.892 3.693 -0.08793 3.781 6.683 5.804 5.979 -1.231 -4.66
4.07 6.595 6.991 5.1 3.869 4.792 2.55 1.891 1.363 1.495 -7.826 -3.693 1.671 0.9673 5.364 -4.485 -3.166
4.075 7.123 1.495 3.913 4.309 1.583 -6.243 -7.65 -4.353 -0.1759 -13.54 -9.761 -3.957 -4.133 3.605 -7.474 -1.759
4.08 6.419 -5.276 -1.407 3.737 -1.583 -11.96 -15.12 -8.705 -1.363 -13.54 -10.82 -7.298 -7.386 0.6155 -7.738 0
4.085 3.605 -9.893 -7.43 1.671 -3.341 -11.65 -17.1 -9.805 -1.847 -7.65 -6.595 -6.859 -8.442 -2.814 -4.309 2.286
4.09 -0.4397 -10.02 -10.82 -1.231 -2.506 -5.804 -13.23 -7.562 -2.286 1.495 0.2638 -3.254 -7.298 -4.836 1.847 5.188
4.095 -4.133 -6.067 -11.17 -3.649 0.7914 2.198 -6.375 -3.869 -3.561 10.11 6.155 1.055 -4.748 -4.221 8.617 7.826
4.1 -5.452 -0.8354 -9.629 -4.748 5.056 7.958 -0.6595 -1.671 -5.232 14.95 8.705 3.517 -2.726 -2.11 13.1 8.617
4.105 -4.045 2.55 -7.211 -4.617 7.694 8.617 1.451 -2.286 -5.584 14.68 7.211 2.55 -2.286 -0.4397 13.37 6.771
4.11 -1.407 2.814 -4.265 -3.429 7.386 4.88 1.099 -3.869 -3.693 10.73 3.254 -0.5276 -2.11 0.7035 9.497 2.814
4.115 0.6155 0.7474 -1.099 -1.319 4.66 0.2198 1.363 -3.254 -0.1759 5.628 -0.3517 -2.726 -0.5276 2.462 3.693 -1.759
4.12 0.4397 -1.143 2.462 0.9673 1.011 -2.11 3.913 0.7914 3.913 1.319 -1.583 -1.847 2.11 4.485 -1.231 -5.892
4.125 -1.583 -0.8354 6.419 2.462 -2.022 -0.7914 7.914 6.287 7.694 -1.847 -0.2638 2.374 3.957 5.804 -3.517 -8.793
4.13 -3.693 1.935 8.881 2.55 -3.517 3.122 10.9 9.893 9.277 -4.309 2.022 7.386 3.957 5.716 -2.99 -9.497
4.135 -3.693 5.496 7.386 1.495 -3.385 7.079 10.42 9.189 7.123 -6.947 2.814 9.673 1.935 3.781 -1.407 -7.562
4.14 -1.671 6.947 1.759 -0.2198 -2.946 7.562 5.232 3.605 1.935 -9.936 0.1759 7.298 -1.583 0.08793 -0.7914 -3.517
4.145 -0.1759 4.133 -5.276 -2.33 -3.781 2.946 -3.693 -4.88 -3.693 -12.57 -4.924 1.319 -5.54 -4.397 -1.319 1.143
4.15 -1.407 -3.034 -11.08 -4.353 -5.672 -5.012 -12.79 -12.71 -7.914 -12.93 -9.849 -4.66 -8.002 -7.562 -1.847 5.1
4.155 -5.012 -11.83 -14.33 -5.628 -6.903 -12.13 -17.89 -16.4 -10.38 -9.761 -11.26 -7.65 -7.562 -7.65 -0.6155 7.65
4.16 -8.617 -17.63 -14.2 -5.716 -6.067 -14.6 -16.84 -14.77 -10.82 -3.869 -8.442 -6.771 -5.276 -5.716 2.286 8.53
4.165 -9.761 -16.97 -9.936 -4.573 -3.21 -11.3 -10.68 -9.145 -8.486 2.11 -3.166 -3.693 -2.462 -3.166 5.54 8.53
4.17 -7.474 -9.805 -2.858 -2.33 0.4836 -3.781 -2.022 -1.671 -3.913 6.155 1.935 -0.3517 0.9673 -0.1759 7.914 9.057
4.175 -3.166 0.4397 3.825 0.4397 3.693 4.88 6.023 5.232 1.099 7.65 5.54 2.638 5.54 3.781 8.793 10.9
4.18 0.5276 8.925 7.386 2.55 5.276 11.48 10.99 9.189 5.188 7.65 7.562 5.188 10.2 7.562 8.881 12.57
4.185 1.671 11.96 7.167 2.506 4.924 13.76 11.7 8.749 7.694 7.211 8.53 7.035 12.66 9.409 8.881 12.22
4.19 0.3517 9.057 4.133 0.3078 3.166 11.61 8.881 5.012 8.178 7.035 8.354 7.474 11.96 8.705 8.617 9.145
4.195 -2.198 2.374 0 -2.286 0.5276 6.419 4.529 1.099 6.507 6.771 6.771 5.716 8.881 6.419 7.211 4.309
4.2 -5.012 -4.529 -2.594 -3.517 -3.166 -0.1319 0.4397 -0.3957 4.397 5.452 3.341 1.847 4.66 3.254 4.045 -0.7914
4.205 -8.178 -8.705 -1.363 -2.55 -7.826 -6.199 -2.198 1.099 4.133 2.638 -1.055 -2.55 0.5276 0.1759 -0.5276 -5.188
4.21 -11.08 -8.705 2.99 0.04397 -11.7 -9.541 -2.55 4.353 5.672 -0.7035 -4.924 -5.54 -2.198 -1.495 -5.012 -8.354
4.215 -11.87 -4.968 7.079 2.99 -12.18 -8.837 -0.4397 6.815 6.639 -3.341 -6.859 -6.419 -3.605 -2.022 -7.738 -10.73
4.22 -9.233 0.4397 8.398 4.529 -8.661 -5.144 2.506 5.936 5.144 -4.748 -7.123 -6.155 -5.188 -3.078 -8.442 -12.84
4.225 -4.133 4.485 6.903 3.649 -3.605 -1.759 4.001 1.275 1.715 -5.716 -7.035 -6.155 -7.738 -5.54 -8.002 -14.25
4.23 0 4.353 3.781 1.099 -0.5716 -1.143 2.858 -4.441 -2.022 -6.331 -7.035 -6.419 -9.233 -7.826 -7.123 -13.37
4.235 0.2638 -0.3517 -0.04397 -1.275 -0.9673 -2.946 0.3957 -7.474 -4.397 -6.243 -6.419 -5.452 -7.211 -7.298 -6.331 -9.761
4.24 -2.814 -6.551 -2.99 -2.066 -2.858 -4.265 -1.275 -6.067 -4.001 -5.012 -3.957 -2.462 -2.198 -3.957 -5.628 -4.836
4.245 -5.628 -8.793 -2.946 -1.143 -2.418 -2.022 -0.7474 -1.759 -0.7914 -2.99 0.1759 1.671 2.286 0.08793 -5.364 -1.407
4.25 -3.078 -3.341 0.04397 0.9233 2.682 4.617 1.935 2.374 2.638 -0.7035 4.485 5.012 3.693 2.99 -5.54 -0.6155
4.255 5.979 8.442 3.869 3.078 10.6 12.79 5.144 4.221 3.122 0.4397 6.683 5.628 1.671 3.781 -6.155 -1.935
4.26 16.71 20.09 6.111 3.825 15.39 17.02 6.067 3.166 0.2638 -0.08793 5.452 3.517 -2.198 2.55 -6.771 -3.429
4.265 20.66 23.79 5.584 2.11 12.09 13.37 2.902 0.5716 -3.166 -2.198 1.319 0.5276 -4.924 0.4397 -6.155 -3.166
4.27 13.37 16.05 2.374 -1.319 1.803 3.298 -2.902 -1.143 -4.704 -3.957 -3.078 -1.055 -3.957 -0.3517 -3.341 -0.1759
4.275 -1.231 0.9673 -2.506 -4.529 -8.354 -7.123 -8.09 -0.8354 -4.265 -3.429 -5.188 -0.3517 0.5276 0.7914 1.583 4.397
4.28 -13.98 -12.31 -6.243 -5.716 -11.7 -12.22 -9.805 0.4836 -3.254 -0.2638 -4.133 1.759 5.188 2.022 7.474 8.617
4.285 -17.41 -16.22 -5.76 -4.792 -6.903 -10.33 -7.562 0.9673 -3.078 4.221 -0.7914 3.957 6.595 0.9673 12.31 10.73
4.29 -11.34 -10.02 -1.495 -2.99 1.187 -4.089 -2.462 0.3078 -4.792 8.442 3.605 5.804 5.012 -1.847 15.21 10.82
4.295 -2.286 -0.2198 2.77 -1.891 6.331 2.198 3.21 -0.08793 -7.958 11.52 8.09 7.562 2.902 -3.869 16.09 9.761
4.3 2.022 5.056 3.957 -2.594 5.452 5.32 6.947 0.5276 -10.02 13.1 11.52 9.145 1.671 -3.781 15.04 7.65
4.305 -0.7914 2.242 1.803 -4.748 0.9673 4.792 6.903 1.891 -8.398 13.19 13.19 9.321 0.7035 -1.495 12.22 4.485
4.31 -6.771 -5.54 -1.671 -6.639 -1.891 2.726 3.473 2.594 -3.693 11.78 12.05 6.947 -0.5276 1.759 7.386 0.8793
4.315 -8.969 -11.7 -4.573 -6.507 -0.08793 1.143 -0.9673 1.803 0.7035 8.354 8.09 2.374 -1.759 4.397 0.7035 -2.198
4.32 -4.573 -11.12 -5.276 -4.529 4.573 0.4397 -4.001 -0.2198 2.33 2.55 2.198 -2.286 -2.462 4.485 -6.771 -4.309
4.325 3.078 -3.869 -3.122 -2.242 7.782 -0.04397 -4.045 -1.803 1.363 -4.66 -3.517 -4.397 -1.759 1.847 -12.84 -5.1
4.33 8.442 5.804 0.6595 -0.9233 7.518 0 -0.7035 -0.6595 -0.5716 -10.55 -6.507 -2.55 1.319 -1.319 -15.21 -4.836
4.335 8.617 13.15 4.133 -0.2638 5.452 1.715 4.792 3.737 -2.33 -12.05 -5.188 2.286 5.892 -2.99 -13.28 -4.133
4.34 4.748 15.43 6.463 0.6595 4.001 4.924 9.497 9.057 -2.77 -8.793 -1.055 6.507 8.793 -3.341 -8.705 -4.045
4.345 -0.1759 12.44 8.178 2.374 3.034 6.727 10.2 11.48 -1.407 -3.693 2.374 6.771 7.474 -3.781 -4.573 -4.924
4.35 -4.309 5.012 8.53 4.221 0.4836 3.957 5.936 9.189 0.7035 0 2.11 2.374 2.99 -4.309 -3.341 -5.892
4.355 -7.474 -5.276 5.76 5.056 -5.144 -4.089 -1.627 3.298 2.11 0.1759 -2.286 -4.485 -1.407 -3.781 -4.748 -5.716
4.36 -10.38 -15.56 -0.1759 3.825 -12.35 -14.47 -9.409 -3.298 2.418 -2.022 -8.442 -10.29 -3.517 -1.935 -6.419 -4.133
4.365 -12.49 -21.41 -6.331 0.6595 -16.75 -21.41 -14.25 -8.134 2.418 -3.605 -11.96 -12.05 -2.99 0.3517 -5.628 -1.759
4.37 -11.7 -19.17 -9.409 -2.682 -14.03 -19.7 -13.63 -9.761 1.891 -2.198 -10.02 -9.233 -0.7035 2.198 -1.495 1.143
4.375 -6.683 -8.705 -8.266 -4.001 -3.693 -8.617 -7.211 -8.178 0 2.022 -2.902 -3.517 2.198 2.55 3.869 3.693
4.38 0.7035 5.452 -3.649 -2.55 9.409 6.683 2.506 -4.66 -2.638 5.804 5.452 2.022 3.781 0.7035 7.123 4.836
4.385 6.595 16.53 2.77 0.7474 18.77 18.55 11.43 -0.6155 -3.605 6.155 10.73 5.188 3.078 -2.374 6.243 3.781
4.39 8.09 19.65 8.705 4.617 20.53 22.29 16.66 3.561 -1.363 3.254 11.17 5.804 2.11 -3.429 2.462 1.583
4.395 5.979 15.04 11.91 7.782 15.78 18.6 17.5 7.738 3.21 0.1759 8.266 5.452 3.078 -0.3517 -0.2638 0.08793
4.4 3.078 7.035 11.91 9.189 8.09 11.17 14.73 11.04 8.178 -0.1759 4.836 5.364 6.507 5.364 0.7035 0.5276
4.405 1.143 0 9.585 7.738 0.7914 3.473 9.277 11.74 11.3 2.55 2.726 5.716 10.29 9.497 5.1 2.638
4.41 0.2638 -5.012 4.924 3.473 -4.177 -2.77 2.286 9.101 10.77 6.155 1.407 4.836 12.22 9.497 9.497 5.364
4.415 -0.5276 -9.321 -2.506 -2.066 -6.023 -7.782 -5.232 3.781 5.979 7.826 -0.4397 1.583 10.64 5.452 10.29 6.859
4.42 -1.231 -13.72 -10.68 -6.507 -4.924 -11.91 -12.18 -2.506 -0.4836 6.419 -3.517 -3.693 4.836 -0.5276 6.243 5.54
4.425 -0.3517 -16.27 -15.08 -7.562 -1.891 -14.42 -16.8 -7.914 -4.66 3.254 -6.507 -8.617 -3.166 -5.54 -0.1759 1.847
4.43 3.605 -14.16 -12.79 -4.397 1.583 -13.37 -16.71 -10.24 -4.353 1.055 -6.947 -9.936 -8.881 -6.859 -5.012 -1.759
4.435 10.38 -6.771 -5.276 1.627 4.045 -7.738 -11.08 -8.574 -0.5716 0.9673 -3.781 -6.243 -8.617 -3.869 -5.716 -2.99
4.44 16.36 2.374 3.122 7.211 4.001 0.3957 -2.462 -4.045 4.309 1.231 0.9673 0.3517 -3.429 0.5276 -3.166 -1.935
4.445 17.59 8.222 8.442 9.277 1.055 6.947 4.485 0.6155 8.398 -0.8793 3.869 5.892 2.11 2.902 -0.1759 0
4.45 13.28 8.046 8.442 7.298 -3.122 8.925 6.859 3.473 9.717 -6.243 2.814 7.474 4.397 2.462 1.231 1.407
4.455 7.035 4.133 3.869 3.649 -6.067 6.463 4.924 4.177 7.211 -12.49 -1.319 5.452 2.726 0.1759 1.055 2.286
4.46 3.429 1.319 -1.759 1.011 -6.551 1.671 1.451 3.21 2.462 -16.27 -5.54 2.198 -1.319 -2.462 0.7914 2.902
4.465 4.309 2.418 -4.748 0.1319 -5.188 -2.99 -1.495 1.143 -1.363 -15.65 -7.386 0 -5.1 -4.66 1.583 3.429
4.47 7.562 5.408 -4.88 0 -3.517 -6.155 -3.649 -1.539 -2.682 -10.9 -6.507 -1.143 -6.859 -5.188 2.99 3.781
4.475 9.321 5.452 -5.056 -0.8793 -2.154 -7.65 -6.287 -4.88 -2.418 -4.133 -4.309 -2.638 -6.683 -3.869 3.869 3.254
4.48 7.211 -0.08793 -6.903 -3.21 -1.451 -8.266 -10.24 -8.705 -2.198 2.11 -2.55 -5.716 -6.683 -1.935 3.429 1.055
4.485 1.759 -8.925 -8.969 -6.067 -1.275 -8.354 -13.94 -12.18 -2.726 6.595 -1.407 -9.233 -7.914 -0.9673 2.374 -1.583
4.49 -3.341 -15.26 -9.013 -7.562 -1.055 -7.079 -13.89 -13.23 -4.221 9.585 0 -10.73 -8.266 -0.7914 2.286 -2.462
4.495 -5.188 -14.68 -6.639 -6.287 -0.3957 -3.913 -7.958 -10.2 -6.111 11.08 1.935 -8.53 -5.188 -0.2638 3.517 -0.1759
4.5 -3.254 -8.002 -3.034 -2.814 0.08793 -0.3517 0.9673 -4.221 -6.639 9.761 2.99 -4.309 0.08793 0.5276 4.573 3.693
4.505 0 -0.2198 0.1759 0.5276 -0.6595 0.7474 6.859 1.187 -4.089 4.397 0.8793 -1.143 4.133 1.143 3.254 6.155
4.51 2.198 3.561 1.583 2.242 -3.341 -1.759 5.584 3.385 0.7035 -4.221 -4.397 -1.495 4.133 1.407 -0.7914 5.188
4.515 2.638 2.506 0.7914 2.506 -6.727 -5.848 -1.099 2.462 5.012 -12.4 -9.849 -4.045 0.7914 1.671 -6.155 0.7914
4.52 2.11 0.08793 -0.1759 2.594 -9.189 -7.87 -7.167 0.6595 6.947 -16 -11.52 -5.804 -3.429 1.407 -10.29 -5.276
4.525 1.407 0.6595 1.231 3.341 -9.497 -5.232 -7.255 0.1319 6.595 -13.89 -8.178 -4.485 -6.595 0 -12.05 -11.17
4.53 1.407 5.452 5.056 4.792 -7.386 1.275 -0.8354 1.275 4.573 -8.178 -2.374 -1.143 -7.65 -1.847 -12.22 -15.3
4.535 2.286 11.74 8.046 6.331 -4.001 7.826 7.211 2.242 0.9233 -3.166 1.143 0.9673 -7.738 -3.341 -12.49 -17.23
4.54 3.957 15.3 7.782 7.167 -1.363 9.673 10.55 0.6595 -3.385 -2.198 -0.5276 -0.6155 -9.145 -4.924 -13.28 -17.15
4.545 6.155 14.29 4.748 6.903 -0.4397 5.408 6.771 -3.649 -6.331 -4.748 -5.979 -5.188 -11.7 -6.419 -13.37 -15.12
4.55 8.178 10.24 1.363 6.111 0.1319 -1.011 -0.1319 -7.298 -6.727 -6.771 -9.849 -9.145 -12.22 -6.507 -11.08 -10.82
4.555 9.585 6.463 -0.5276 5.672 3.078 -3.429 -3.473 -6.331 -4.836 -4.309 -7.65 -8.705 -7.474 -3.517 -6.155 -4.66
4.56 9.321 4.924 -0.2198 5.276 8.661 0.7035 -0.4397 -0.4836 -1.759 2.198 0.6155 -3.429 1.055 1.231 -0.6155 1.319
4.565 6.419 4.485 1.319 3.561 13.59 8.354 5.716 6.023 1.275 8.881 10.02 3.693 8.442 5.276 3.254 5.54
4.57 1.143 2.242 1.627 -0.2198 13.67 13.54 9.277 8.486 2.33 11.78 15.56 9.321 11.26 7.123 5.188 8.442
4.575 -4.748 -3.517 -1.627 -5.012 7.606 12.31 7.211 5.452 0.2198 10.29 15.12 11.61 9.673 6.507 6.947 11.7
4.58 -9.233 -11.08 -7.123 -8.661 -1.803 5.1 0.9673 -0.6155 -3.341 6.507 10.29 10.64 5.804 4.133 9.409 15.3
4.585 -11.08 -16.22 -10.55 -9.409 -9.717 -3.913 -5.188 -5.54 -5.144 2.55 3.605 6.859 1.935 0.9673 11.52 17.32
4.59 -10.38 -15.7 -9.189 -7.035 -12.49 -10.51 -8.09 -6.859 -4.089 -0.9673 -3.429 0.7035 -0.9673 -1.759 10.46 15.21
4.595 -8.09 -9.98 -4.573 -2.946 -10.42 -13.19 -8.046 -5.584 -2.374 -5.012 -10.73 -7.123 -3.605 -3.517 4.748 7.738
4.6 -5.804 -2.99 -0.2198 0.3078 -7.562 -13.81 -8.09 -5.276 -2.55 -9.936 -17.5 -15.04 -7.298 -5.54 -3.693 -3.429
4.605 -4.573 1.099 1.407 0.9233 -7.43 -14.42 -10.24 -7.782 -4.88 -13.37 -20.93 -19.52 -11.52 -8.178 -10.2 -13.98
4.61 -4.221 0.8793 0 -0.7914 -9.409 -14.03 -12.27 -10.9 -7.694 -11.52 -17.41 -17.76 -12.75 -9.409 -10.82 -18.99
4.615 -3.429 -1.671 -3.166 -2.99 -9.409 -9.717 -9.849 -10.55 -8.793 -2.99 -6.331 -9.673 -8.354 -6.595 -5.804 -16.97
4.62 -1.759 -3.21 -5.672 -4.001 -4.529 -0.8354 -1.803 -5.232 -6.331 8.09 7.826 0.8793 -0.2638 -0.1759 0.4397 -10.46
4.625 0 -1.803 -5.408 -3.869 4.001 9.057 7.738 2.242 -0.2198 14.68 17.76 8.705 6.771 6.771 2.99 -3.781
4.63 1.231 1.715 -2.946 -3.034 12.4 15.26 12.97 7.87 6.639 12.57 18.2 10.64 9.409 11.61 0.6155 0.5276
4.635 2.286 5.716 0 -1.451 17.28 15.26 10.95 9.629 10.42 3.517 10.2 7.738 8.266 12.75 -3.957 2.198
4.64 4.397 9.409 3.341 1.143 17.89 10.73 4.265 8.793 9.761 -6.419 -0.2638 3.693 5.364 9.497 -7.211 2.198
4.645 8.09 13.37 8.53 4.573 15.48 6.155 -0.9233 8.09 6.551 -11.34 -6.419 1.847 2.99 3.254 -7.035 1.671
4.65 12.05 17.19 14.95 7.518 11.87 5.804 0.5276 9.189 2.726 -8.705 -4.221 3.781 2.99 -2.55 -3.429 2.022
4.655 13.89 18.77 18.6 8.31 8.178 10.24 8.53 11.08 -0.8354 0 5.188 9.233 5.628 -5.188 2.638 4.397
4.66 10.99 15.21 15.65 5.496 4.617 16 17.06 10.95 -3.473 10.82 17.5 16.27 9.321 -3.957 10.73 9.321
4.665 3.078 6.111 6.419 -0.3957 1.451 18.51 19.17 7.43 -3.825 20.31 27.08 22.07 12.13 -0.1759 19.61 15.39
4.67 -6.419 -5.1 -4.968 -6.815 -0.1759 15.61 12.97 2.418 -1.891 25.94 29.72 23.92 13.54 4.66 26.2 20.31
4.675 -13.01 -13.19 -13.23 -10.2 0 8.178 2.638 -0.6595 0.7035 25.59 23.21 19.43 12.66 8.53 26.29 21.02
4.68 -13.98 -14.64 -14.6 -9.409 0.04397 -1.979 -6.023 -0.6595 2.594 17.41 8.354 7.914 7.914 8.793 17.23 15.48
4.685 -11.08 -10.6 -9.321 -5.979 -2.77 -13.19 -10.02 0.5716 3.385 2.11 -10.64 -7.738 -0.8793 4.397 1.671 5.188
4.69 -7.826 -5.804 -1.979 -2.286 -8.969 -22.86 -9.849 0.7914 3.034 -14.51 -26.73 -21.46 -10.29 -1.847 -12.75 -4.836
4.695 -6.419 -4.221 2.066 0.3517 -14.99 -27.79 -7.782 -0.3517 1.891 -24.8 -33.24 -27 -15.12 -6.067 -18.55 -10.2
4.7 -6.771 -5.892 1.715 1.891 -16.44 -25.68 -5.716 -1.407 1.231 -24.09 -27.79 -21.9 -13.37 -6.507 -13.63 -9.673
4.705 -7.298 -7.782 0 2.462 -12 -16.8 -3.561 -0.8354 2.066 -13.89 -13.98 -9.761 -7.035 -4.397 -2.726 -5.804
4.71 -6.947 -7.298 -0.4397 2.154 -4.177 -4.001 0 1.539 3.21 -0.9673 1.495 3.166 0 -1.847 6.771 -2.11
4.715 -5.979 -4.704 0.1759 1.099 2.682 8.222 5.276 4.221 2.374 8.442 12.75 11.87 4.748 -0.4397 10.38 -0.1759
4.72 -5.54 -2.154 0.6155 -0.2638 5.628 15.92 10.29 5.232 -0.3957 11.52 17.67 14.86 5.892 -0.7914 9.321 0.2638
4.725 -5.716 -0.4836 1.143 -0.8793 4.88 17.45 11.96 4.221 -2.594 10.38 17.67 13.98 4.748 -1.935 7.65 0.6155
4.73 -4.66 1.539 2.902 0.7035 3.517 14.77 9.761 3.166 -1.979 8.705 15.3 11.96 4.397 -1.319 8.354 2.198
4.735 -0.7035 5.892 6.023 4.441 4.177 11.21 6.023 4.177 0.7914 8.881 12.22 10.02 6.155 1.759 10.55 4.485
4.74 5.54 12.05 9.365 7.914 6.551 9.013 3.693 6.815 3.913 9.849 9.145 7.826 8.354 5.54 10.82 5.979
4.745 10.64 16.8 10.99 7.958 8.442 8.486 4.133 8.354 5.804 9.849 6.507 5.012 8.617 7.298 7.298 5.716
4.75 11.52 16.62 8.969 3.781 8.617 8.925 6.507 7.035 5.54 8.53 4.836 2.198 6.947 6.507 1.055 4.133
4.755 8.09 10.99 3.254 -1.935 7.65 9.101 8.53 3.561 3.254 6.507 4.221 0.5276 4.66 4.748 -4.748 2.11
4.76 2.726 3.254 -2.726 -5.496 6.155 6.991 7.606 0.04397 0.5716 3.429 2.55 -0.3517 2.374 2.374 -8.793 -0.3517
4.765 -1.407 -2.198 -4.66 -5.056 3.737 0.9233 2.506 -2.022 -0.6155 -1.847 -2.55 -2.286 -0.7914 -0.5276 -11.52 -3.781
4.77 -2.638 -3.385 -1.539 -1.627 0.04397 -8.09 -5.056 -2.418 -0.6155 -8.969 -10.73 -5.804 -4.485 -3.341 -13.98 -7.211
4.775 -0.6155 -1.627 3.561 2.066 -3.649 -16.09 -11.21 -1.539 -0.6155 -15.12 -18.03 -9.497 -6.595 -4.485 -15.65 -8.617
4.78 3.341 0.8793 7.342 3.781 -5.364 -18.29 -12.4 0 -0.3517 -16.8 -19.17 -10.11 -5.364 -3.429 -14.6 -6.595
4.785 7.826 3.473 9.233 2.99 -4.089 -12.79 -7.694 2.198 1.803 -12.93 -12.4 -5.716 -0.8793 -0.2638 -9.497 -1.495
4.79 11.34 6.463 9.849 1.143 -0.8793 -1.803 0.9673 5.056 5.804 -5.892 -1.055 1.935 5.364 4.133 -1.583 4.924
4.795 12.57 9.585 9.233 -0.08793 1.451 9.145 9.365 7.562 9.057 0.2638 8.442 8.705 10.11 8.354 5.979 9.936
4.8 10.2 11.12 7.123 -0.2638 0.8793 14.68 12.79 7.211 9.321 3.078 11.87 10.73 9.761 9.761 10.73 11.52
4.805 4.133 9.057 4.089 0.04397 -1.627 13.45 9.321 2.55 6.639 3.781 10.29 8.178 4.221 7.386 12.4 9.585
4.81 -3.341 3.605 0.9673 0.7035 -2.418 9.321 1.979 -4.221 2.682 6.243 8.705 5.012 -2.022 3.429 13.63 6.331
4.815 -8.53 -2.682 -1.671 1.671 1.099 7.211 -3.341 -8.705 -0.8354 12.13 11.08 5.892 -4.133 0.4397 16.27 3.869
4.82 -9.673 -6.727 -3.561 2.198 7.035 8.178 -3.298 -8.31 -2.858 17.94 15.65 10.73 -1.671 -1.407 18.99 2.198
4.825 -8.09 -7.562 -5.144 0.7035 9.541 8.266 0 -4.792 -3.385 17.59 16.53 14.6 1.055 -3.957 17.94 -0.2638
4.83 -7.211 -7.035 -8.002 -3.122 4.88 3.473 1.187 -2.55 -4.177 8.53 9.233 11.96 -0.08793 -7.386 10.02 -4.66
4.835 -8.53 -7.298 -12.93 -7.386 -4.88 -5.979 -3.605 -4.485 -6.551 -5.54 -4.133 1.671 -5.716 -10.11 -3.341 -10.29
4.84 -10.9 -8.398 -17.02 -9.013 -13.45 -15.3 -13.06 -9.541 -8.881 -16.97 -16.36 -10.82 -12.31 -10.46 -16.71 -15.04
4.845 -11.78 -8.442 -15.43 -6.595 -15.61 -18.73 -20.97 -13.01 -8.134 -19.43 -20.05 -17.32 -14.77 -7.826 -23.21 -16.09
4.85 -9.673 -6.375 -7.386 -1.671 -10.77 -14.11 -20.44 -10.29 -3.781 -12.4 -13.01 -12.93 -9.761 -2.814 -19.7 -12.13
4.855 -5.276 -3.869 2.242 2.066 -3.341 -5.012 -9.936 -1.407 0.9233 -1.231 -0.4397 -0.3517 0.8793 2.638 -8.969 -4.66
4.86 -1.495 -3.561 7.035 1.935 1.363 1.583 4.001 7.958 2.726 6.419 8.793 11.17 9.761 5.276 1.495 1.935
4.865 -0.08793 -6.111 4.792 -1.715 1.275 1.011 11.43 10.73 0.9233 5.979 8.266 12.75 9.936 3.429 5.188 3.078
4.87 -0.08793 -8.661 -1.495 -4.968 -1.187 -5.408 7.079 4.529 -2.902 -1.759 -1.671 2.374 0.5276 -1.231 0.2638 -2.198
4.875 1.407 -7.255 -6.903 -4.265 -2.198 -11.74 -5.496 -6.595 -6.639 -11.78 -14.86 -13.54 -12.57 -5.452 -8.969 -10.9
4.88 5.716 -0.7035 -7.65 0.08793 -0.3957 -12.97 -17.41 -15.7 -8.134 -18.64 -23.65 -25.32 -21.9 -7.738 -15.83 -17.94
4.885 10.46 7.87 -4.045 4.221 2.11 -8.53 -21.1 -17.94 -6.463 -19.26 -23.74 -26.2 -22.77 -7.65 -15.65 -19.26
4.89 12.31 13.28 -0.1319 4.836 2.902 -1.451 -14.9 -12.66 -2.77 -13.54 -15.56 -16.8 -14.77 -4.924 -8.705 -14.07
4.895 9.761 12.75 0.4836 2.638 1.803 4.529 -3.341 -3.429 0.6595 -3.605 -3.517 -3.341 -2.022 0.1759 0.8793 -5.276
4.9 4.397 7.958 -1.231 0.8354 0.5276 7.255 6.463 4.748 3.122 6.331 6.683 6.595 8.442 5.452 8.09 2.198
4.905 -0.5276 3.21 -1.275 1.627 0.7474 6.859 10.29 8.442 4.836 12.84 11.61 9.233 11.7 7.914 10.11 5.54
4.91 -2.638 0.8793 2.022 4.089 2.77 5.232 9.057 7.562 5.32 14.42 10.9 5.364 8.266 6.507 7.562 5.276
4.915 -2.022 -0.1319 6.023 5.364 5.144 4.177 6.859 4.836 3.473 12.22 6.771 -1.231 2.638 3.166 2.99 4.133
4.92 -1.495 -2.506 7.474 3.825 5.716 3.693 6.419 2.902 0.3078 8.266 1.847 -7.298 -0.7914 0.2638 -1.583 4.309
4.925 -4.045 -7.123 6.331 0.8793 2.726 2.682 7.474 3.078 -1.143 3.693 -2.198 -10.99 -0.3517 0.2638 -5.188 5.979
4.93 -9.673 -12 4.748 -0.3517 -3.122 0.7914 8.617 5.232 0.7474 -0.5276 -4.836 -11.78 3.517 4.133 -7.474 8.442
4.935 -15.12 -14.73 4.001 1.451 -9.013 -1.319 9.013 7.826 4.441 -4.045 -6.067 -9.761 8.793 9.761 -7.826 10.46
4.94 -16.88 -14.6 3.561 3.957 -12.13 -3.473 8.354 8.31 6.947 -6.771 -6.419 -5.804 11.78 12.4 -6.595 10.82
4.945 -13.54 -13.23 2.11 3.693 -11.34 -5.804 6.419 5.012 6.375 -8.881 -6.683 -2.11 9.849 8.617 -4.748 8.793
4.95 -6.771 -12.22 -0.9233 0.4397 -7.782 -8.178 3.473 -1.055 2.77 -10.64 -7.386 -0.7914 3.605 0.4397 -4.221 4.66
4.955 0.08793 -11.08 -4.001 -1.759 -4.177 -9.893 0.3078 -6.639 -2.066 -12.49 -8.881 -2.902 -3.781 -7.123 -6.067 -0.5276
4.96 4.221 -7.65 -3.561 0.4836 -3.034 -10.24 -2.374 -8.837 -5.496 -14.51 -10.9 -7.211 -10.11 -10.9 -9.497 -5.364
4.965 4.924 -1.099 1.627 5.936 -4.704 -8.705 -4.133 -7.342 -6.023 -15.92 -11.96 -10.64 -13.45 -10.55 -11.7 -7.562
4.97 4.045 6.155 7.211 8.837 -6.111 -5.012 -4.221 -3.869 -5.364 -13.81 -10.02 -10.2 -12.05 -7.738 -9.936 -5.364
4.975 4.309 9.541 6.067 4.529 -3.21 0.2198 -2.902 -0.7474 -6.287 -6.419 -4.133 -5.188 -5.979 -4.485 -3.781 0.6155
4.98 6.067 6.375 -3.385 -5.54 4.045 4.748 -1.847 0.4836 -8.749 4.573 3.517 1.495 1.671 -2.374 3.693 6.771
4.985 7.035 -1.407 -14.55 -14.42 10.77 5.804 -2.55 0 -9.585 13.63 9.233 6.155 6.683 -1.847 8.617 8.881
4.99 5.012 -8.354 -18.16 -14.68 11.04 2.682 -4.529 -0.6595 -6.903 15.65 9.673 6.771 6.771 -1.583 8.617 5.452
4.995 0.4397 -9.365 -10.77 -5.584 3.385 -2.594 -5.496 -0.6595 -2.682 9.849 5.012 4.485 2.902 -1.055 5.012 -1.319
5 -3.254 -3.429 2.418 5.452 -6.903 -6.771 -4.177 -0.7914 -0.08793 0.3517 -1.407 2.11 -2.11 -1.055 1.143 -7.298
5.005 -3.078 5.584 11.61 9.233 -11.91 -6.947 -1.495 -2.726 -0.6155 -6.331 -5.012 1.583 -5.364 -2.198 -0.1759 -9.409
5.01 1.495 12.27 9.233 2.814 -6.771 -2.286 0.7035 -6.375 -3.254 -6.155 -3.254 2.99 -4.66 -3.078 1.407 -7.123
5.015 7.298 12.88 -3.605 -7.826 5.584 5.32 1.143 -9.805 -5.584 0 2.638 4.66 -0.6155 -2.198 3.693 -2.902
5.02 9.673 7.782 -17.72 -14.11 16.18 11.78 -0.2198 -11.12 -5.364 6.419 8.53 4.748 2.99 -0.4397 4.133 -0.1759
5.025 6.243 0.4836 -22.82 -12.13 16.97 13.06 -2.33 -9.98 -2.242 7.65 10.11 2.638 3.166 -0.1759 1.407 -0.3517
5.03 -0.08793 -4.924 -16.53 -4.924 7.958 8.398 -3.517 -6.815 1.275 2.814 6.419 -0.7914 0.4397 -1.407 -3.254 -1.935
5.035 -3.429 -6.155 -5.1 1.099 -3.078 0.4836 -3.385 -2.506 2.418 -4.133 -0.2638 -3.957 -1.583 -2.462 -7.474 -2.726
5.04 -0.08793 -3.166 3.517 2.154 -7.65 -6.551 -3.166 1.847 1.671 -8.881 -6.507 -5.804 -1.055 -1.671 -9.145 -1.935
5.045 8.002 2.198 6.419 -0.7474 -3.693 -9.893 -4.089 5.232 1.847 -9.321 -9.497 -6.067 1.143 0.9673 -7.826 -0.7035
5.05 15.39 7.386 5.276 -3.649 3.825 -8.574 -5.408 6.903 3.649 -6.243 -8.442 -4.573 3.166 4.133 -4.221 0
5.055 16.88 9.541 2.858 -3.957 7.826 -4.045 -5.012 6.507 4.617 -1.847 -4.309 -1.231 3.781 5.276 0.3517 0.4397
5.06 11.17 7.342 0.8354 -2.594 4.441 0.3517 -2.022 4.045 2.55 1.319 0.7035 3.078 2.462 2.638 4.397 0.9673
5.065 1.407 1.539 -0.3957 -1.803 -4.397 1.407 1.803 0.6155 -1.143 2.55 4.573 6.947 0.4397 -2.638 6.947 2.022
5.07 -7.211 -5.012 -1.143 -1.539 -12.75 -1.275 3.869 -1.495 -3.385 2.374 6.155 8.266 -0.4397 -6.683 7.914 3.254
5.075 -10.64 -8.661 -1.055 0.3517 -14.77 -5.232 2.682 -0.7474 -2.33 2.022 5.364 6.243 0.08793 -6.243 7.562 3.869
5.08 -7.738 -6.991 1.011 4.573 -9.145 -6.683 -0.8793 1.627 1.187 2.022 3.341 1.495 0.08793 -2.99 6.331 2.99
5.085 -1.231 -0.6595 5.1 8.486 0.9673 -3.517 -4.441 2.638 4.001 2.286 1.495 -3.693 -2.462 -0.7035 4.397 0.7914
5.09 4.924 6.727 7.914 8.222 10.86 3.561 -5.32 0.3078 2.594 2.814 0.7914 -6.859 -6.683 -1.231 1.759 -0.9673
5.095 7.562 10.77 5.188 3.034 16.53 10.95 -3.254 -4.309 -3.254 3.078 1.407 -6.683 -9.409 -3.078 -1.055 -1.495
5.1 5.628 9.189 -2.814 -3.429 15.65 13.76 -0.7914 -8.53 -9.057 2.022 1.847 -4.397 -9.585 -3.693 -3.957 -1.583
5.105 0.4397 3.385 -10.82 -6.111 8.486 9.497 -1.143 -9.936 -9.321 -1.055 0.6155 -2.286 -8.53 -2.198 -6.243 -2.99
5.11 -4.836 -2.946 -13.28 -2.726 -1.363 0.6595 -4.66 -8.046 -3.957 -5.012 -2.022 -1.583 -7.562 0.7035 -7.035 -5.716
5.115 -7.123 -6.727 -9.849 3.473 -8.31 -6.683 -8.266 -4.397 1.715 -7.211 -4.397 -1.583 -6.507 3.341 -5.452 -7.65
5.12 -6.067 -7.167 -4.485 6.287 -8.442 -7.87 -8.617 -1.099 2.814 -5.54 -4.133 -0.4397 -4.748 3.605 -1.847 -6.771
5.125 -3.869 -5.276 -1.495 2.198 -2.418 -2.99 -4.748 0.7474 -0.4836 -0.6155 -0.9673 2.198 -1.671 1.671 2.374 -2.99
5.13 -2.726 -2.33 -1.847 -5.76 5.012 3.517 1.539 2.286 -4.309 5.012 2.814 5.188 2.374 0 5.54 1.231
5.135 -2.462 1.231 -2.594 -10.64 8.354 6.551 7.035 4.836 -4.968 7.914 4.397 6.067 5.452 0.3517 5.979 2.902
5.14 -1.583 5.408 0.3517 -8.222 4.88 3.298 9.013 7.694 -1.759 6.243 1.935 3.605 4.573 0.9673 3.166 0.3517
5.145 0.4397 8.661 8.002 -1.099 -3.385 -4.485 6.771 8.705 2.77 1.759 -3.078 -0.8793 -0.8793 -0.5276 -0.8793 -4.133
5.15 1.847 7.738 15.04 4.221 -10.64 -11.39 2.286 6.463 4.748 -1.407 -6.155 -3.605 -6.859 -3.605 -3.078 -5.979
5.155 0.5276 0.8793 14.29 3.649 -11.17 -12.05 -1.627 1.935 2.594 0.5276 -3.605 -1.847 -8.442 -5.364 -1.055 -2.198
5.16 -3.781 -9.145 4.748 -1.363 -4.089 -5.452 -3.561 -2.55 -0.9233 6.947 3.957 3.869 -4.573 -4.045 4.485 5.188
5.165 -7.914 -15.12 -6.111 -5.188 6.419 4.88 -3.385 -4.792 -1.451 13.19 12.22 9.673 1.495 -0.5276 9.936 10.9
5.17 -7.298 -10.42 -9.233 -3.078 14.55 14.38 -1.011 -3.561 2.11 14.42 15.65 11.52 6.331 3.429 11.43 11.08
5.175 -0.08793 4.836 -1.627 4.309 16.66 19.61 3.649 0.9673 6.815 9.585 12.4 8.881 8.881 6.331 7.562 6.507
5.18 9.409 22.29 11.34 11.48 12.66 19.7 9.453 6.947 9.673 1.847 5.452 4.66 10.02 7.211 0.8793 1.319
5.185 13.98 30.43 20.88 12.97 5.364 15.61 13.72 11.74 10.33 -3.517 0.08793 2.726 10.9 6.595 -4.397 -0.4397
5.19 9.849 23.3 20.49 8.442 -1.055 9.717 13.76 13.28 9.629 -3.078 -0.2638 4.133 11.34 5.979 -5.54 1.759
5.195 0.5276 5.32 10.68 2.198 -3.693 4.133 8.925 10.86 7.826 2.11 2.902 6.243 9.585 5.188 -3.166 4.748
5.2 -6.683 -11.96 -1.495 -1.275 -2.682 -0.9673 0.6155 4.573 4.88 6.947 4.924 4.924 3.254 2.198 -0.6155 4.485
5.205 -7.65 -19.39 -8.53 -1.671 -1.143 -6.639 -8.046 -3.693 1.143 6.507 1.407 -1.407 -6.419 -3.605 -0.8793 0.08793
5.21 -4.573 -16.66 -8.793 -1.363 -2.286 -13.23 -13.67 -10.64 -2.55 0.08793 -7.035 -10.02 -14.16 -9.321 -3.429 -5.012
5.215 -2.99 -11.04 -6.199 -2.242 -6.991 -19.39 -14.16 -12.71 -4.968 -8.178 -15.65 -15.56 -14.25 -10.73 -5.54 -6.331
5.22 -6.243 -9.717 -4.089 -3.385 -13.32 -22.73 -10.07 -8.793 -4.177 -13.54 -19.08 -14.6 -6.947 -7.123 -5.1 -3.078
5.225 -11.96 -13.06 -1.407 -2.022 -17.72 -21.06 -3.385 -1.099 0.2638 -13.54 -15.3 -8.002 2.286 -1.671 -2.55 2.022
5.23 -14.51 -15.48 4.001 2.946 -16.84 -13.67 4.133 6.727 5.672 -9.057 -6.859 0.2638 8.178 1.935 0.1759 5.628
5.235 -10.38 -11.74 10.95 8.969 -9.936 -2.286 11.39 11.48 8.046 -3.254 1.583 6.243 9.057 2.286 1.143 6.243
5.24 -2.198 -2.638 14.77 10.68 -0.1759 8.266 16 11.08 6.111 0.9673 6.243 8.002 6.419 0.2638 0.1759 4.66
5.245 3.429 5.628 11.34 5.144 7.43 13.37 15.04 5.76 2.594 2.638 5.892 5.804 3.166 -1.231 -1.671 2.462
5.25 3.341 7.606 1.055 -4.309 9.849 11.3 7.65 -1.803 0.7474 1.935 1.935 1.055 1.319 0.08793 -3.517 0.2638
5.255 0.1759 3.869 -10.07 -10.02 7.606 4.617 -2.99 -7.606 1.539 -0.08793 -3.605 -4.836 0.7035 4.221 -5.452 -2.462
5.26 -0.5276 0.1319 -13.59 -6.463 3.385 -2.242 -11.34 -8.617 4.133 -3.078 -8.53 -10.11 -0.2638 7.914 -7.738 -6.507
5.265 2.99 1.275 -5.496 4.485 -0.04397 -5.584 -12.53 -4.441 6.947 -5.716 -10.73 -12.4 -1.759 8.617 -9.233 -10.29
5.27 7.738 6.023 8.266 14.77 -1.055 -3.649 -5.848 2.594 7.87 -5.364 -7.386 -8.969 -0.8793 7.123 -6.771 -10.46
5.275 8.969 8.661 15.96 16.27 0.5716 2.946 4.792 8.574 5.54 0.4397 2.638 1.055 4.221 6.067 1.407 -5.276
5.28 4.748 4.836 10.42 7.035 3.649 11.34 12.71 9.365 0.7474 10.99 16.71 14.25 11.17 5.716 13.37 2.814
5.285 -2.198 -3.429 -4.529 -7.123 6.023 17.59 13.41 3.825 -4.089 21.28 28.4 24.09 14.42 4.309 23.13 8.969
5.29 -7.123 -9.761 -18.2 -16.88 6.023 18.42 8.046 -4.66 -7.562 25.06 30.51 24.97 10.73 0.5276 24.97 9.497
5.295 -7.123 -9.101 -21.68 -16.27 3.078 12.44 1.759 -10.33 -9.629 18.91 20.05 15.83 2.374 -4.836 17.15 4.573
5.3 -3.693 -2.462 -13.59 -7.079 -2.374 0.4836 -1.143 -9.321 -10.07 4.748 0.8793 0.8793 -5.628 -10.02 3.429 -2.022
5.305 -0.2638 4.309 0.3078 3.429 -8.749 -13.67 -0.4397 -2.286 -8.222 -10.82 -18.2 -12.49 -8.617 -12.57 -9.409 -6.243
5.31 1.583 6.639 11.96 9.145 -13.15 -23.61 1.891 6.903 -4.573 -20.58 -28.4 -18.73 -4.836 -10.46 -15.92 -5.716
5.315 3.781 5.188 16.84 9.233 -12.84 -23.65 4.397 14.25 -0.7914 -20.84 -26.03 -16.53 2.99 -4.309 -14.95 -1.495
5.32 7.474 4.836 16.8 6.771 -7.958 -13.32 6.683 17.37 2.33 -13.72 -14.42 -8.705 9.409 2.902 -9.585 2.902
5.325 11.08 8.881 16.14 4.88 -1.539 2.11 8.881 16.09 5.1 -4.66 -0.7035 0.2638 10.64 7.914 -3.341 4.924
5.33 10.9 14.9 15.39 4.001 3.078 14.99 10.29 12.05 7.342 2.638 9.585 7.474 7.211 10.02 1.935 4.309
5.335 5.276 16.75 10.99 2.462 4.66 20.31 9.321 6.815 7.914 7.474 15.04 11.87 2.638 10.29 6.507 2.55
5.34 -3.254 10.9 1.011 -0.8793 4.353 18.33 4.704 0.8354 6.419 10.82 17.06 13.28 -1.407 8.881 10.11 0.5276
5.345 -9.321 0.7035 -10.51 -5.056 4.177 13.45 -2.154 -5.408 3.781 12.66 16.97 11.61 -5.54 5.364 11.43 -1.935
5.35 -8.266 -5.76 -16.62 -6.771 5.496 10.6 -6.947 -10.16 0.7035 11.78 14.42 6.859 -9.497 0.6155 8.793 -4.573
5.355 0.08793 -2.814 -13.54 -3.957 7.87 11.26 -5.848 -11.04 -2.726 6.683 8.354 0 -11.87 -3.693 1.847 -6.595
5.36 10.46 7.43 -3.825 1.451 9.057 12.44 0.1319 -7.914 -6.023 -2.11 -0.7035 -6.859 -11.61 -6.595 -6.947 -7.123
5.365 15.83 16.58 5.452 4.924 6.903 10.07 5.144 -3.429 -7.914 -11.78 -9.936 -11.08 -8.793 -7.65 -13.63 -5.628
5.37 12.57 16.4 7.386 3.429 1.847 3.21 3.913 -0.8793 -8.002 -17.5 -15.12 -11.17 -4.397 -6.507 -14.42 -2.022
5.375 2.99 5.804 0.5716 -1.803 -3.298 -4.968 -3.693 -1.583 -7.211 -16.53 -14.25 -8.002 0 -3.429 -8.969 2.814
5.38 -7.386 -8.442 -9.101 -7.035 -6.199 -11.08 -12.75 -4.573 -6.023 -10.02 -9.145 -3.781 2.374 -0.3517 0 7.298
5.385 -13.45 -18.07 -13.67 -9.189 -6.595 -14.38 -17.32 -7.167 -4.441 -2.374 -4.045 -0.7914 2.55 0.8793 8.178 10.11
5.39 -13.72 -19.52 -10.6 -8.354 -5.848 -16.62 -15.04 -6.771 -2.99 2.638 -2.022 0.6155 2.902 0.6155 13.01 11.26
5.395 -9.673 -16.27 -4.66 -6.727 -5.496 -19.65 -8.53 -2.814 -2.77 4.309 -2.55 1.935 5.804 0.3517 14.25 11.34
5.4 -4.924 -13.89 -2.066 -6.507 -5.979 -22.95 -3.385 2.55 -2.77 4.221 -2.99 4.397 10.2 0.9673 13.28 10.02
5.405 -2.022 -14.2 -3.781 -7.123 -6.639 -23.39 -2.902 6.331 -0.5276 4.397 -0.8793 7.914 12.57 2.286 11.52 7.035
5.41 -0.9673 -13.89 -5.716 -5.364 -5.628 -17.5 -5.012 7.167 5.056 5.804 3.957 10.9 10.99 4.748 9.409 2.462
5.415 0.4397 -8.31 -3.298 1.319 -1.539 -4.924 -4.617 6.155 11.96 7.65 9.233 12.05 6.595 7.826 6.595 -2.286
5.42 3.693 3.21 4.441 11.3 4.748 9.805 0.7035 4.924 16.97 8.442 12.49 10.9 2.022 9.673 2.55 -6.067
5.425 7.562 15.7 14.07 19.13 10.77 20.36 8.705 4.089 17.81 7.123 12.57 8.442 -0.4397 8.617 -1.759 -7.65
5.43 9.673 22.47 19.35 19.74 14.2 23.26 14.77 3.825 13.76 4.836 10.82 6.243 0.3517 5.364 -4.748 -6.507
5.435 8.53 20.66 16.27 12.75 14.47 19.83 16.14 3.957 6.067 2.902 8.793 4.573 3.517 2.374 -5.1 -3.429
5.44 4.748 13.5 7.035 2.198 11.96 13.98 13.1 3.781 -1.803 1.847 6.859 2.902 5.54 0.6155 -3.429 -0.5276
5.445 0.5276 6.683 -1.979 -6.639 7.298 8.793 7.87 2.374 -6.375 0.8793 4.221 0.1759 3.693 0.08793 -1.319 0.4397
5.45 -1.935 2.902 -6.683 -10.6 1.539 5.012 2.638 -0.4836 -7.342 -0.08793 1.055 -3.166 -1.583 0.1759 -0.1759 -0.4397
5.455 -2.286 0.04397 -8.354 -9.98 -3.693 1.847 -2.198 -4.617 -7.474 -0.4397 -1.495 -5.628 -7.914 0.1759 0 -2.022
5.46 -1.935 -5.012 -9.761 -7.914 -7.211 -1.495 -7.386 -9.453 -8.617 0.3517 -2.198 -6.155 -13.28 -1.055 -0.08793 -3.166
5.465 -2.462 -11.52 -11.04 -6.859 -8.134 -4.265 -12.27 -13.63 -10.07 1.583 -1.143 -5.188 -16.8 -3.605 -0.08793 -3.957
5.47 -3.078 -13.81 -9.717 -6.507 -6.111 -4.089 -13.23 -14.55 -10.42 1.671 0.08793 -4.133 -17.32 -5.628 -0.3517 -4.573
5.475 -1.143 -6.419 -4.089 -4.66 -1.495 0.6155 -6.551 -9.98 -9.101 -0.4397 -0.2638 -3.781 -13.45 -5.276 -1.495 -5.188
