    T[sec] F7  F3  F4  F8  T3  C3  Cz  C4  T4  T5  P3  Pz  P4  T6  O1  O2 
41 46.02 46.02 46.02 46.02 46.02 46.02 46.02 46.02 45.02 46.02 45.02 45.02 45.02 46.02 46.02 46.02
0 -19.87 -13.03 -9.079 -9.708 -12.49 -10.7 -4.854 0.5393 4.485 6.921 3.341 6.155 13.37 22.74 16.18 25.35
0.005 -16.63 -13.39 -16.54 -16.63 -9.888 -11.78 -9.348 -4.404 4.221 8.09 0.4397 1.319 8.178 18.61 11.24 19.15
0.01 -9.348 -10.61 -18.97 -19.6 -5.663 -11.24 -11.24 -7.191 1.231 7.82 -3.166 -4.66 1.319 10.79 4.315 10.34
0.015 -3.955 -7.82 -15.73 -16.99 -5.933 -11.87 -10.88 -8.449 -4.309 3.685 -7.914 -10.82 -6.331 1.348 -4.045 1.618
0.02 -2.427 -6.292 -8.899 -10.07 -11.69 -13.84 -9.348 -9.169 -9.585 -4.854 -12.93 -15.83 -12.66 -5.573 -13.93 -5.843
0.025 -2.247 -4.944 -1.708 -1.618 -17.35 -14.74 -7.191 -8.899 -11.7 -15.28 -16.97 -18.64 -15.04 -7.461 -24.72 -12.67
0.03 1.079 -1.798 3.596 5.124 -15.91 -11.69 -4.584 -7.191 -10.46 -23.82 -18.73 -19.7 -13.54 -6.382 -35.06 -20.31
0.035 8.629 2.697 6.112 8.539 -6.562 -4.854 -2.157 -4.674 -7.826 -27.69 -17.76 -20.05 -11.26 -7.371 -41.89 -28.85
0.04 16.36 5.933 5.573 8.18 4.584 2.157 -0.6292 -3.056 -6.507 -26.34 -14.68 -20.31 -10.73 -12.94 -42.43 -35.51
0.045 18.79 4.854 2.427 4.494 10.25 5.303 -0.2697 -3.146 -7.826 -21.21 -11.34 -19.87 -11.52 -19.6 -35.78 -35.87
0.05 14.2 -0.08989 -1.798 -0.5393 7.82 3.146 -0.5393 -3.506 -9.761 -14.29 -8.266 -16.97 -10.73 -21.3 -23.73 -27.51
0.055 7.011 -4.764 -5.393 -4.225 0.9888 -1.798 -0.3596 -1.978 -8.53 -7.551 -4.836 -10.64 -5.892 -15.19 -9.348 -12.4
0.06 3.865 -4.674 -6.112 -4.225 -4.135 -5.213 1.348 2.697 -2.902 -1.438 0.4397 -1.319 3.166 -3.596 4.404 4.674
0.065 6.831 0.4494 -3.416 -0.9888 -4.225 -4.225 5.213 9.438 3.781 4.404 8.002 8.969 13.89 8.18 16.54 19.15
0.07 11.6 6.382 0.5393 2.247 -0.5393 0.1798 10.25 15.1 7.65 10.61 16.36 17.85 22.42 16 26.61 28.76
0.075 11.96 7.551 2.337 2.067 2.427 4.494 14.29 16.72 8.178 16.09 22.86 22.69 25.76 18.79 33.89 33.26
0.08 5.843 1.978 -0.3596 -2.157 1.888 5.213 15.37 13.66 7.738 19.6 24.8 22.6 24.18 18.7 36.49 33.62
0.085 -2.607 -6.921 -6.112 -8 -0.809 2.157 12.85 8.36 7.738 20.31 21.37 18.2 19.96 18.07 33.17 31.01
0.09 -7.82 -13.66 -10.7 -11.24 -3.056 -2.337 8.27 3.955 7.738 18.61 14.25 11.17 15.56 17.44 24.45 25.98
0.095 -7.281 -14.65 -10.88 -10.07 -3.506 -5.483 3.326 1.348 6.419 15.37 6.331 3.429 11.43 15.64 13.21 19.15
0.1 -3.506 -10.79 -7.101 -5.843 -2.966 -6.292 -0.08989 0 3.078 10.97 0 -3.078 7.386 11.87 2.966 11.87
0.105 -0.3596 -5.573 -2.517 -1.978 -2.876 -5.303 -1.169 -0.8989 -2.022 5.753 -4.221 -7.123 3.781 7.191 -4.135 6.022
0.11 1.258 -1.348 -0.08989 -0.7191 -3.326 -3.685 0.1798 -1.079 -7.211 0 -6.683 -8.266 1.143 2.697 -7.91 1.888
0.115 4.045 2.067 -0.2697 -1.348 -3.955 -2.427 2.517 -0.1798 -9.409 -5.573 -7.386 -7.211 -0.7035 -1.438 -9.888 -1.708
0.12 9.798 6.202 -0.809 -1.438 -3.865 -1.079 4.404 1.438 -7.035 -9.888 -6.331 -5.628 -2.55 -5.663 -11.24 -5.843
0.125 16.27 10.88 1.348 0.9888 -1.438 1.258 5.393 3.056 -1.583 -11.69 -3.605 -4.924 -4.573 -9.978 -12.49 -10.43
0.13 18.97 13.84 6.742 5.753 4.584 5.034 6.292 3.506 3.517 -10.79 -0.5276 -5.892 -6.771 -13.93 -13.57 -14.38
0.135 15.73 12.85 12.94 10.88 13.84 8.719 7.011 2.247 5.452 -8.539 1.407 -8.354 -9.409 -17.62 -14.56 -17.08
0.14 9.348 8 16.54 14.11 22.47 10.07 7.011 0 3.166 -6.022 0.9673 -11.43 -11.61 -20.04 -15.55 -18.34
0.145 4.584 2.517 16.09 14.02 25.8 8.18 5.573 -1.169 -2.55 -3.326 -1.583 -13.72 -12.13 -20.31 -16.18 -18.07
0.15 4.225 0 12.85 11.06 21.21 4.404 2.517 -0.5393 -9.233 0.1798 -4.221 -13.72 -10.29 -17.98 -15.1 -16.18
0.155 7.101 1.978 8.629 6.652 10.61 1.079 -0.9888 0.809 -13.19 4.404 -4.485 -10.73 -7.123 -13.84 -10.79 -12.58
0.16 9.798 6.292 4.854 2.427 -0.6292 0.08989 -3.596 1.079 -12.75 8.18 -1.495 -4.748 -3.957 -8.899 -2.427 -6.831
0.165 10.16 8.539 1.618 -0.5393 -7.191 0.809 -4.584 -0.9888 -9.673 10.43 3.166 3.166 -1.319 -3.506 8.629 0.5393
0.17 8.27 5.753 -1.258 -2.337 -7.82 0.8989 -4.584 -4.404 -6.683 10.88 6.507 10.46 0.7035 2.247 19.15 7.91
0.175 4.764 -1.528 -4.045 -3.416 -6.022 -1.528 -5.483 -7.371 -4.485 9.618 6.507 14.51 1.935 8 25.53 13.03
0.18 0 -9.348 -6.742 -4.404 -5.663 -6.202 -8.09 -8.36 -2.374 7.82 3.429 13.89 2.638 12.76 26.43 15.37
0.185 -6.652 -13.93 -9.079 -6.112 -6.921 -9.708 -10.43 -6.921 -0.3517 6.921 0.08793 10.2 3.517 16 23.37 16.45
0.19 -13.75 -13.57 -10.34 -8.36 -6.292 -8.36 -9.348 -3.775 0.6155 8.18 -0.1759 6.859 5.54 17.17 19.78 18.43
0.195 -17.98 -9.079 -9.708 -9.978 -0.9888 -1.438 -2.966 0.2697 1.143 11.78 3.957 6.771 9.057 16.45 17.62 21.48
0.2 -16 -3.056 -6.292 -8.899 7.011 7.64 6.742 5.303 2.726 15.82 10.11 9.409 13.37 14.83 15.82 23.55
0.205 -7.82 2.067 0.4494 -3.236 12.67 13.66 15.37 10.79 5.452 17.08 13.01 11.43 16.88 12.94 11.15 21.48
0.21 3.056 4.944 9.169 6.112 10.61 12.31 18.25 14.92 7.474 12.04 8.266 8.266 16.18 9.618 0.9888 12.85
0.215 11.51 5.124 15.91 15.91 0 3.685 13.21 13.75 5.979 -0.5393 -4.045 -2.286 7.738 1.978 -13.84 -2.247
0.22 13.93 3.146 16.72 20.85 -14.29 -7.91 1.798 4.674 -1.143 -18.07 -19.43 -17.32 -8.705 -11.06 -29.3 -20.31
0.225 9.618 -0.08989 9.708 17.17 -24.45 -15.91 -11.06 -10.7 -13.01 -33.26 -30.95 -30.6 -28.4 -26.61 -40.09 -35.33
0.23 0.4494 -4.045 -2.966 5.303 -24.9 -16.36 -20.76 -26.52 -25.06 -39.37 -34.12 -36.4 -43.53 -38.29 -42.88 -41.98
0.235 -9.618 -8.09 -16.54 -9.169 -16.99 -10.7 -25.8 -36.13 -30.6 -34.25 -28.58 -33.41 -48.36 -40.36 -37.66 -38.11
0.24 -16.54 -11.6 -25.71 -19.6 -6.472 -4.315 -26.97 -35.6 -25.94 -21.75 -18.2 -24.53 -41.5 -31.19 -26.7 -25.8
0.245 -17.53 -13.39 -27.33 -21.48 1.258 -1.438 -25.89 -26.16 -13.81 -7.91 -8.266 -14.68 -26.64 -14.83 -13.12 -9.978
0.25 -12.58 -12.04 -21.57 -15.64 5.663 -1.888 -23.28 -13.03 -0.9673 3.056 -1.495 -7.035 -10.82 0.809 -0.1798 2.607
0.255 -4.494 -6.921 -11.78 -6.742 8.899 -1.888 -18.97 -2.517 6.419 10.43 2.286 -2.022 -0.5276 8.449 9.708 7.73
0.26 2.517 -0.08989 -2.517 0.6292 12.31 1.258 -12.85 1.528 5.979 15.37 5.1 1.847 1.935 6.382 15.91 5.933
0.265 5.753 4.584 3.416 4.494 14.38 6.472 -5.124 0.08989 -0.9673 18.97 8.09 6.595 0 -0.3596 19.69 2.697
0.27 5.663 4.674 5.933 5.843 12.49 10.07 2.876 -2.966 -9.585 20.31 10.9 12.66 -1.231 -4.494 23.19 3.685
0.275 5.303 1.618 6.022 6.652 6.472 9.618 9.618 -4.045 -13.54 17.98 12.66 18.55 1.583 -1.798 27.15 10.07
0.28 6.831 0 4.944 7.191 -0.08989 6.562 13.48 -1.528 -9.233 11.69 12.22 22.25 7.914 5.843 29.3 17.8
0.285 9.438 2.607 3.146 6.472 -3.056 4.854 14.38 3.236 0.08793 3.506 9.145 21.98 13.98 13.39 25.8 21.21
0.29 9.618 8.18 1.438 4.045 -1.258 6.382 12.85 7.551 8.178 -3.685 4.133 17.23 15.83 16 14.83 17.08
0.295 5.303 11.87 1.169 1.888 1.169 8.899 9.798 9.348 10.9 -8.36 -1.407 9.057 11.78 13.12 -0.7191 7.281
0.3 -1.438 10.61 3.326 2.876 -0.08989 8.809 5.843 8.719 9.321 -10.34 -5.716 0 4.397 8.449 -14.74 -2.517
0.305 -6.292 5.573 8 7.461 -4.944 4.944 1.258 7.64 6.947 -10.34 -8.002 -7.298 -1.847 6.831 -21.48 -7.64
0.31 -5.483 1.258 12.49 12.49 -9.169 -0.2697 -3.596 6.921 6.067 -9.348 -8.178 -11.17 -4.924 8.449 -19.96 -7.91
0.315 0.5393 1.169 13.39 13.84 -9.169 -3.685 -8.719 5.843 6.331 -8.719 -6.859 -11.96 -6.243 8.629 -14.11 -7.191
0.32 8 5.393 9.618 10.25 -5.753 -3.775 -12.31 3.056 4.836 -8.989 -4.66 -10.64 -8.617 2.787 -8.539 -8.809
0.325 13.03 11.24 4.135 4.674 -1.258 -1.079 -11.33 -0.1798 -0.5276 -9.169 -1.759 -7.386 -11.87 -8.719 -5.124 -12.31
0.33 14.83 16.18 2.157 2.067 3.236 3.506 -4.135 -1.258 -8.178 -7.101 2.638 -2.11 -13.28 -20.85 -2.427 -14.74
0.335 15.37 19.51 5.393 4.315 8.449 8.719 7.101 1.169 -13.19 -1.348 8.705 4.573 -10.82 -27.6 1.438 -14.29
0.34 16.18 20.58 11.15 8.899 13.84 12.31 16.45 5.213 -12.57 6.831 15.12 11.08 -4.836 -26.88 6.562 -11.33
0.345 15.64 17.8 14.47 11.15 16 11.78 18.52 7.281 -8.09 14.56 19.17 15.3 1.759 -20.85 11.15 -7.73
0.35 10.88 10.16 13.21 8.809 10.7 5.663 12.85 5.843 -3.693 18.25 18.99 16.71 6.243 -13.39 13.84 -4.494
0.355 1.258 -0.08989 9.079 4.135 -2.337 -3.685 4.584 2.966 -0.7035 16.9 15.48 16.53 8.354 -7.101 15.1 -0.809
0.36 -9.079 -8 5.753 0.809 -16.63 -11.15 0.5393 2.607 2.022 12.85 11.87 17.06 10.55 -0.9888 16.72 5.213
0.365 -14.2 -9.258 5.213 0.1798 -22.2 -11.33 4.315 7.011 5.452 10.61 11.43 19.87 15.65 6.831 20.22 14.47
0.37 -10.97 -3.865 6.202 0.6292 -13.12 -3.056 13.39 13.93 8.354 13.93 15.48 24.53 23.3 16.09 25.53 25.26
0.375 -1.978 3.865 6.202 -0.08989 6.472 9.169 21.57 18.52 9.761 22.2 22.86 28.93 29.37 23.28 31.46 33.53
0.38 5.843 8.809 4.404 -2.157 25.17 18.88 24.18 17.53 9.409 31.37 29.9 30.78 30.07 24.99 36.13 36.13
0.385 7.281 9.258 2.607 -3.236 32.63 21.75 21.3 12.04 8.002 35.78 32.18 28.14 24.8 21.03 37.03 31.91
0.39 2.517 7.64 3.056 -1.258 26.79 18.16 16 5.933 6.683 31.46 26.91 19.87 15.56 14.02 31.46 20.94
0.395 -2.607 7.461 5.933 3.236 13.12 11.24 10.88 1.978 6.683 17.53 14.33 6.419 4.748 6.562 17.98 4.674
0.4 -2.697 9.978 9.348 8.449 0 4.494 6.202 0.5393 7.738 -1.978 -1.759 -9.057 -5.804 -0.08989 -0.809 -13.93
0.405 3.146 12.76 12.04 12.13 -7.64 -0.2697 1.798 1.169 8.09 -20.4 -15.48 -20.66 -14.42 -5.933 -18.61 -30.11
0.41 10.34 12.67 13.66 13.93 -10.88 -3.146 -1.798 2.966 6.771 -31.64 -21.9 -23.39 -19.26 -10.88 -28.58 -39.01
0.415 13.57 8.899 14.65 14.38 -13.84 -5.303 -3.955 5.393 5.188 -33.71 -19.87 -16.8 -19.26 -13.48 -27.96 -38.02
0.42 11.24 4.045 14.47 13.84 -18.25 -7.371 -4.404 7.91 5.188 -28.94 -12.31 -4.924 -13.54 -11.15 -19.96 -27.15
0.425 6.202 1.528 12.58 11.51 -21.12 -8.449 -3.506 9.708 6.859 -21.3 -4.045 6.243 -2.462 -1.888 -10.88 -9.438
0.43 2.517 2.607 8.539 6.742 -18.43 -7.461 -2.337 10.52 8.354 -13.93 1.407 13.37 11.26 12.67 -4.944 10.25
0.435 1.978 5.213 2.607 -0.2697 -11.15 -4.854 -1.888 9.978 8.793 -8.36 3.693 16.27 22.86 26.88 -2.067 26.88
0.44 3.146 5.303 -4.315 -8.27 -5.393 -2.607 -2.157 8 8.002 -4.944 4.045 16.44 28.23 34.52 0.809 36.58
0.445 2.607 0.6292 -10.79 -15.73 -5.933 -2.876 -2.876 4.315 5.628 -2.427 3.517 15.39 25.68 32.81 5.933 38.38
0.45 -1.348 -7.371 -15.1 -20.94 -10.43 -5.303 -3.596 -1.079 1.759 0.7191 3.341 13.19 16.97 23.64 12.94 33.8
0.455 -7.011 -14.02 -15.91 -22.11 -10.52 -7.191 -4.135 -7.91 -2.198 6.022 4.309 10.11 5.979 12.31 19.42 26.16
0.46 -9.798 -14.47 -12.58 -18.25 -0.5393 -5.573 -3.955 -14.2 -4.748 13.39 7.123 7.738 -2.198 4.225 23.37 19.42
0.465 -6.112 -7.551 -5.753 -9.978 15.82 -0.2697 -1.258 -16.72 -4.924 20.49 10.73 7.738 -3.605 2.067 24 15.73
0.47 3.955 3.236 2.067 0 27.51 5.933 5.034 -13.03 -2.286 24 13.19 10.2 1.759 4.404 21.39 13.57
0.475 15.91 13.03 8 7.91 25.44 9.888 13.84 -3.416 3.517 21.66 12.84 13.01 9.936 6.831 16 9.169
0.48 23.73 18.25 10.07 11.6 11.78 10.97 22.02 8.719 11.43 14.11 9.585 13.45 15.65 6.202 8.449 0.1798
0.485 23.82 18.43 9.528 11.51 -2.067 10.97 26.34 19.24 17.41 4.764 4.66 10.55 16.36 2.427 -0.1798 -12.04
0.49 17.26 16 9.169 10.25 -6.202 11.78 25.26 24.63 17.67 -3.865 -0.6155 4.573 11.61 -2.157 -9.618 -23.64
0.495 8.719 13.66 10.34 10.07 -1.438 12.58 19.15 22.83 11.61 -12.13 -5.979 -3.693 2.726 -6.472 -19.33 -31.19
0.5 3.056 12.67 11.78 11.24 3.596 10.97 9.888 14.11 2.11 -21.03 -12.22 -13.72 -8.354 -10.61 -29.3 -34.16
0.505 1.258 11.96 11.06 11.6 2.876 5.933 -0.08989 1.169 -6.859 -29.39 -19.08 -23.65 -19.17 -15.1 -37.84 -33.98
0.51 1.169 9.348 7.101 8.809 -1.079 -0.809 -8.899 -11.6 -12.93 -33.89 -24.18 -30.6 -26.82 -19.87 -42.16 -32.09
0.515 0.2697 3.685 0.5393 2.787 -1.528 -5.843 -15.55 -20.04 -14.6 -32 -24.27 -31.83 -29.55 -23.55 -39.91 -29.12
0.52 -2.247 -4.135 -6.022 -4.315 4.135 -7.011 -19.33 -21.84 -12.13 -24.81 -18.55 -26.47 -26.38 -23.91 -31.46 -23.91
0.525 -4.944 -11.24 -10.16 -9.618 11.87 -4.764 -18.97 -17.44 -7.562 -15.91 -9.409 -16.27 -17.94 -19.69 -19.87 -16.09
0.53 -5.663 -14.02 -10.52 -11.6 15.82 -0.6292 -13.93 -9.708 -3.166 -8.27 -0.7035 -4.924 -7.298 -12.49 -8.809 -6.921
0.535 -3.326 -10.97 -8.09 -10.34 14.29 3.506 -5.663 -2.517 0 -2.427 5.1 4.309 1.319 -6.022 0 0.9888
0.54 0.7191 -4.225 -4.584 -7.281 10.43 6.292 2.247 1.438 1.495 3.236 8.53 10.38 5.892 -3.416 7.461 6.112
0.545 2.966 0.809 -2.067 -4.584 7.371 6.472 6.742 2.427 0.8793 9.708 10.99 13.89 7.123 -4.225 15.55 9.618
0.55 -0.3596 -0.809 -1.798 -3.596 3.955 2.787 6.652 1.528 -1.231 15.19 12.93 16 7.562 -5.663 23.82 13.12
0.555 -10.25 -9.528 -4.135 -4.854 -3.326 -4.225 3.236 0.08989 -2.374 16.63 13.72 16.62 8.354 -5.213 29.93 17.17
0.56 -22.65 -20.49 -8 -7.73 -14.38 -12.4 -0.4494 -1.888 -0.6155 13.3 12.13 15.48 9.321 -2.427 31.46 20.22
0.565 -30.92 -26.88 -11.24 -10.88 -23.46 -17.89 -1.528 -4.045 2.11 8.36 8.002 12.84 9.233 1.169 27.87 20.4
0.57 -30.74 -25.53 -12.22 -12.85 -23.82 -18.16 0 -6.202 2.462 5.573 2.814 8.969 7.386 3.056 20.85 16.45
0.575 -24 -18.97 -11.06 -13.03 -15.46 -14.11 1.528 -7.91 -1.143 6.022 -1.583 4.045 3.254 1.258 12.4 8.449
0.58 -17.44 -12.67 -8.989 -11.15 -4.944 -8.449 0.1798 -8.989 -6.859 7.371 -4.309 -2.11 -2.462 -3.865 3.416 -1.798
0.585 -16.27 -10.16 -6.652 -7.371 0.9888 -3.685 -3.685 -8.629 -11.43 6.921 -6.331 -9.585 -8.53 -9.978 -5.933 -11.96
0.59 -18.97 -9.978 -3.326 -2.337 0.9888 -0.5393 -7.551 -6.742 -12.93 3.685 -9.057 -17.85 -14.07 -14.65 -15.1 -20.04
0.595 -19.24 -8.09 1.438 3.056 -1.888 0.5393 -9.169 -4.315 -11.08 -0.9888 -12.93 -25.5 -19.61 -17.89 -22.2 -25.35
0.6 -13.03 -3.865 5.663 6.562 -4.764 -1.079 -9.169 -3.596 -8.266 -5.753 -17.32 -30.86 -24.97 -20.31 -25.44 -27.51
0.605 -4.315 -1.079 6.112 5.843 -7.101 -6.472 -10.07 -5.933 -7.826 -9.978 -21.02 -32.62 -28.67 -22.02 -24.36 -26.25
0.61 -0.9888 -4.494 0.8989 0.1798 -9.348 -14.29 -13.48 -10.79 -10.55 -14.11 -22.95 -30.16 -28.58 -22.11 -20.94 -21.93
0.615 -6.562 -13.21 -7.91 -7.64 -10.16 -20.67 -18.07 -15.19 -13.54 -17.98 -22.16 -24.45 -24.09 -19.6 -18.16 -16
0.62 -15.19 -19.78 -15.1 -13.21 -6.831 -20.76 -20.04 -16 -13.19 -20.13 -18.47 -16.88 -16.44 -14.29 -17.53 -10.34
0.625 -17.17 -17.08 -16.18 -13.57 1.169 -12.94 -16.54 -11.78 -9.409 -18.88 -12.57 -8.881 -8.09 -7.73 -17.98 -6.382
0.63 -9.079 -5.124 -11.6 -10.25 9.978 -1.169 -8.989 -5.124 -5.452 -13.93 -5.804 -1.935 -2.286 -2.697 -17.26 -5.034
0.635 1.888 7.461 -6.742 -7.64 13.3 7.64 -3.056 -1.169 -3.869 -7.551 0.3517 2.55 -1.143 -1.079 -13.75 -6.292
0.64 4.494 10.79 -6.742 -9.079 8.719 8.539 -3.236 -3.056 -4.748 -2.607 4.485 4.221 -3.781 -2.517 -8.27 -8.539
0.645 -5.573 2.607 -11.42 -13.21 0.809 2.337 -8.629 -8.719 -6.507 0 5.804 3.605 -6.683 -4.135 -2.876 -9.438
0.65 -20.49 -9.528 -15.28 -15.19 -3.506 -4.764 -13.3 -12.58 -7.298 0.9888 4.66 1.847 -7.035 -3.685 0.08989 -8.09
0.655 -27.51 -14.65 -12.85 -11.51 -2.157 -7.281 -11.6 -10.52 -5.979 1.438 2.286 0.08793 -5.188 -2.067 0.2697 -5.483
0.66 -20.4 -8.18 -4.135 -3.326 0.6292 -4.045 -3.236 -3.685 -3.078 1.079 0 -1.319 -3.429 -1.169 -1.079 -3.506
0.665 -5.213 4.494 5.663 4.404 -0.5393 1.258 6.921 3.146 -0.7035 -0.5393 -2.286 -2.726 -3.254 -1.618 -2.517 -2.787
0.67 6.292 13.66 10.88 7.191 -5.843 4.135 12.49 5.213 -0.3517 -3.146 -4.66 -4.221 -4.485 -2.067 -2.697 -2.607
0.675 6.652 13.84 8.719 4.584 -9.978 2.427 9.978 0.809 -1.495 -5.213 -6.859 -5.276 -6.331 -1.528 -0.9888 -1.528
0.68 -1.798 6.742 1.079 -0.9888 -7.91 -2.427 1.169 -7.82 -3.254 -4.494 -7.298 -4.836 -7.65 0.2697 2.697 1.708
0.685 -11.51 -1.978 -8.18 -7.101 0.08989 -7.191 -8.09 -16.27 -5.628 0.1798 -4.397 -2.022 -7.298 2.697 7.91 6.921
0.69 -16.63 -8.629 -15.82 -13.03 7.82 -9.888 -12.94 -20.67 -8.354 7.73 1.319 2.374 -5.188 5.213 12.85 12.31
0.695 -16.63 -12.58 -19.96 -17.98 8.449 -10.52 -11.69 -19.24 -8.881 14.02 7.211 5.452 -1.671 7.64 14.83 15.28
0.7 -14.02 -14.65 -18.79 -19.06 1.169 -10.16 -6.112 -12.67 -4.924 14.92 8.793 4.397 2.374 10.16 11.6 13.84
0.705 -10.07 -13.84 -11.6 -13.12 -6.562 -8.809 0.2697 -3.416 1.935 9.169 3.957 -1.231 5.804 11.78 3.146 8.36
0.71 -3.146 -7.82 0.08989 -0.7191 -6.382 -5.663 4.584 4.764 7.123 -0.3596 -5.276 -8.793 6.683 10.61 -7.101 0.2697
0.715 7.82 3.416 10.88 12.4 2.876 -0.8989 4.494 8.27 7.035 -8.539 -13.72 -14.68 3.605 5.393 -15.19 -8.18
0.72 19.96 15.46 15.1 18.7 13.93 3.236 -0.08989 5.843 2.55 -11.51 -16.97 -16.88 -2.286 -1.618 -18.7 -14.2
0.725 26.07 21.12 10.79 15.01 17.53 4.135 -7.011 0.6292 -2.198 -8.36 -14.77 -15.92 -6.947 -5.303 -18.07 -15.28
0.73 20.13 16.63 2.247 5.124 11.42 1.258 -12.49 -3.056 -3.078 -1.348 -10.2 -13.63 -6.947 -2.517 -15.37 -11.15
0.735 3.775 4.584 -4.225 -3.146 2.247 -3.056 -13.84 -2.876 0.6155 5.663 -5.628 -10.99 -2.462 4.494 -11.87 -3.775
0.74 -13.12 -6.742 -5.843 -4.944 -0.4494 -5.124 -11.24 -0.7191 5.452 10.52 -1.671 -7.298 3.429 10.16 -7.461 3.506
0.745 -19.69 -10.7 -4.404 -2.337 6.562 -3.146 -7.011 0.08989 6.155 13.03 2.374 -1.583 7.562 11.15 -1.798 9.079
0.75 -12.67 -6.472 -4.404 -0.809 16.45 0.4494 -4.045 -2.337 1.231 13.3 5.804 4.748 8.705 8.449 4.135 12.76
0.755 0.08989 0.5393 -7.73 -3.596 18.25 1.618 -4.135 -7.101 -5.452 10.61 6.155 8.53 7.211 5.663 8 14.65
0.76 6.921 4.225 -11.78 -8.18 7.281 -2.067 -6.022 -11.33 -9.057 4.404 1.495 7.123 4.309 4.944 7.551 14.29
0.765 2.337 2.787 -11.87 -9.798 -9.348 -7.91 -7.101 -12.67 -9.057 -3.326 -6.947 0.8793 0.7035 5.034 3.056 10.61
0.77 -7.011 0.1798 -6.202 -6.292 -19.42 -11.06 -5.573 -11.6 -8.53 -8.989 -15.21 -6.947 -4.133 2.247 -3.416 2.067
0.775 -9.618 1.438 1.888 -0.08989 -17.26 -9.348 -3.146 -10.88 -10.02 -10.16 -19.26 -13.63 -10.99 -5.303 -9.528 -10.79
0.78 0 7.281 7.281 4.404 -8.449 -5.663 -3.146 -12.4 -12.93 -8.18 -18.82 -18.55 -18.82 -15.46 -14.11 -24.63
0.785 14.92 13.03 7.461 5.393 -3.326 -5.034 -7.011 -15.64 -15.65 -6.831 -17.32 -22.25 -25.06 -23.1 -17.35 -34.79
0.79 22.38 13.57 4.584 4.494 -6.022 -8.989 -12.67 -18.16 -16.71 -8.719 -17.59 -25.15 -27.44 -25.08 -19.69 -38.74
0.795 16.09 8.09 2.067 4.315 -11.69 -13.93 -16.18 -18.25 -15.39 -12.58 -19.35 -26.29 -25.94 -22.56 -21.12 -37.84
0.8 2.157 1.169 1.528 5.213 -12.76 -14.83 -14.83 -15.64 -12.05 -14.11 -19.7 -24.18 -21.81 -18.88 -20.94 -35.06
0.805 -7.281 -2.517 1.888 5.124 -7.281 -10.79 -9.618 -11.42 -7.914 -10.52 -17.41 -18.99 -15.74 -15.55 -19.06 -32.18
0.81 -5.933 -2.247 1.169 2.337 -1.258 -6.292 -4.674 -6.562 -3.957 -3.955 -14.33 -13.01 -8.705 -12.13 -16.09 -29.12
0.815 1.888 -1.438 -0.809 -1.618 -2.427 -6.742 -3.775 -1.978 -0.2638 0 -13.19 -9.057 -1.847 -7.91 -13.39 -25.08
0.82 6.562 -3.146 -2.427 -3.775 -11.15 -12.31 -7.371 1.708 3.254 -2.337 -14.6 -8.002 3.517 -2.966 -12.04 -19.96
0.825 3.056 -6.921 -1.348 -2.247 -18.79 -16.99 -11.6 4.674 5.716 -8.36 -16 -7.65 7.211 1.888 -11.51 -14.47
0.83 -4.854 -9.079 2.067 0.9888 -15.82 -14.11 -12.31 6.831 6.595 -11.51 -13.28 -5.1 10.02 6.202 -10.07 -9.079
0.835 -10.16 -7.461 5.124 2.517 -1.708 -3.236 -8.36 8 6.947 -7.281 -4.748 1.143 13.19 10.25 -5.573 -3.506
0.84 -9.708 -3.775 5.034 0.1798 14.2 9.258 -1.798 8.36 8.354 2.697 7.474 9.849 17.94 14.92 2.427 3.506
0.845 -6.472 -1.888 2.067 -4.135 21.03 16.27 4.764 8.809 10.38 12.85 18.64 18.38 24.27 20.67 12.22 12.4
0.85 -4.944 -2.787 -0.5393 -6.562 16.09 15.82 10.07 10.16 11.43 18.34 24.8 23.57 29.63 26.07 20.04 21.12
0.855 -5.303 -3.506 -0.1798 -4.764 5.933 11.69 13.21 11.51 11.08 18.52 24.97 23.74 30.25 28.04 23.19 26.07
0.86 -4.315 -0.7191 2.966 0.08989 0.8989 8.989 13.21 10.61 9.321 17.17 21.1 19.35 23.92 24.81 21.48 25.08
0.865 -0.4494 5.034 5.753 4.045 5.843 9.438 9.258 6.022 5.804 18.52 16 12.84 12.84 17.53 18.07 19.33
0.87 3.685 8.899 4.584 3.506 15.82 10.07 1.708 -1.888 0 23.1 11.61 6.947 0.9673 8.719 15.82 11.51
0.875 3.506 6.472 -1.528 -1.528 19.87 7.281 -7.281 -11.42 -7.035 26.61 8.617 2.902 -9.145 0 15.1 2.607
0.88 -2.337 -1.169 -9.528 -7.82 10.52 0.3596 -14.47 -19.69 -13.01 23.28 5.276 -0.4397 -17.32 -8.629 12.67 -7.64
0.885 -9.978 -8.629 -14.02 -10.88 -9.079 -7.191 -17.08 -23.64 -16.36 10.7 -0.2638 -4.573 -24.09 -16.99 4.854 -18.88
0.89 -12.94 -10.34 -10.97 -8.27 -27.06 -10.97 -14.47 -21.39 -16.09 -7.82 -8.617 -9.409 -28.05 -23.28 -8.809 -28.31
0.895 -8.449 -5.483 -1.169 -0.6292 -31.82 -8.449 -8.539 -13.3 -11.78 -24.72 -16.88 -12.66 -26.82 -24.81 -24.27 -32
0.9 0.809 1.798 10.34 8.449 -21.12 -0.8989 -1.528 -1.528 -3.957 -32.36 -20.31 -11.17 -18.2 -19.78 -34.97 -27.15
0.905 9.079 6.921 18.07 15.01 -2.787 8.09 4.674 10.34 4.045 -27.78 -16.18 -4.221 -3.341 -9.618 -36.31 -15.64
0.91 11.78 8.09 19.06 16.27 11.78 14.56 9.348 18.7 8.881 -14.56 -5.804 4.924 11.7 0.7191 -28.67 -2.966
0.915 9.348 7.011 14.56 12.85 16 15.73 11.15 20.76 9.145 -0.1798 5.716 11.26 20.4 6.022 -16.09 5.573
0.92 5.303 6.112 8.18 7.551 11.69 11.51 9.618 16.9 6.155 9.438 13.19 12.05 20.58 5.933 -2.966 9.708
0.925 3.506 5.573 3.596 3.596 6.112 5.034 6.562 11.06 2.462 13.84 14.77 9.673 17.15 5.393 8.719 13.93
0.93 4.944 4.494 1.978 1.888 4.764 0.5393 4.854 8 0.6155 16.18 13.28 9.321 17.06 10.07 19.24 22.29
0.935 7.191 1.798 1.798 0.8989 6.831 0.5393 6.202 9.708 2.55 18.97 13.1 14.16 22.42 19.96 28.67 33.35
0.94 6.022 -2.697 0.4494 -1.528 7.011 3.685 9.438 13.39 7.298 21.39 16.27 22.42 28.84 28.94 35.6 40.99
0.945 -0.7191 -8.809 -2.787 -6.292 1.978 5.933 11.33 14.29 10.82 20.58 20.66 28.67 29.81 30.2 37.84 39.91
0.95 -11.33 -16.27 -7.281 -12.13 -6.831 3.416 8.719 8.539 8.881 15.37 22.16 27.61 21.37 21.66 34.7 30.02
0.955 -20.58 -23.55 -11.78 -16.63 -14.83 -4.404 0.9888 -3.775 1.583 7.64 18.29 18.03 5.188 7.371 27.87 16.36
0.96 -22.92 -27.87 -15.73 -18.43 -17.8 -14.11 -9.618 -18.61 -7.211 0.809 9.585 3.429 -12.75 -5.483 20.22 4.944
0.965 -16.63 -26.07 -18.34 -17.44 -14.11 -20.13 -18.52 -29.75 -13.72 -3.326 -1.055 -10.73 -26.47 -12.49 13.21 -1.708
0.97 -5.213 -17.26 -17.89 -14.11 -5.663 -18.88 -21.48 -32.36 -16.18 -5.933 -10.82 -20.49 -33.15 -14.83 6.292 -6.022
0.975 4.944 -4.045 -12.58 -8.449 2.876 -11.6 -17.35 -25.8 -14.07 -9.618 -18.03 -25.06 -33.59 -16.18 -2.067 -11.78
0.98 9.348 8.09 -2.517 -0.2697 6.292 -3.146 -8.809 -13.03 -8.178 -15.28 -22.51 -25.94 -29.37 -18.25 -11.87 -19.06
0.985 7.011 14.56 9.348 8.539 2.157 1.169 -0.08989 1.079 -0.6155 -20.31 -24.18 -24.45 -20.4 -18.34 -19.78 -23.55
0.99 1.079 13.84 17.98 14.74 -6.831 0 5.303 12.67 6.507 -20.4 -22.51 -20.49 -6.947 -13.21 -21.12 -20.04
0.995 -4.404 8.629 19.24 15.19 -14.38 -3.865 7.281 19.69 12.22 -13.66 -16.18 -13.1 8.793 -3.685 -13.12 -7.551
1 -7.101 2.966 13.39 10.07 -13.84 -4.944 8.449 22.74 16.09 -1.528 -4.924 -1.759 23.3 6.472 2.607 9.978
1.005 -7.371 -0.7191 5.303 2.787 -3.326 -0.08989 12.49 24.45 17.67 11.51 8.705 12.13 33.94 13.66 20.49 26.79
1.01 -6.831 -2.517 0.2697 -2.247 11.69 8.989 19.24 26.61 17.23 20.94 20.31 24.62 39.04 16.99 33.98 37.3
1.015 -6.112 -3.685 -0.08989 -3.416 21.03 16.45 24.36 27.87 15.83 23.82 26.12 31.3 37.9 17.53 39.01 39.37
1.02 -5.034 -5.034 1.079 -2.787 17.53 16.63 22.47 25.08 14.07 20.49 24.89 29.9 31.13 16.63 35.42 33.71
1.025 -3.056 -6.742 -0.08989 -4.135 3.326 9.348 13.21 16.9 10.73 14.38 19.17 22.69 20.93 14.56 26.97 23.73
1.03 -0.7191 -8.629 -4.764 -8.809 -11.15 -0.3596 1.978 5.483 4.309 9.618 13.19 14.42 10.11 10.34 18.07 13.03
1.035 0.4494 -9.978 -10.52 -14.74 -15.82 -6.292 -4.854 -5.034 -3.341 7.82 10.02 9.145 0.7914 3.775 11.78 3.865
1.04 0.2697 -10.43 -14.2 -17.98 -8.629 -6.292 -5.483 -11.6 -9.145 7.64 8.969 6.771 -6.331 -3.506 7.82 -3.146
1.045 0.08989 -9.258 -14.11 -16.54 2.876 -3.056 -3.416 -14.38 -11.26 6.292 6.595 3.957 -11.78 -9.258 3.775 -8.989
1.05 1.258 -6.652 -11.69 -11.96 8.809 -1.348 -3.865 -15.91 -10.55 2.247 0 -2.726 -17.15 -12.67 -3.056 -15.19
1.055 3.596 -3.416 -9.079 -7.191 4.584 -3.416 -8.27 -18.16 -9.145 -3.685 -9.849 -13.81 -22.86 -15.19 -12.94 -22.92
1.06 4.944 -0.6292 -7.281 -3.955 -4.854 -6.472 -12.58 -19.87 -8.178 -8.899 -18.64 -25.06 -27.26 -18.25 -23.37 -30.83
1.065 3.775 1.438 -4.944 -1.528 -9.708 -5.663 -11.6 -17.89 -8.002 -11.06 -22.25 -31.04 -26.82 -21.03 -30.74 -36.04
1.07 1.528 4.135 -0.4494 1.348 -4.494 1.079 -3.955 -10.79 -7.738 -10.07 -19.87 -29.11 -20.75 -21.93 -33.08 -36.49
1.075 2.337 8.899 6.022 5.753 6.022 10.43 5.663 -1.348 -5.804 -8.18 -14.42 -21.37 -11.96 -20.85 -31.28 -32.81
1.08 8.719 15.82 12.22 10.61 11.96 16.18 10.79 5.663 -1.759 -8.09 -10.38 -12.75 -4.924 -18.88 -28.31 -27.24
1.085 18.43 22.2 16.09 14.65 7.461 14.65 9.438 8.09 2.286 -9.978 -9.936 -6.859 -1.231 -16.9 -25.98 -21.12
1.09 24.81 24.45 16.99 16.63 -2.697 7.82 5.124 7.82 4.573 -12.31 -11.61 -3.517 0.7914 -14.74 -23.55 -14.2
1.095 23.19 21.21 15.19 15.91 -8.09 1.888 3.236 8.449 5.188 -12.58 -10.99 0.2638 4.397 -11.15 -18.34 -5.753
1.1 14.29 14.38 11.42 12.22 -2.247 1.528 5.753 11.15 5.716 -9.258 -4.748 7.298 10.46 -5.483 -8.809 4.404
1.105 4.045 7.281 6.112 5.573 10.7 6.202 10.43 14.11 6.155 -2.427 6.243 17.5 17.59 1.888 3.416 15.28
1.11 -1.618 2.067 0.08989 -2.607 19.6 10.97 12.85 13.75 5.54 5.663 17.59 27.87 22.51 9.169 14.74 24.72
1.115 -1.528 -1.708 -5.753 -10.16 15.82 10.43 9.978 8.719 3.429 11.78 24.27 34.12 22.42 13.93 21.3 30.74
1.12 0.9888 -5.303 -10.79 -14.74 1.708 4.135 2.787 1.169 0.7914 13.75 24.27 33.94 17.85 15.28 22.56 32.9
1.125 1.348 -9.618 -13.93 -16 -11.33 -3.506 -4.764 -4.674 -1.407 12.13 19.43 28.49 11.87 14.47 20.22 31.73
1.13 -2.697 -13.84 -14.83 -15.55 -13.93 -7.82 -9.348 -6.562 -3.341 8.989 12.75 20.05 6.507 12.4 16.36 26.97
1.135 -10.16 -16.18 -14.02 -15.28 -7.73 -8.629 -10.61 -6.022 -4.66 5.663 5.804 10.55 1.143 8.449 10.88 17.62
1.14 -17.44 -15.37 -12.49 -15.64 -3.416 -9.618 -11.24 -7.101 -5.979 1.438 -2.198 0.08793 -5.804 1.888 2.607 3.955
1.145 -19.96 -11.42 -10.97 -15.28 -9.528 -13.93 -12.94 -11.42 -8.354 -4.404 -12.22 -10.82 -14.33 -6.022 -8.18 -10.7
1.15 -14.47 -5.303 -9.798 -12.94 -23.82 -20.04 -15.37 -17.53 -11.7 -11.06 -22.51 -20.31 -22.16 -12.67 -18.43 -21.84
1.155 -0.9888 1.348 -9.348 -9.169 -35.42 -23.01 -16.99 -21.93 -13.98 -16.54 -28.93 -25.59 -26.64 -15.91 -24.45 -26.16
1.16 15.46 6.472 -10.16 -6.292 -34.25 -19.06 -16.27 -22.2 -13.01 -19.06 -28.4 -24.89 -26.12 -15.37 -24.63 -23.64
1.165 26.61 8.629 -11.6 -6.112 -19.42 -9.169 -13.21 -18.16 -9.321 -19.33 -22.25 -18.91 -20.84 -11.87 -21.3 -16.72
1.17 26.16 7.64 -11.69 -7.73 0.9888 1.798 -8.719 -11.06 -4.66 -19.6 -15.21 -10.99 -12.57 -7.281 -18.34 -8.989
1.175 15.37 6.112 -8.539 -7.82 16 9.258 -3.775 -3.056 -0.2638 -21.57 -10.82 -4.133 -4.309 -3.146 -18.07 -2.876
1.18 2.697 7.101 -1.618 -3.146 19.96 12.49 1.708 4.674 4.221 -24 -8.53 0.7914 2.286 0.1798 -18.61 1.169
1.185 -2.787 11.42 7.551 6.022 14.83 13.66 7.82 11.6 8.53 -23.19 -4.836 5.804 7.386 3.326 -16.18 3.865
1.19 0.8989 16.72 15.82 15.64 7.191 15.28 13.75 16.54 11.61 -16.63 2.99 12.93 11.26 5.483 -8.36 4.944
1.195 8.27 19.42 19.51 20.49 2.157 17.44 17.44 17.8 13.01 -6.112 14.07 21.28 13.01 5.034 3.236 3.506
1.2 12.13 18.52 17.26 18.16 1.169 18.79 16.9 14.92 12.84 3.865 24.09 27.7 11.87 1.258 14.56 -0.08989
1.205 10.7 16.18 11.15 10.79 3.506 18.79 13.48 10.07 11.43 10.25 29.11 29.55 9.057 -3.146 22.11 -3.416
1.21 8.809 15.73 5.663 3.506 8 18.61 10.52 6.562 9.321 13.21 28.49 26.82 6.947 -4.315 24.63 -3.775
1.215 11.87 18.07 3.416 0.2697 13.21 18.79 10.43 6.112 7.386 15.28 24.89 21.81 7.298 0.1798 23.55 -0.6292
1.22 18.52 19.87 3.236 0.7191 16.99 18.43 12.31 7.011 5.804 18.34 21.02 17.06 9.849 8.719 20.58 3.775
1.225 21.12 16.54 1.708 0.6292 17.26 15.19 12.67 6.202 3.517 21.84 17.32 13.01 12.31 16.99 16.72 7.101
1.23 12.58 6.472 -3.775 -4.135 12.58 7.91 8.36 2.247 0 23.37 12.31 7.914 11.96 20.67 11.6 7.91
1.235 -5.663 -6.742 -12.22 -13.39 2.876 -2.157 -0.7191 -3.506 -2.99 20.4 5.276 0.4397 7.386 18.61 5.303 6.921
1.24 -23.82 -17.17 -19.33 -22.2 -9.888 -11.69 -11.15 -8.27 -3.517 13.3 -2.55 -8.178 0.1759 13.3 -0.8989 6.292
1.245 -31.28 -20.67 -20.31 -24.72 -20.85 -16.99 -17.53 -9.798 -2.286 5.393 -8.617 -14.07 -5.54 8.809 -4.404 7.82
1.25 -24.81 -17.8 -14.11 -18.88 -24.09 -15.64 -16.63 -8.629 -2.022 0.8989 -10.46 -13.72 -7.211 7.191 -3.685 11.33
1.255 -10.52 -11.78 -4.494 -8.09 -16.36 -8.36 -9.978 -7.011 -3.693 1.438 -7.914 -7.738 -5.628 7.101 0.6292 14.47
1.26 1.978 -5.124 2.876 0.9888 -0.4494 2.247 -1.888 -6.652 -5.628 5.303 -3.166 0.08793 -3.429 6.202 5.663 15.19
1.265 7.461 1.258 5.213 4.315 16.36 12.49 3.685 -6.472 -5.716 8.809 0.8793 5.452 -2.11 3.685 8.27 12.49
1.27 7.551 8.18 4.135 2.787 25.71 19.15 6.112 -4.225 -2.99 9.169 3.078 7.035 -1.495 0.3596 7.191 7.011
1.275 8.18 15.55 3.775 1.258 23.37 20.4 7.011 0.7191 1.671 5.573 4.485 6.947 -0.9673 -3.416 4.225 -0.08989
1.28 12.4 21.39 7.011 3.865 11.96 17.08 8.449 6.831 5.979 -0.1798 7.123 8.266 -0.5276 -8.18 2.157 -7.011
1.285 17.98 23.37 13.12 10.43 -0.3596 11.6 11.06 11.42 7.035 -5.124 11.34 11.78 -0.5276 -13.3 2.517 -11.42
1.29 19.78 20.76 18.34 16.27 -5.843 7.191 13.57 12.58 4.221 -6.652 15.3 15.48 -1.671 -17.71 4.764 -11.78
1.295 14.74 14.92 18.43 16.63 -2.067 5.213 13.3 10.16 -0.08793 -4.315 16.53 15.92 -4.045 -19.78 6.742 -8.539
1.3 4.404 8.09 12.04 10.25 6.652 4.944 8.809 4.944 -2.99 0.2697 14.33 12.13 -7.035 -18.61 7.191 -3.146
1.305 -7.011 0.8989 1.618 0.08989 12.49 3.775 1.438 -1.169 -4.045 5.573 10.02 6.419 -8.881 -14.47 7.281 3.056
1.31 -15.82 -7.011 -8 -9.258 9.708 -0.3596 -5.483 -6.382 -4.924 9.708 5.892 1.847 -8.617 -8.539 8.449 8.989
1.315 -20.13 -14.83 -13.03 -14.38 -1.618 -7.82 -9.169 -8.989 -6.507 11.6 3.078 -0.08793 -6.683 -2.697 11.06 13.48
1.32 -19.87 -19.78 -12.94 -15.46 -15.55 -15.28 -8.449 -8.18 -8.178 11.06 1.231 -0.7914 -4.133 1.798 13.3 15.46
1.325 -15.91 -19.15 -10.25 -15.01 -23.19 -18.52 -4.764 -4.764 -9.673 9.348 -1.231 -2.286 -1.759 4.764 12.58 14.2
1.33 -9.888 -13.48 -8.539 -15.91 -19.51 -15.46 -1.618 -1.528 -11.26 8 -4.924 -5.979 -1.055 5.663 7.91 9.438
1.335 -4.494 -7.371 -10.61 -19.24 -8 -8.719 -2.966 -2.607 -12.93 7.371 -8.969 -11.26 -3.605 3.775 1.079 2.427
1.34 -2.247 -6.112 -16.54 -23.82 1.978 -4.315 -10.43 -9.438 -13.81 6.022 -12.49 -16.8 -9.233 0.3596 -4.674 -4.135
1.345 -4.135 -11.69 -23.19 -27.06 2.966 -6.472 -21.39 -18.7 -13.37 3.056 -15.04 -21.1 -15.21 -1.798 -7.371 -7.011
1.35 -8.629 -20.04 -26.43 -26.88 -4.944 -13.57 -29.93 -24.54 -11.17 -1.258 -16.62 -23.13 -17.76 -0.6292 -7.371 -5.124
1.355 -11.96 -24.72 -23.91 -22.65 -15.37 -19.78 -31.1 -22.83 -7.035 -5.843 -16.88 -22.6 -15.65 2.697 -6.831 -0.1798
1.36 -11.42 -21.93 -17.17 -16.09 -21.3 -19.87 -24.36 -15.28 -2.198 -9.169 -14.95 -19.17 -11.08 4.494 -7.461 4.404
1.365 -6.831 -13.75 -9.438 -9.888 -20.58 -13.39 -13.75 -7.551 0.2638 -10.52 -11.26 -13.37 -7.474 2.067 -9.258 6.831
1.37 -0.2697 -5.213 -4.045 -6.292 -15.73 -4.944 -5.213 -4.944 -1.671 -10.25 -7.298 -7.035 -7.474 -3.865 -10.88 6.562
1.375 5.303 0.7191 -1.978 -5.393 -9.978 0.7191 -2.247 -8.27 -6.771 -9.618 -5.012 -2.638 -11.17 -10.97 -11.33 4.404
1.38 8.09 4.494 -1.798 -4.944 -3.506 2.787 -4.135 -13.48 -10.99 -9.079 -4.836 -2.198 -16.09 -15.91 -10.43 1.348
1.385 6.921 7.551 -0.809 -2.607 4.764 3.596 -6.472 -14.74 -11.52 -8.629 -5.54 -4.836 -18.64 -17.35 -8.899 -1.528
1.39 1.438 9.258 2.787 2.247 13.48 5.034 -5.843 -9.618 -8.793 -8.09 -5.364 -8.178 -17.06 -16.18 -7.191 -4.045
1.395 -6.382 7.281 8.09 8.09 16.9 5.393 -2.337 -0.4494 -4.485 -8.09 -3.605 -9.761 -12.31 -14.74 -5.573 -6.562
1.4 -13.03 0.809 12.31 12.04 10.43 1.978 1.169 7.73 -0.5276 -9.438 -1.935 -9.585 -6.947 -14.29 -4.674 -9.798
1.405 -14.02 -7.011 12.76 12.04 -3.056 -5.213 1.888 11.51 1.055 -11.78 -2.99 -9.409 -2.902 -15.01 -5.753 -14.02
1.41 -7.91 -11.24 8.449 7.551 -14.02 -12.22 -0.8989 9.618 -0.7035 -14.11 -7.738 -11.52 -1.847 -16.81 -9.978 -19.24
1.415 1.888 -9.348 0.5393 0.08989 -14.56 -15.01 -6.742 2.607 -4.748 -15.73 -14.33 -16.36 -5.452 -19.96 -16.9 -24.72
1.42 9.169 -4.135 -8.449 -7.461 -6.292 -13.66 -14.11 -8 -9.321 -16.81 -19.26 -21.81 -13.28 -23.28 -23.91 -28.76
1.425 9.079 -0.809 -15.19 -12.76 1.888 -11.51 -20.76 -19.24 -13.37 -17.26 -20.05 -24.45 -21.9 -24.09 -27.42 -28.76
1.43 2.966 -1.978 -17.08 -14.29 2.247 -11.06 -23.91 -26.52 -16.18 -15.91 -16.71 -22.16 -26.38 -19.87 -25.17 -23.1
1.435 -2.787 -5.034 -14.29 -12.58 -4.494 -11.24 -22.02 -26.34 -16.44 -11.78 -10.73 -15.92 -23.57 -11.33 -17.26 -12.94
1.44 -2.876 -5.393 -8.989 -9.528 -10.7 -8.989 -15.46 -18.34 -13.01 -4.764 -4.221 -8.53 -14.33 -1.888 -6.382 -0.7191
1.445 2.247 -1.438 -4.045 -7.371 -9.438 -3.056 -6.921 -6.382 -7.211 3.326 1.231 -2.638 -2.99 5.213 4.494 10.88
1.45 7.191 3.865 -1.258 -7.101 -1.978 3.416 0 3.506 -1.847 9.528 5.188 0.8793 5.54 8.899 13.75 20.4
1.455 8.09 6.921 -0.5393 -7.91 4.494 5.933 2.697 6.652 1.055 11.96 8.09 3.517 8.442 10.07 20.94 27.06
1.46 6.921 7.191 -0.8989 -8 5.124 3.955 2.067 3.326 1.671 11.33 11.17 7.562 7.386 10.97 26.43 31.37
1.465 9.258 7.73 -0.6292 -6.112 2.966 2.157 1.978 -1.169 1.055 10.88 15.65 14.77 7.035 12.76 30.56 33.53
1.47 17.26 11.33 1.438 -2.427 4.764 5.663 5.843 -0.809 1.143 13.39 21.9 24.71 10.73 15.19 32.81 32.99
1.475 26.16 17.71 5.303 2.247 11.96 14.38 13.57 6.292 4.309 17.44 28.58 33.77 17.59 16.27 31.73 27.42
1.48 28.49 23.46 10.16 7.281 17.71 22.47 21.21 16.9 10.99 18.88 32.27 37.2 23.3 14.38 25.89 15.73
1.485 21.03 25.53 14.56 11.51 14.47 23.73 24.36 24.81 17.32 14.38 29.46 31.48 23.65 8.989 14.56 -1.079
1.49 8.899 23.55 16.54 13.12 2.787 16.81 20.67 24.9 17.94 4.315 18.55 16.8 16.62 0 -0.6292 -19.24
1.495 0.5393 19.24 14.11 10.34 -8.629 5.933 10.7 16.18 10.64 -7.64 2.55 -2.814 3.517 -12.13 -16.72 -33.98
1.5 -0.5393 13.93 7.371 3.236 -11.15 -3.416 -2.157 2.157 -1.319 -17.44 -13.1 -21.02 -11.52 -24.45 -29.75 -41.53
1.505 1.348 7.191 -0.6292 -4.854 -3.865 -8.629 -13.12 -10.97 -11.87 -22.74 -22.95 -31.66 -22.86 -32.36 -36.76 -40.36
1.51 0 -0.3596 -5.483 -9.528 6.022 -9.978 -18.25 -17.62 -15.3 -23.19 -24.8 -32.18 -26.47 -32.09 -36.85 -32.54
1.515 -4.944 -5.663 -4.854 -8.629 10.97 -8.27 -16.45 -16.27 -9.936 -19.87 -19.43 -23.92 -21.81 -23.64 -31.37 -22.47
1.52 -8.36 -5.124 -0.9888 -4.494 9.169 -3.865 -9.798 -9.528 0.7035 -14.11 -10.11 -11.52 -11.87 -10.88 -22.56 -13.75
1.525 -5.483 1.438 1.618 -2.427 5.034 2.787 -2.337 -1.618 9.761 -7.011 -0.8793 0.1759 -0.3517 1.798 -12.85 -7.461
1.53 1.438 9.708 0.1798 -5.663 2.876 9.169 2.337 4.315 12.49 -0.2697 5.452 8.002 9.849 11.69 -3.685 -2.247
1.535 5.393 13.48 -4.494 -12.4 2.787 11.51 3.236 7.461 11.17 4.944 8.617 11.34 16.97 18.25 4.315 3.685
1.54 1.438 9.888 -8.449 -16.9 2.517 8.36 2.067 8.989 11.26 9.079 9.936 11.52 21.37 22.92 11.33 11.51
1.545 -7.91 0.9888 -8 -15.28 1.618 2.427 1.978 10.34 15.56 14.2 11.61 11.08 24.27 26.88 17.62 20.94
1.55 -15.46 -8.09 -3.146 -8.449 2.337 -1.528 4.854 11.78 20.75 21.66 14.68 11.96 26.2 30.2 23.73 30.11
1.555 -16.45 -13.21 2.697 -1.348 5.483 -1.258 9.169 12.31 21.72 29.75 18.99 14.25 26.12 31.28 29.39 36.31
1.56 -11.96 -12.76 6.292 2.337 9.169 2.067 12.04 10.88 16.27 34.7 23.13 16.88 22.95 29.12 34.16 37.84
1.565 -6.292 -7.191 7.281 2.427 11.78 6.562 12.58 8.27 7.298 34.61 25.85 19.08 17.41 23.91 36.94 34.52
1.57 -1.348 2.966 8.18 2.067 14.83 11.78 12.49 6.742 0.9673 31.46 27.35 20.84 11.96 17.08 36.85 28.13
1.575 4.225 16.18 10.52 3.596 21.03 18.61 14.02 7.461 1.847 28.58 28.31 22.34 8.09 9.888 33.26 20.58
1.58 11.51 28.4 13.93 7.011 28.85 25.98 17.35 9.798 8.53 26.88 28.58 22.77 6.155 3.416 26.25 13.75
1.585 17.08 33.71 16.27 9.708 31.91 29.3 19.51 11.69 14.51 23.91 26.03 20.49 5.276 -1.169 16.36 8.18
1.59 15.82 28.22 15.91 9.618 23.46 24.18 17.17 11.69 14.33 15.73 18.38 14.07 4.045 -4.315 4.494 2.787
1.595 6.652 14.65 12.85 7.011 4.494 10.43 8.899 9.079 9.057 1.708 5.892 3.869 1.055 -7.461 -7.73 -4.494
1.6 -4.494 0.4494 8 3.506 -14.92 -5.933 -3.146 4.854 4.221 -13.66 -8.178 -7.562 -3.166 -11.42 -18.79 -14.29
1.605 -10.34 -7.551 2.607 0.5393 -22.02 -16.72 -14.2 0.6292 3.254 -24 -19.43 -16.53 -6.683 -15.19 -26.88 -24.54
1.61 -8.539 -8.36 -1.978 -1.978 -13.03 -18.16 -20.13 -2.247 3.869 -25.98 -25.59 -21.02 -7.386 -16.63 -31.37 -31.64
1.615 -4.135 -6.472 -5.393 -4.584 2.876 -14.2 -20.4 -3.596 2.55 -22.65 -27.26 -22.16 -5.452 -14.83 -32.54 -33.08
1.62 -3.416 -7.101 -7.64 -7.281 11.24 -12.13 -17.89 -3.955 -1.407 -19.87 -26.91 -22.42 -2.286 -10.7 -31.28 -28.76
1.625 -8.27 -11.69 -8.539 -9.618 4.674 -15.73 -15.46 -3.506 -5.628 -19.96 -25.85 -22.6 0.5276 -5.753 -28.13 -20.58
1.63 -13.75 -16.36 -8.18 -10.79 -10.97 -21.84 -14.29 -2.427 -6.595 -20.04 -22.77 -21.02 2.55 -1.438 -22.38 -10.61
1.635 -13.84 -16.27 -7.101 -10.7 -22.74 -23.91 -13.57 -0.9888 -3.166 -15.55 -15.3 -14.68 4.045 2.607 -13.12 -0.1798
1.64 -7.281 -10.07 -5.843 -9.618 -21.3 -17.44 -11.24 0.4494 2.55 -5.034 -2.902 -2.638 6.155 7.461 -0.1798 10.61
1.645 1.079 -0.8989 -4.584 -8.539 -7.64 -4.494 -5.933 2.337 5.979 8 10.82 12.22 9.585 13.84 13.84 21.21
1.65 4.944 5.483 -3.326 -8.36 8.09 8.09 1.079 4.674 4.924 17.71 20.49 24.27 13.1 19.6 24.9 28.94
1.655 1.798 5.393 -2.876 -9.079 14.29 13.21 6.382 5.933 1.231 19.87 22.34 27.87 13.1 20.49 29.12 29.84
1.66 -5.483 -0.7191 -4.045 -10.43 6.652 8.539 6.022 3.506 -1.759 14.92 16.53 21.63 6.947 14.2 25.89 22.2
1.665 -11.96 -8.719 -6.742 -11.69 -8.899 -2.157 -0.08989 -3.596 -4.221 7.461 7.035 8.793 -4.485 3.056 18.25 8.989
1.67 -14.2 -13.66 -9.708 -12.67 -20.94 -11.69 -8.36 -13.48 -8.178 2.337 -1.583 -4.573 -16.53 -7.281 10.97 -3.775
1.675 -11.69 -12.49 -11.69 -13.48 -21.48 -14.74 -14.2 -22.02 -13.54 1.348 -6.859 -14.07 -24.53 -12.58 6.472 -11.6
1.68 -6.202 -6.382 -11.78 -13.93 -11.96 -11.51 -15.37 -25.26 -17.06 2.876 -9.145 -18.29 -26.03 -12.49 4.135 -13.84
1.685 -0.6292 0 -10.25 -13.75 -0.4494 -6.562 -13.21 -21.93 -15.65 3.775 -10.55 -18.73 -22.07 -10.07 1.079 -13.66
1.69 2.247 2.427 -6.921 -11.78 4.944 -4.674 -10.7 -14.56 -9.673 1.618 -12.93 -18.03 -16.27 -9.798 -4.674 -15.19
1.695 1.528 0.2697 -1.798 -7.101 2.157 -7.101 -9.708 -7.101 -2.198 -4.135 -16.09 -17.67 -12.22 -13.57 -12.85 -19.51
1.7 -1.258 -2.876 4.764 0.4494 -4.584 -10.88 -8.899 -1.978 2.902 -12.04 -18.73 -17.67 -10.9 -19.78 -20.4 -23.91
1.705 -3.056 -2.966 12.04 8.899 -9.079 -11.51 -5.573 1.438 3.869 -18.88 -19.35 -16.44 -9.936 -23.82 -24.18 -24.27
1.71 -1.348 0.7191 17.35 14.65 -8.27 -7.281 1.258 5.034 1.847 -21.57 -17.41 -12.66 -7.035 -22.83 -23.01 -19.24
1.715 3.236 5.034 17.8 14.47 -3.775 -0.5393 8.18 8.449 0.2638 -20.22 -13.1 -6.859 -2.462 -17.17 -18.43 -12.13
1.72 7.82 5.843 11.69 7.73 1.258 4.404 10.16 9.258 0.8793 -16.9 -7.826 -0.8793 1.407 -9.888 -13.93 -7.64
1.725 9.079 1.888 0.6292 -2.966 5.573 5.303 5.303 5.573 1.583 -13.93 -3.429 2.99 2.902 -3.775 -12.4 -8.27
1.73 6.742 -3.596 -10.88 -13.66 9.528 3.506 -3.685 -1.618 -0.7035 -11.78 -1.319 3.869 2.022 0.08989 -14.2 -11.87
1.735 3.596 -6.472 -18.79 -20.31 12.31 1.708 -11.6 -8.899 -5.716 -8.989 -0.9673 2.814 0 2.247 -16.27 -14.02
1.74 2.067 -5.034 -21.39 -21.66 11.24 0.9888 -14.74 -12.85 -9.936 -3.955 -0.5276 2.198 -1.231 4.135 -14.47 -10.52
1.745 1.528 -1.978 -19.69 -19.33 4.854 0.6292 -13.21 -12.49 -10.82 2.966 1.319 3.693 -0.7914 7.191 -6.742 -0.809
1.75 -0.6292 -1.528 -16 -16.18 -5.663 -1.169 -9.618 -9.528 -8.969 9.618 4.66 6.859 0.6155 11.06 4.854 11.78
1.755 -5.753 -5.034 -12.4 -14.11 -16.45 -4.944 -6.831 -7.191 -7.035 13.39 7.826 9.409 0.8793 13.3 15.55 21.93
1.76 -11.87 -10.52 -9.708 -12.94 -23.37 -9.169 -5.483 -7.101 -6.947 13.57 9.321 9.233 -1.319 12.22 20.85 25.89
1.765 -15.1 -14.92 -7.551 -11.69 -23.82 -11.06 -4.135 -8 -9.321 12.67 8.705 6.419 -4.836 8.36 20.04 24
1.77 -13.66 -16.72 -5.933 -9.888 -18.07 -9.708 -1.618 -7.91 -12.84 13.39 6.859 2.726 -7.386 4.135 16 18.97
1.775 -9.258 -17.26 -5.393 -7.91 -9.618 -7.011 0.5393 -6.831 -14.77 15.46 4.836 -0.2638 -8.53 1.348 11.78 13.39
1.78 -5.393 -18.07 -6.382 -7.011 -3.685 -6.112 0.08989 -6.382 -13.72 15.82 2.374 -2.814 -8.969 -0.08989 8.36 8.27
1.785 -4.135 -19.06 -8 -7.371 -3.506 -8.36 -3.236 -7.551 -11.17 11.42 -1.583 -5.364 -9.761 -1.798 4.315 3.326
1.79 -4.674 -18.16 -8.36 -8.09 -7.461 -11.33 -6.652 -9.258 -9.409 2.876 -6.595 -7.474 -10.64 -5.213 -1.348 -1.708
1.795 -4.404 -13.3 -6.202 -7.461 -10.34 -10.52 -6.292 -8.989 -8.53 -5.933 -9.673 -7.386 -10.64 -9.888 -7.191 -6.742
1.8 -1.618 -5.034 -2.247 -4.764 -7.011 -3.685 -0.809 -5.213 -6.947 -10.88 -7.914 -3.605 -8.442 -13.3 -10.7 -10.43
1.805 3.056 3.146 1.978 -0.9888 3.236 6.562 6.831 1.079 -3.957 -10.34 -1.759 2.902 -4.133 -13.03 -10.07 -11.6
1.81 7.73 7.461 4.944 1.978 14.65 13.84 11.51 6.831 -0.8793 -7.191 4.309 8.354 0.1759 -9.438 -6.921 -10.52
1.815 10.88 6.562 5.663 2.787 18.7 12.58 8.719 8.449 0.9673 -5.933 5.012 8.354 1.583 -5.573 -4.494 -8.449
1.82 11.33 2.427 3.955 1.258 11.15 2.697 -1.079 5.303 1.495 -8.719 -0.8793 1.847 -0.4397 -3.775 -4.944 -6.202
1.825 8.36 -1.888 0.5393 -1.618 -3.685 -9.708 -12.58 0.2697 0.7035 -12.58 -9.233 -7.035 -2.99 -2.966 -7.281 -2.517
1.83 2.427 -4.404 -2.876 -4.494 -15.91 -16.45 -18.43 -2.427 -0.7035 -12.76 -13.01 -12.13 -2.286 -0.08989 -8.629 3.596
1.835 -4.225 -4.764 -4.764 -5.753 -17.26 -13.12 -14.56 -0.7191 -1.671 -6.652 -8.09 -9.497 2.55 5.753 -6.742 11.24
1.84 -7.64 -2.966 -3.596 -4.584 -6.652 -1.798 -2.517 4.764 -1.055 3.506 3.429 -0.7035 8.969 11.78 -2.067 16.99
1.845 -5.213 0.7191 1.169 -0.809 9.978 11.15 11.87 11.6 0.3517 13.12 14.68 8.354 13.37 14.38 3.056 17.98
1.85 1.438 5.933 8.18 4.045 24.27 19.51 21.84 17.35 1.231 18.07 19.43 12.49 14.07 12.4 7.191 14.02
1.855 7.551 10.43 13.84 7.82 29.21 19.69 23.19 19.87 1.759 17.8 16.8 10.46 11.78 8.629 10.61 8.27
1.86 8.809 11.51 15.1 8.27 22.92 12.85 16.36 18.43 2.374 14.83 11.08 5.804 8.969 7.281 14.56 4.944
1.865 4.944 7.91 11.15 4.674 9.708 3.955 6.831 13.75 2.374 12.94 7.914 3.869 8.09 10.61 19.87 6.652
1.87 0.2697 1.978 4.764 -1.348 -2.067 -1.348 1.079 8 0.4397 14.38 9.761 6.947 9.057 16.09 25.8 11.78
1.875 -0.4494 -1.798 -0.7191 -7.011 -5.843 -0.2697 1.888 3.416 -2.99 18.16 14.95 12.93 9.673 18.43 30.11 16.18
1.88 3.596 -0.2697 -3.326 -10.16 -0.9888 5.663 6.921 1.169 -5.716 21.57 19.35 17.15 7.914 14.56 31.1 16.9
1.885 8.809 5.573 -3.416 -10.43 6.921 11.96 11.33 1.438 -5.892 21.75 19.61 17.06 4.221 7.011 28.4 14.65
1.89 10.61 11.33 -2.607 -9.528 10.97 14.29 11.69 3.236 -3.078 17.44 15.12 13.37 0.6155 0.7191 22.92 11.87
1.895 8.449 13.39 -2.067 -8.18 8.09 11.96 8.27 5.303 1.671 9.258 8.266 8.969 -1.319 -1.528 15.64 9.798
1.9 6.112 11.96 -1.978 -6.022 1.528 7.82 3.955 6.831 6.595 -0.3596 2.286 5.628 -1.495 -0.809 7.191 7.64
1.905 7.73 10.34 -0.8989 -2.067 -1.978 5.843 2.157 8.18 8.53 -7.64 -0.7914 3.341 -0.5276 -0.4494 -1.438 3.685
1.91 14.2 11.51 1.798 3.596 1.169 7.91 3.596 9.528 5.979 -9.978 -0.8793 0.6155 0.3517 -2.517 -8.989 -2.966
1.915 21.3 15.1 5.483 8.989 8.629 11.87 6.202 10.16 0.9673 -7.551 0.9673 -3.078 0 -7.011 -13.84 -11.15
1.92 23.64 18.25 7.73 11.15 14.47 14.29 7.101 8.809 -2.726 -3.596 3.166 -7.298 -2.11 -11.69 -15.64 -18.25
1.925 18.16 17.17 6.831 8.629 15.01 13.21 5.393 5.124 -3.693 -1.169 3.957 -10.64 -5.012 -13.93 -14.92 -21.75
1.93 6.382 10.79 2.697 2.247 11.33 9.079 2.067 0.3596 -3.078 -1.438 2.55 -12.49 -7.562 -13.3 -13.03 -20.94
1.935 -6.382 1.258 -3.326 -5.393 6.472 3.775 -1.348 -3.775 -2.462 -3.146 -0.1759 -12.84 -9.321 -11.24 -10.43 -16.99
1.94 -14.29 -7.101 -9.258 -11.69 2.247 -0.809 -3.865 -6.202 -2.198 -4.135 -2.11 -11.61 -9.761 -9.079 -6.472 -11.51
1.945 -14.02 -10.88 -12.76 -15.19 -0.5393 -3.146 -4.584 -6.022 -1.847 -2.966 -1.055 -8.002 -7.562 -6.562 -0.5393 -5.124
1.95 -6.652 -8.719 -12.58 -15.46 -1.169 -2.157 -2.607 -3.146 -0.8793 0.6292 3.341 -1.495 -2.022 -2.697 6.921 1.438
1.955 3.326 -2.607 -8.719 -12.49 0.8989 1.708 1.708 1.438 1.143 5.753 10.11 6.331 5.188 2.067 14.02 7.191
1.96 10.88 4.135 -2.157 -6.382 6.112 7.101 6.831 6.472 3.693 11.15 16.8 12.66 10.9 5.573 18.52 10.25
1.965 13.12 8.629 5.843 1.978 13.21 11.96 11.24 10.61 4.836 16.36 20.66 14.95 12.22 5.663 19.42 9.528
1.97 10.88 10.43 13.66 10.43 20.04 14.56 13.48 12.67 2.902 20.22 19.79 11.96 8.09 1.348 16.36 4.674
1.975 8.09 11.42 19.06 16.09 23.64 14.38 12.58 11.42 -1.495 20.04 13.98 4.485 -0.8793 -6.742 9.708 -4.135
1.98 8.539 13.03 19.6 17.08 21.57 11.33 8.09 6.112 -6.331 13.39 3.957 -5.364 -12.31 -16.54 -0.2697 -15.82
1.985 12.4 14.65 14.29 12.94 13.03 5.843 0.6292 -2.337 -10.64 0 -8.002 -15.3 -22.69 -24.99 -12.67 -28.04
1.99 15.82 13.48 4.764 5.124 0 -1.438 -8.36 -10.97 -14.6 -16.27 -19.26 -22.42 -29.19 -28.94 -24.63 -37.3
1.995 14.11 8.27 -5.393 -3.416 -13.48 -9.079 -16.9 -16.9 -16.97 -29.66 -26.56 -25.15 -30.51 -27.24 -32.54 -40.27
2 5.573 0.6292 -12.67 -10.16 -22.02 -14.65 -22.92 -18.43 -16.18 -35.42 -28.14 -23.21 -26.38 -19.96 -33.71 -34.88
2.005 -6.292 -6.022 -15.73 -13.93 -22.29 -16.45 -25.17 -16.18 -12.05 -32.27 -24.62 -17.94 -17.67 -8.539 -28.31 -21.84
2.01 -15.37 -9.618 -15.82 -15.19 -15.55 -14.38 -23.19 -12.04 -6.859 -23.1 -18.38 -11.34 -6.243 3.685 -19.06 -5.393
2.015 -17.08 -10.52 -15.01 -15.37 -7.64 -10.7 -17.89 -7.91 -2.726 -12.85 -11.17 -4.748 4.221 12.58 -9.169 8.809
2.02 -11.6 -10.16 -14.2 -14.65 -3.865 -7.101 -10.43 -4.135 -0.7914 -4.944 -3.254 1.847 11.17 15.37 -0.4494 16.99
2.025 -3.865 -9.079 -11.69 -12.31 -4.584 -4.045 -1.528 0.1798 -1.407 0.8989 5.1 9.145 14.07 12.76 7.461 19.78
2.03 0.9888 -6.472 -5.933 -7.64 -5.933 -0.7191 7.281 5.483 -3.869 6.562 13.28 16.71 14.33 8.27 15.46 20.4
2.035 1.169 -1.978 1.708 -1.438 -4.494 2.787 13.57 9.888 -5.804 12.76 19.17 22.42 13.45 5.124 22.83 21.3
2.04 -0.8989 2.697 7.64 3.775 -0.6292 5.124 15.37 11.06 -4.836 17.89 21.28 24.36 12.4 5.124 27.78 22.38
2.045 -2.157 4.674 8.539 5.124 3.146 5.933 13.48 9.079 -0.8793 20.13 20.05 22.69 11.87 7.64 28.85 22.02
2.05 -1.708 2.697 5.034 2.157 6.022 6.382 11.06 6.292 3.517 19.6 17.85 19.43 11.52 10.25 26.7 19.06
2.055 -1.438 -1.528 0.2697 -2.787 8.449 8.09 10.07 4.764 5.892 17.44 16.71 16.44 9.673 10.16 23.55 13.57
2.06 -2.966 -4.944 -2.876 -6.562 10.34 9.978 9.258 3.685 5.012 14.65 15.83 13.01 4.573 6.022 20.67 6.921
2.065 -5.393 -6.292 -4.225 -8 9.438 8.809 5.303 0.809 1.319 10.7 11.52 6.947 -3.429 -0.5393 17.08 0.2697
2.07 -5.483 -6.742 -5.393 -8.09 2.966 1.528 -3.416 -4.854 -2.726 3.865 0.7914 -3.517 -12.13 -6.472 9.798 -6.652
2.075 -1.258 -7.461 -7.461 -8.36 -8.719 -10.61 -14.65 -11.33 -3.605 -6.742 -15.12 -17.23 -18.47 -9.348 -2.876 -14.38
2.08 5.124 -7.73 -9.079 -8.36 -20.94 -21.75 -22.38 -14.29 0.3517 -19.42 -30.69 -29.99 -20.31 -8.719 -19.42 -21.57
2.085 8.809 -6.202 -7.64 -6.562 -26.61 -24.99 -21.75 -11.42 6.243 -29.3 -38.95 -36.76 -17.15 -5.753 -34.16 -24.54
2.09 6.112 -2.787 -2.427 -2.247 -22.2 -18.07 -12.4 -3.955 8.969 -31.73 -36.32 -34.38 -10.73 -2.247 -40.45 -20.04
2.095 -0.9888 0.4494 3.596 2.697 -10.7 -5.124 0.4494 3.596 7.035 -25.62 -24.09 -23.74 -3.429 0.3596 -34.88 -8.809
2.1 -6.921 0.9888 6.562 5.124 0.9888 6.562 10.25 7.91 3.341 -14.56 -7.562 -8.969 3.254 2.427 -20.04 4.674
2.105 -7.371 -1.618 5.034 3.326 7.82 12.04 13.3 9.079 1.231 -3.865 6.595 4.836 9.321 5.213 -3.056 14.83
2.11 -3.506 -5.573 0.8989 -1.079 8.809 11.15 10.7 8.809 1.583 2.607 14.16 13.63 13.98 8.449 8.629 18.07
2.115 0 -7.91 -2.787 -5.034 6.022 6.652 5.213 7.371 2.462 3.775 14.6 15.74 14.68 9.708 11.78 14.47
2.12 0.2697 -7.011 -5.034 -6.292 1.888 1.978 -0.08989 3.416 2.022 2.067 10.82 12.75 9.761 7.281 8.719 8.27
2.125 -1.258 -3.865 -6.562 -5.843 -0.809 -0.5393 -3.596 -3.685 -0.4397 1.079 6.771 7.826 1.055 2.787 5.483 4.584
2.13 -1.438 -1.258 -8.629 -6.202 -0.3596 -0.809 -5.124 -11.69 -3.605 2.966 4.924 4.221 -6.595 0.08989 6.472 6.022
2.135 -0.08989 -1.888 -11.33 -8.809 2.067 -0.3596 -6.382 -17.35 -5.1 6.652 5.1 2.814 -10.02 1.528 11.51 11.15
2.14 -1.079 -7.011 -13.93 -12.31 3.056 -1.618 -9.169 -18.52 -4.133 9.348 5.012 2.286 -8.969 5.303 16.45 15.64
2.145 -8.18 -15.64 -15.46 -14.47 -0.1798 -5.393 -13.66 -15.82 -2.902 9.528 2.726 1.055 -6.067 7.371 17.17 15.64
2.15 -20.04 -24.09 -15.28 -14.38 -6.831 -10.34 -17.26 -11.6 -4.045 8.09 -1.319 -1.231 -4.485 4.764 12.85 10.34
2.155 -29.03 -27.24 -13.57 -12.31 -12.31 -12.94 -16.99 -8.449 -7.035 7.011 -4.66 -4.133 -5.54 -1.978 6.202 1.438
2.16 -27.6 -22.11 -10.97 -9.528 -12.58 -10.97 -12.85 -7.371 -8.617 6.562 -5.628 -6.947 -8.266 -8.989 0.5393 -7.64
2.165 -15.19 -10.61 -7.64 -6.382 -7.64 -5.303 -7.91 -8 -7.123 4.764 -5.276 -9.673 -10.82 -11.87 -3.326 -14.38
2.17 0.2697 1.258 -3.685 -2.427 -1.978 0.1798 -6.022 -8.809 -3.078 -0.7191 -6.507 -12.84 -12.13 -10.25 -7.191 -18.34
2.175 8.809 7.281 0.5393 2.697 0.6292 2.787 -8 -8.18 1.935 -9.888 -10.38 -16.09 -12.57 -7.191 -13.21 -20.85
2.18 6.022 6.022 4.404 8.629 0.7191 2.876 -10.25 -4.944 7.211 -18.7 -14.68 -18.11 -12.22 -6.022 -20.85 -22.74
2.185 -4.135 1.258 7.101 13.03 2.607 3.685 -7.91 1.169 10.9 -22.11 -16.09 -17.32 -9.673 -7.101 -26.79 -23.1
2.19 -13.57 -1.978 8.27 13.75 8.18 6.742 -0.5393 7.73 10.9 -18.16 -13.98 -13.98 -4.748 -8.449 -27.87 -20.67
2.195 -16.27 -1.618 7.101 10.07 12.76 9.169 6.472 10.61 6.243 -10.34 -10.82 -10.73 -0.08793 -8.899 -23.55 -16.27
2.2 -11.96 0.6292 3.506 3.865 9.978 6.921 6.742 7.281 -1.143 -4.315 -9.936 -9.409 1.055 -9.169 -16.09 -11.96
2.205 -5.124 1.798 -0.6292 -1.708 -0.1798 -0.4494 0.2697 0.2697 -8.266 -2.157 -11.26 -9.233 -1.495 -9.798 -8.18 -9.348
2.21 -0.1798 1.079 -3.056 -4.045 -9.438 -7.64 -6.292 -4.315 -10.99 -0.9888 -10.55 -6.771 -4.836 -10.16 -0.3596 -7.91
2.215 1.438 0.2697 -2.876 -3.236 -9.258 -8.36 -6.112 -2.697 -7.035 3.146 -3.781 0.6155 -4.924 -8.629 7.73 -6.022
2.22 1.079 0.9888 -1.978 -1.708 0.2697 -1.618 1.348 2.966 1.759 10.61 8.266 11.7 -0.7914 -4.494 15.91 -2.247
2.225 0 2.607 -3.056 -2.337 9.888 6.831 9.888 6.382 8.705 17.44 19.26 21.28 4.836 0.9888 21.93 2.607
2.23 -1.528 2.517 -6.382 -5.663 10.43 9.708 13.12 2.966 7.298 19.42 22.77 23.92 7.562 4.494 23.19 5.933
2.235 -3.955 -0.1798 -9.348 -8.989 1.798 4.944 9.708 -5.753 -2.022 16.45 17.67 18.11 4.309 2.876 18.79 5.303
2.24 -6.292 -3.146 -8 -8.27 -7.281 -2.247 4.225 -13.21 -12.05 12.13 8.617 6.683 -3.341 -3.416 10.88 1.079
2.245 -6.921 -2.966 -0.7191 -1.978 -7.64 -5.213 1.708 -13.12 -15.56 9.708 0.6155 -5.012 -10.82 -10.43 2.247 -3.685
2.25 -4.854 1.528 9.618 7.461 0.4494 -2.067 3.146 -5.303 -10.46 8.18 -4.924 -13.19 -14.33 -13.57 -5.393 -6.921
2.255 -0.9888 7.551 17.26 15.28 8.18 2.697 4.584 4.315 -0.8793 2.966 -10.02 -17.15 -13.81 -12.22 -12.67 -9.079
2.26 2.157 10.7 17.71 17.53 7.281 3.596 2.427 8.899 6.859 -7.91 -15.74 -17.85 -11.78 -9.348 -20.13 -12.67
2.265 2.427 8.36 11.24 13.48 -1.079 0.08989 -2.517 6.831 8.53 -20.49 -20.31 -16.09 -9.673 -7.73 -26.88 -18.52
2.27 -0.5393 2.337 2.157 5.663 -8 -3.236 -6.652 1.618 4.573 -27.42 -20.49 -11.96 -7.123 -8.18 -30.47 -24.36
2.275 -4.674 -2.787 -4.764 -1.888 -6.921 -2.247 -7.281 -1.798 0.08793 -25.35 -15.04 -5.979 -3.429 -8.629 -29.21 -26.61
2.28 -7.371 -3.596 -7.281 -6.022 0 2.427 -5.034 -0.8989 -0.08793 -17.71 -6.683 0.8793 1.759 -6.382 -22.92 -22.56
2.285 -7.191 -0.1798 -5.573 -5.124 5.213 6.472 -2.067 3.955 4.485 -11.15 0.7035 7.738 8.53 0.1798 -13.57 -12.4
2.29 -4.764 4.404 -0.809 0 4.404 7.011 0.9888 11.15 10.9 -9.169 5.276 14.6 16.44 9.798 -3.056 0.8989
2.295 -1.348 7.73 5.213 7.371 0.3596 5.753 4.674 18.43 16.27 -9.798 8.178 20.93 24.01 19.06 6.292 13.48
2.3 1.348 9.079 10.79 13.75 -0.5393 6.652 8.989 23.55 19.61 -8.809 11.08 25.5 29.37 24.9 13.12 22.2
2.305 1.798 9.079 13.84 16.27 4.404 11.69 12.85 25.17 20.05 -3.596 13.63 26.64 31.13 26.43 16.45 26.52
2.31 -0.6292 8.18 12.67 13.21 12.04 17.8 14.47 22.83 17.15 4.404 14.25 23.92 29.11 24.9 16.9 27.15
2.315 -4.584 6.112 6.921 5.663 15.64 19.69 12.58 17.35 12.49 11.42 12.4 18.55 23.83 21.93 16.18 25.26
2.32 -6.742 2.517 -1.528 -3.146 12.04 14.47 8.18 10.61 8.969 14.47 9.145 12.75 17.5 18.79 16.09 22.02
2.325 -4.584 -1.528 -8.989 -9.708 4.404 4.764 4.225 5.124 7.738 13.57 5.716 8.002 12.31 16.27 16.18 18.79
2.33 1.348 -4.584 -11.6 -11.69 -1.888 -4.045 2.517 1.978 7.035 10.52 2.022 3.517 8.617 14.11 14.47 15.73
2.335 7.101 -5.124 -8.539 -9.438 -4.404 -8 2.966 0.3596 4.397 6.742 -2.55 -1.935 4.836 11.24 9.348 12.31
2.34 8.36 -3.056 -2.787 -5.393 -4.764 -7.011 3.146 -1.528 -0.7914 3.326 -7.562 -8.09 -0.3517 7.281 2.157 8.539
2.345 3.685 0 1.528 -2.157 -4.944 -3.416 1.618 -4.674 -6.947 1.258 -10.82 -12.05 -5.452 3.506 -3.056 5.753
2.35 -3.955 2.337 1.618 -1.258 -4.315 0.2697 -1.079 -8.09 -10.46 1.348 -10.11 -10.99 -7.386 2.337 -3.056 5.393
2.355 -10.16 2.876 -1.978 -1.978 -1.438 2.876 -3.865 -10.25 -8.09 2.517 -5.804 -5.452 -4.836 4.045 1.438 7.191
2.36 -12.31 1.528 -6.472 -2.607 3.236 3.506 -5.483 -10.25 -0.4397 2.607 -0.9673 0.5276 0.3517 6.921 6.202 8.899
2.365 -11.42 -0.9888 -7.82 -1.528 7.191 2.337 -5.213 -7.461 7.211 0.6292 0.9673 2.99 4.573 7.73 6.831 8.449
2.37 -9.438 -3.326 -4.315 1.618 7.371 0.2697 -2.966 -2.697 9.497 -2.697 -0.4397 1.319 5.452 4.854 2.787 5.303
2.375 -7.101 -3.326 2.517 5.843 3.685 -0.7191 0.6292 2.787 6.507 -5.753 -2.462 -1.407 2.99 -0.6292 -2.697 1.348
2.38 -3.146 0.4494 9.258 9.888 -0.9888 1.079 4.674 7.461 2.902 -7.011 -1.583 -1.055 0.4397 -5.213 -6.382 -0.6292
2.385 2.697 6.831 13.48 12.94 -2.067 6.382 8.899 10.88 2.814 -5.483 2.814 3.429 1.231 -5.663 -6.831 0.4494
2.39 8.449 12.13 15.01 14.56 2.966 13.57 13.03 13.48 5.892 -1.348 8.442 9.321 5.892 -2.337 -5.663 2.607
2.395 11.6 13.03 15.46 15.37 12.22 19.24 16.72 15.73 9.057 4.764 11.87 12.31 10.82 0.1798 -4.404 1.528
2.4 11.51 9.798 16.54 16.27 20.31 20.49 19.15 17.53 9.849 10.79 11.78 10.29 12.4 -1.798 -3.596 -5.393
2.405 9.618 5.933 18.34 17.62 23.1 17.53 19.6 18.7 8.442 14.02 8.442 4.924 10.02 -7.191 -3.146 -15.82
2.41 7.82 4.584 19.33 18.34 19.42 12.04 17.26 18.61 6.683 12.13 2.902 -0.4397 6.419 -11.06 -3.236 -24.54
2.415 5.753 5.213 16.63 15.82 10.97 5.573 11.24 15.82 6.419 4.854 -3.693 -4.133 3.957 -9.348 -4.674 -27.06
2.42 1.798 4.225 8.449 8 1.258 -1.618 1.528 9.348 7.035 -4.494 -10.38 -6.771 2.99 -2.787 -7.281 -22.38
2.425 -4.584 -1.258 -3.326 -4.135 -6.022 -8.809 -8.899 0.4494 5.364 -10.61 -15.04 -8.969 2.374 4.494 -9.079 -12.76
2.43 -10.97 -9.079 -13.39 -15.55 -8.27 -13.75 -14.74 -7.101 0.1759 -9.258 -15.04 -9.849 1.847 8.539 -7.461 -1.978
2.435 -13.48 -13.21 -16.18 -19.33 -5.483 -13.93 -12.76 -9.348 -5.1 -1.438 -8.969 -7.474 2.462 9.258 -1.528 6.831
2.44 -10.7 -9.798 -10.07 -12.13 -0.2697 -8.719 -4.045 -4.764 -4.748 7.73 0.7035 -1.495 5.628 9.708 6.112 12.58
2.445 -5.663 -1.258 1.348 2.337 4.135 -1.348 5.663 3.955 2.286 12.67 8.793 5.188 11.08 12.49 11.24 15.28
2.45 -3.506 4.854 11.6 15.19 5.483 3.146 10.43 11.24 10.9 11.15 9.936 8.266 15.83 15.91 10.7 14.92
2.455 -6.382 3.056 15.28 19.24 2.966 1.348 7.73 12.22 14.51 4.674 3.869 5.1 15.39 15.28 4.764 11.42
2.46 -11.6 -5.753 11.87 13.84 -2.697 -5.483 0.6292 6.292 10.55 -3.146 -4.924 -2.374 8.178 7.73 -2.787 5.933
2.465 -14.29 -15.1 4.854 4.764 -9.079 -12.49 -5.303 -2.607 1.407 -9.079 -10.99 -9.409 -2.198 -3.685 -8.27 0.6292
2.47 -12.4 -18.88 -1.169 -1.708 -13.12 -15.19 -7.191 -9.528 -7.562 -11.6 -11.78 -12.13 -10.46 -12.67 -9.618 -1.978
2.475 -7.91 -15.64 -4.764 -3.685 -12.49 -12.85 -6.742 -12.49 -11.7 -11.42 -8.793 -10.46 -13.54 -15.28 -7.371 -2.157
2.48 -4.315 -8.539 -6.742 -3.056 -6.742 -7.82 -7.371 -12.85 -9.849 -9.708 -5.012 -7.035 -12.49 -12.76 -3.146 -1.618
2.485 -2.876 -1.348 -7.73 -2.697 1.798 -3.056 -9.798 -12.04 -5.276 -7.461 -2.286 -4.221 -9.761 -9.528 1.438 -1.978
2.49 -1.708 3.596 -7.011 -2.876 9.169 0.3596 -11.06 -10.52 -2.022 -5.483 -0.3517 -2.11 -7.035 -8.449 5.124 -3.685
2.495 0.9888 6.112 -4.225 -2.067 10.52 2.157 -8.809 -7.73 -1.407 -5.393 0.8793 -0.4397 -4.748 -9.169 6.112 -5.933
2.5 3.865 5.933 -0.3596 0.1798 4.135 1.978 -4.225 -3.955 -1.671 -8.539 0.4397 0 -2.55 -8.27 2.787 -6.742
2.505 2.247 2.067 2.427 2.697 -6.831 -0.809 -0.8989 -0.08989 -1.319 -14.56 -3.781 -2.11 0.5276 -3.146 -4.764 -4.854
2.51 -6.382 -5.034 3.056 3.775 -16.18 -5.933 -1.079 2.787 -0.08793 -20.13 -11.34 -7.035 4.397 5.124 -13.93 -0.4494
2.515 -19.51 -12.94 2.247 3.506 -19.78 -11.42 -3.775 4.584 2.022 -21.75 -18.2 -12.57 7.562 12.31 -20.13 4.674
2.52 -29.48 -17.8 0.9888 2.517 -18.43 -15.37 -5.843 5.393 4.221 -17.62 -19.87 -15.56 8.969 14.83 -20.04 9.079
2.525 -30.02 -17.62 -0.7191 0.7191 -15.46 -16.09 -5.124 5.034 4.485 -9.438 -15.21 -14.25 8.442 13.21 -14.11 11.96
2.53 -20.94 -13.3 -3.506 -2.966 -12.13 -13.57 -2.157 3.236 1.319 -0.809 -7.211 -9.497 6.771 10.52 -5.663 13.57
2.535 -7.73 -7.371 -7.011 -7.82 -6.921 -8.449 0.7191 0.4494 -2.726 5.034 0.3517 -3.517 5.012 9.438 1.438 14.2
2.54 2.427 -2.247 -8.539 -10.07 1.978 -1.618 2.517 -1.169 -2.99 7.551 5.804 2.814 4.573 10.52 6.022 14.65
2.545 5.303 0.7191 -4.674 -5.213 12.58 5.213 4.854 1.348 2.814 8.09 10.11 10.11 7.386 12.94 9.708 16.27
2.55 1.438 1.258 4.944 6.652 19.15 10.16 9.528 8.899 11.96 8 13.98 18.38 13.72 15.91 13.93 19.87
2.555 -4.854 -0.08989 15.46 19.51 16.36 11.06 15.1 17.26 18.11 6.742 16.36 24.27 20.49 18.25 17.62 24.36
2.56 -8.719 -2.157 19.96 25.35 5.483 7.551 17.53 20.13 16.71 3.146 14.51 23.13 22.6 18.88 17.62 26.25
2.565 -7.64 -3.506 15.73 21.21 -5.393 1.978 13.57 14.29 7.65 -1.798 7.123 12.75 16.71 16.54 11.78 22.2
2.57 -2.517 -3.506 6.472 11.87 -9.079 -2.607 3.955 2.697 -3.781 -5.303 -3.605 -3.605 4.133 10.43 1.528 10.79
2.575 2.966 -2.697 -0.9888 5.753 -6.022 -5.393 -7.64 -8.18 -10.02 -6.022 -13.37 -19.08 -10.2 1.258 -8.989 -5.573
2.58 5.303 -2.427 -2.697 7.101 -3.596 -7.64 -16.36 -12.58 -7.298 -5.663 -19.17 -27.52 -20.05 -7.82 -15.46 -21.03
2.585 3.326 -3.326 0 12.49 -7.461 -10.52 -19.33 -9.618 1.055 -7.371 -21.02 -26.82 -21.02 -12.85 -16.9 -29.66
2.59 -0.2697 -4.674 2.966 15.01 -14.38 -12.67 -16.36 -2.427 8.09 -12.13 -20.66 -19.52 -13.98 -11.78 -15.37 -28.94
2.595 -1.708 -4.764 3.326 11.33 -16 -11.33 -9.888 3.775 9.585 -16.9 -18.73 -10.29 -3.869 -6.472 -13.57 -21.48
2.6 1.438 -3.236 1.888 4.764 -7.73 -5.483 -3.416 5.933 7.035 -17.08 -14.68 -2.814 3.693 -0.7191 -12.4 -11.96
2.605 7.64 -0.9888 0.9888 0.9888 6.022 2.157 0.5393 4.135 3.605 -10.97 -8.354 1.847 6.771 3.056 -10.7 -3.416
2.61 12.85 0 1.438 2.247 15.28 7.191 1.888 0.6292 0.7914 -1.618 -1.495 4.133 6.771 4.764 -6.562 3.506
2.615 14.29 -0.08989 1.528 5.393 13.75 7.011 1.618 -2.517 -0.9673 5.393 3.693 4.924 5.892 5.393 0.1798 9.348
2.62 11.87 -0.2697 -0.6292 5.843 4.404 3.146 1.888 -4.315 -1.759 7.91 6.771 5.628 5.716 5.843 8.449 14.56
2.625 7.101 0.2697 -3.416 2.697 -3.775 -0.08989 4.584 -3.236 -0.7035 8.629 9.145 7.738 7.738 7.64 16.54 19.42
2.63 0.9888 0.3596 -2.876 -0.3596 -4.494 -0.4494 10.07 1.258 3.078 12.22 12.49 12.05 12.84 11.96 23.28 24.45
2.635 -5.753 -1.798 2.517 0.5393 0.4494 0.7191 16 7.73 9.761 19.24 16.44 17.15 19.7 17.98 27.69 29.57
2.64 -11.51 -6.652 9.618 5.124 4.225 0 19.06 12.76 16.8 25.26 18.2 19.96 25.41 23.37 29.03 33.89
2.645 -13.3 -12.13 12.76 8.719 2.247 -3.955 17.53 13.3 19.35 25.35 15.21 18.03 26.73 24.81 26.97 34.79
2.65 -9.438 -15.01 9.079 7.101 -4.225 -9.169 12.49 8.899 14.25 19.42 7.826 11.34 21.9 19.96 21.57 29.3
2.655 -1.888 -14.38 1.618 1.438 -11.24 -13.03 6.112 2.247 4.573 11.42 -0.4397 2.198 11.96 9.978 13.75 16.36
2.66 4.404 -12.04 -3.506 -2.427 -16.18 -14.56 0.4494 -2.787 -2.726 5.303 -6.771 -6.595 0.7035 -1.079 4.764 -0.7191
2.665 4.854 -10.97 -1.438 0.5393 -18.7 -15.01 -3.236 -3.326 -3.605 1.348 -11.08 -13.54 -6.947 -8.27 -5.034 -16
2.67 -0.1798 -11.6 6.831 10.52 -18.7 -15.01 -4.764 0.4494 -0.08793 -3.865 -15.21 -18.55 -8.617 -9.528 -15.37 -23.91
2.675 -5.034 -11.06 16.18 21.84 -15.64 -13.3 -3.865 6.112 3.781 -12.67 -19.87 -21.81 -5.716 -7.281 -25.62 -23.73
2.68 -3.506 -6.022 21.21 28.13 -9.169 -7.73 -0.809 10.79 5.804 -23.01 -22.77 -22.51 -0.9673 -4.854 -33.17 -18.25
2.685 5.483 3.506 20.76 26.79 -0.3596 2.067 4.494 14.2 7.035 -28.67 -20.22 -18.64 4.397 -2.607 -34.7 -10.61
2.69 16.72 13.3 17.08 19.96 8.27 13.39 11.42 16.99 9.321 -24.72 -10.82 -9.409 10.55 0.9888 -28.04 -2.337
2.695 22.47 18.43 12.58 11.96 14.74 21.48 17.26 18.88 13.28 -11.6 2.814 3.254 16.53 7.011 -14.02 6.022
2.7 19.69 17.26 8 5.753 18.61 23.55 18.79 17.98 16.27 4.674 15.39 14.68 19.43 13.12 2.876 13.75
2.705 11.24 12.67 2.876 2.427 21.03 20.4 14.29 12.58 13.98 17.71 21.98 20.31 16.71 15.46 17.08 18.79
2.71 3.865 8.629 -1.888 1.348 22.11 14.74 5.393 3.416 5.012 24.36 20.93 18.55 8.09 11.96 24.54 19.24
2.715 2.337 7.101 -5.124 1.618 20.13 8.989 -3.955 -6.652 -6.595 25.44 15.21 12.13 -3.078 4.225 25.8 15.37
2.72 6.112 6.292 -6.292 2.067 13.84 3.865 -9.169 -13.57 -14.25 24.09 10.02 6.683 -10.9 -2.787 24.72 11.15
2.725 9.708 3.056 -6.292 1.079 5.573 0 -6.652 -14.38 -14.25 23.46 9.497 7.65 -9.585 -3.775 25.71 12.22
2.73 7.281 -4.045 -6.562 -1.888 0.4494 -1.258 2.787 -8.36 -7.65 24.9 14.6 16 2.022 3.416 30.47 20.76
2.735 -3.236 -13.66 -7.551 -5.393 1.348 0.5393 14.29 1.978 2.902 26.7 22.16 27.44 19.08 15.73 36.85 33.08
2.74 -17.98 -22.02 -7.461 -5.663 5.663 3.955 21.84 12.94 14.51 26.25 27.08 34.73 33.5 27.42 40.36 41.89
2.745 -29.39 -26.34 -3.416 0.3596 8.18 6.202 22.47 21.3 23.65 22.65 25.41 32.62 39.13 33.62 37.93 41.35
2.75 -31.1 -25.35 5.483 12.04 6.022 5.573 18.07 25.08 26.64 17.35 17.15 21.28 34.21 31.73 29.3 30.38
2.755 -22.02 -19.78 16.63 24.9 1.169 2.966 12.58 23.55 22.51 12.85 6.155 5.276 20.75 22.2 16.99 12.4
2.76 -7.64 -11.06 24.54 32.72 -1.888 1.258 8.449 16.81 13.81 9.978 -3.078 -9.849 2.99 7.461 3.775 -7.371
2.765 3.955 -1.888 25.08 32.18 -0.8989 2.067 5.124 6.382 4.221 6.742 -9.321 -21.1 -13.98 -7.91 -8.899 -24.36
2.77 7.91 5.213 18.52 24.63 1.438 3.865 0.4494 -4.764 -3.605 0.1798 -14.16 -28.05 -26.56 -19.69 -20.85 -35.96
2.775 5.573 9.169 8.899 14.92 0.2697 3.416 -6.112 -13.66 -8.266 -11.24 -19.7 -31.57 -32.98 -25.53 -31.82 -41.44
2.78 2.876 10.25 1.348 8.36 -6.831 -0.6292 -12.4 -17.8 -9.936 -25.08 -25.15 -31.48 -32.62 -25.53 -40.27 -40.54
2.785 4.225 9.978 -1.348 6.652 -16.27 -6.112 -13.93 -16.36 -9.585 -35.42 -27.17 -26.2 -25.59 -21.39 -43.51 -33.53
2.79 8.899 9.528 0 7.64 -21.75 -8.539 -8.449 -9.888 -8.354 -37.48 -22.6 -14.95 -13.45 -15.19 -39.46 -21.66
2.795 12.67 9.528 2.247 8.18 -20.04 -5.483 1.708 -1.258 -5.892 -30.92 -11.26 0.3517 0.1759 -8.899 -27.96 -7.551
2.8 12.67 10.52 3.236 6.652 -12.58 1.528 11.24 6.472 -2.462 -19.24 3.166 15.21 11.26 -2.966 -11.51 5.753
2.805 10.97 13.12 3.416 4.584 -2.247 9.258 15.55 11.15 0.08793 -6.742 15.3 25.06 17.23 3.056 5.213 16.45
2.81 11.69 17.62 4.854 4.045 8.809 15.19 13.93 12.4 0.4397 4.045 21.19 27.26 18.38 9.618 17.8 23.73
2.815 15.91 21.84 7.64 5.483 18.7 17.89 8.449 10.88 0.4397 12.49 20.49 22.77 16.27 15.73 24.27 27.42
2.82 19.33 21.75 9.079 7.101 23.46 16.72 1.978 8.18 3.166 18.34 16.09 15.04 13.45 19.96 25.98 28.13
2.825 15.19 13.57 6.742 6.022 19.51 11.42 -2.787 5.843 8.53 21.12 11.34 8.002 12.31 22.29 25.8 27.42
2.83 0.9888 -2.067 1.258 1.618 7.101 2.787 -4.584 5.124 12.4 21.03 8.002 3.781 13.01 22.74 25.53 26.16
2.835 -17.8 -18.79 -3.775 -3.416 -7.281 -6.472 -3.596 5.303 10.82 18.16 5.628 0.7035 12.84 20.67 23.73 22.74
2.84 -32 -28.13 -4.764 -5.034 -14.38 -12.85 -1.348 4.854 4.485 13.12 1.847 -5.012 8.442 14.65 16.9 14.65
2.845 -34.79 -25.71 -1.169 -1.528 -9.169 -13.84 0.8989 2.607 -2.55 7.191 -5.364 -15.48 -1.055 4.584 2.966 0.6292
2.85 -26.88 -14.56 3.596 4.315 3.506 -10.43 1.708 -0.9888 -6.067 1.528 -15.48 -28.4 -13.1 -7.011 -15.37 -17.35
2.855 -14.29 -2.517 4.944 7.73 12.58 -6.831 0.1798 -4.674 -5.276 -3.865 -25.06 -38.51 -22.86 -16.9 -32.09 -33.98
2.86 -3.056 4.135 0.809 5.483 8.809 -7.101 -3.596 -6.831 -2.99 -10.52 -30.16 -40.45 -26.47 -21.84 -40.9 -43.6
2.865 3.955 4.494 -5.393 -0.8989 -6.472 -11.51 -7.91 -6.292 -3.341 -19.06 -29.46 -32.62 -22.42 -21.12 -40.36 -43.06
2.87 7.281 2.337 -8.449 -6.742 -23.19 -16.09 -10.16 -2.966 -7.914 -28.58 -24.36 -18.38 -12.93 -16.54 -33.44 -34.43
2.875 8.09 1.708 -6.022 -7.73 -31.1 -16.54 -9.079 1.618 -13.1 -35.87 -17.06 -3.429 -2.902 -12.13 -24.81 -23.19
2.88 7.281 4.045 -0.3596 -3.775 -27.15 -10.88 -5.303 4.854 -14.25 -36.76 -8.705 7.474 2.99 -10.7 -16.99 -14.47
2.885 5.663 7.371 3.506 1.618 -14.92 -0.5393 -0.4494 5.303 -11.08 -28.49 0.8793 13.45 3.693 -12.04 -9.079 -9.348
2.89 4.494 9.528 2.697 3.685 -0.2697 10.88 3.955 3.056 -7.386 -12.67 11.43 16.62 0.8793 -13.66 0.6292 -5.034
2.895 5.303 9.798 -2.247 0.7191 12.94 19.42 7.101 -0.2697 -5.892 4.584 21.28 19.43 -2.638 -13.21 12.49 1.708
2.9 7.551 8.809 -7.91 -5.034 22.02 22.2 8.449 -3.685 -6.243 16.36 27.52 22.51 -4.924 -9.528 24.36 12.31
2.905 8.629 7.011 -10.88 -9.528 25.17 18.61 8.27 -6.562 -6.859 19.78 28.58 24.97 -4.924 -2.876 33.08 24.72
2.91 5.843 3.955 -10.34 -9.888 20.67 10.25 6.742 -9.618 -7.123 17.89 24.62 24.71 -3.341 4.854 36.67 34.79
2.915 -0.9888 -0.4494 -8.09 -6.292 9.528 0.2697 4.315 -13.84 -7.211 15.46 18.11 20.05 -2.198 11.06 35.42 38.83
2.92 -8.539 -5.034 -6.831 -1.348 -3.326 -7.191 1.978 -18.43 -7.298 15.55 11.78 11.43 -2.286 13.48 30.74 36.22
2.925 -12.58 -7.73 -7.011 2.067 -10.52 -9.079 1.798 -20.4 -6.771 18.16 7.298 1.759 -2.286 13.03 24.63 30.02
2.93 -10.97 -8 -7.011 2.787 -7.191 -4.674 5.483 -16.72 -4.748 21.39 5.1 -4.66 0.2638 12.22 18.61 23.82
2.935 -5.303 -6.652 -5.034 1.888 4.045 2.787 11.96 -7.191 0 23.73 5.276 -5.716 5.628 12.31 13.48 18.79
2.94 0.7191 -5.124 -1.079 1.438 14.83 8.449 17.8 4.225 6.859 24 6.507 -3.078 10.9 12.4 8.899 13.48
2.945 3.596 -4.494 3.685 2.427 17.35 8.719 19.33 12.49 12.4 21.75 6.243 -0.8793 12.93 10.43 4.045 5.663
2.95 2.697 -3.955 7.551 4.584 10.79 3.955 15.46 14.56 12.93 16.54 2.374 -3.078 9.761 5.034 -2.247 -4.674
2.955 0 -1.978 9.528 6.831 2.157 -1.438 8.27 11.69 8.793 8.18 -4.836 -9.321 2.638 -2.787 -10.52 -16.09
2.96 -0.4494 2.427 9.798 8.809 -0.08989 -2.517 1.798 7.461 3.781 -2.157 -12.31 -15.65 -4.748 -10.16 -20.04 -25.71
2.965 4.225 9.348 10.34 11.06 7.101 2.787 -0.2697 6.202 1.143 -12.49 -16.88 -17.76 -8.354 -14.29 -29.3 -31.28
2.97 14.92 17.44 13.03 14.29 17.8 11.06 2.697 9.528 1.671 -21.93 -18.29 -14.77 -6.419 -14.29 -36.76 -32.27
2.975 28.58 25.17 18.16 18.61 20.85 15.73 8.36 15.82 4.485 -31.37 -18.99 -9.761 -0.7035 -11.78 -40.9 -28.85
2.98 39.91 31.1 24.18 22.74 9.888 12.4 13.21 22.29 8.969 -40.81 -20.4 -5.364 6.595 -8.36 -40.18 -21.12
2.985 43.6 33.62 28.4 25.17 -9.798 3.685 16 26.88 13.72 -46.65 -20.31 -0.7035 14.42 -3.506 -32.36 -8.989
2.99 37.84 31.55 29.03 24.9 -24.45 -2.607 17.8 28.94 16.88 -43.42 -14.07 8.002 22.42 3.326 -17.08 5.933
2.995 25.44 24.99 25.8 22.2 -23.37 -0.1798 19.24 27.87 17.5 -29.03 0.6155 21.37 28.4 10.43 2.697 19.78
3 12.49 16.27 19.51 18.07 -7.91 9.708 19.24 22.38 14.95 -8.719 18.91 33.94 28.58 14.11 21.03 28.04
3.005 4.584 8.899 12.22 13.21 10.34 19.42 15.82 12.4 8.881 8.539 31.3 37.55 20.84 12.4 31.73 28.76
3.01 3.416 6.112 5.483 8 20.4 22.02 8.539 -0.08989 0.4397 16.9 31.3 28.49 7.298 7.101 33.17 23.55
3.015 6.472 8.36 -0.2697 2.337 19.78 16.72 -0.6292 -11.33 -6.947 17.62 21.19 11.43 -6.947 2.157 28.67 16
3.02 8.809 12.49 -5.843 -3.506 13.75 8.629 -8.36 -18.43 -10.02 16.72 9.321 -3.957 -16.8 0.4494 23.73 9.258
3.025 6.112 12.76 -11.87 -9.258 8.629 2.787 -12.49 -20.67 -9.145 18.79 2.374 -10.82 -19.61 1.888 21.03 4.404
3.03 -1.978 5.213 -17.62 -14.56 6.292 -0.1798 -13.39 -20.04 -7.738 22.74 0.4397 -10.2 -16.8 4.045 18.88 1.348
3.035 -11.51 -7.91 -22.02 -18.88 4.764 -3.326 -13.03 -18.88 -8.002 24.09 -0.6155 -8.09 -12.13 4.494 14.2 -0.7191
3.04 -16.45 -19.42 -23.55 -21.03 3.326 -7.461 -12.31 -17.26 -8.354 20.76 -3.078 -8.617 -7.738 3.416 6.652 -1.708
3.045 -13.21 -22.02 -21.21 -19.78 4.494 -9.798 -9.708 -13.03 -5.892 15.73 -4.573 -9.849 -2.726 2.966 -0.4494 -0.5393
3.05 -3.865 -14.56 -14.83 -14.56 9.618 -6.562 -3.236 -4.494 0.08793 13.3 -1.583 -7.035 4.573 4.494 -3.056 2.787
3.055 5.483 -2.966 -6.022 -6.382 14.65 1.079 5.663 6.292 7.738 13.75 5.54 1.319 13.28 6.742 -0.4494 6.652
3.06 9.528 4.854 2.337 2.247 12.94 7.82 13.03 15.01 13.54 13.03 12.22 10.99 20.14 7.281 4.225 8.09
3.065 8 5.303 8.18 8.27 3.146 8.719 15.1 17.89 14.42 8.18 13.45 16.27 22.42 5.213 6.742 5.843
3.07 4.944 1.528 10.79 10.34 -7.551 4.494 12.13 15.55 10.73 0.4494 8.53 14.68 19.87 1.618 5.303 0.809
3.075 4.674 -0.3596 10.97 9.258 -10.79 -0.08989 7.101 11.15 6.683 -6.472 1.055 8.442 14.42 -1.528 1.169 -4.854
3.08 7.73 2.157 9.888 7.461 -5.663 -1.978 2.697 7.73 6.683 -10.88 -5.012 1.495 8.969 -2.966 -3.326 -8.629
3.085 11.33 6.831 8.539 6.292 0.5393 -1.618 0.1798 6.382 10.29 -13.93 -9.057 -3.693 5.892 -1.618 -6.742 -8.809
3.09 12.85 9.258 7.551 5.933 0.1798 -1.528 -0.809 6.382 13.45 -16.99 -12.05 -7.123 5.452 2.517 -9.169 -6.022
3.095 12.76 8.09 7.011 5.843 -6.382 -2.157 -0.7191 6.292 13.63 -19.15 -14.07 -9.233 5.364 7.371 -10.88 -2.337
3.1 12.67 5.573 7.101 6.022 -11.69 -1.528 0.7191 5.393 11.26 -17.53 -13.81 -10.46 2.814 9.708 -11.87 -0.2697
3.105 12.04 3.865 7.64 6.562 -9.528 1.708 3.685 3.775 7.914 -11.51 -10.99 -10.82 -3.254 7.101 -11.6 -0.4494
3.11 8.36 3.236 7.82 7.011 -2.157 5.124 6.652 1.258 3.693 -4.225 -7.386 -10.64 -11.26 0.3596 -9.978 -1.528
3.115 0.8989 1.798 5.933 6.112 1.348 4.315 6.562 -2.787 -1.759 -0.5393 -5.276 -10.73 -18.55 -7.82 -6.921 -2.517
3.12 -7.191 -1.169 0.5393 2.427 -4.404 -2.247 0.8989 -9.079 -8.09 -1.888 -4.573 -10.55 -23.04 -13.93 -3.056 -3.236
3.125 -10.97 -4.584 -7.101 -3.685 -14.92 -10.88 -8.899 -16.36 -14.16 -4.944 -3.693 -9.585 -24.36 -16.27 0.5393 -4.584
3.13 -8.989 -6.652 -13.84 -9.888 -19.96 -15.46 -18.88 -22.2 -18.38 -5.483 -1.671 -7.826 -23.83 -15.46 2.697 -7.191
3.135 -4.764 -7.101 -16.63 -13.03 -13.84 -13.57 -24.45 -24.45 -18.47 -2.876 0.5276 -6.859 -23.13 -13.93 2.247 -10.61
3.14 -2.697 -6.562 -14.29 -11.6 -0.9888 -7.82 -23.37 -22.2 -13.63 -0.3596 1.319 -7.386 -22.07 -13.12 -0.1798 -12.67
3.145 -3.416 -5.573 -8.449 -6.652 9.258 -2.337 -15.91 -15.55 -6.067 0.3596 0.7914 -7.65 -17.67 -11.51 -2.247 -10.79
3.15 -3.416 -3.506 -1.169 -0.809 12.04 1.258 -4.315 -5.393 0.6155 0.4494 1.671 -4.221 -7.738 -7.371 -1.618 -4.135
3.155 0.4494 0.3596 5.213 3.865 8.989 3.955 7.191 5.753 4.836 1.798 5.628 3.693 5.804 -0.8989 1.438 5.034
3.16 6.472 4.854 9.708 6.921 5.303 6.472 14.56 14.56 7.474 3.056 10.29 12.13 17.76 5.663 3.775 12.85
3.165 9.798 7.371 11.87 8.27 4.135 7.91 15.91 18.52 9.409 1.169 10.55 14.68 23.3 10.34 1.528 16.09
3.17 7.64 6.562 11.69 7.73 4.584 6.472 12.13 17.08 9.936 -5.034 3.341 7.914 21.02 12.13 -6.022 13.75
3.175 3.326 3.775 9.528 5.483 3.775 2.337 5.843 11.51 8.178 -12.85 -8.793 -5.892 13.1 10.61 -16.27 6.382
3.18 2.337 1.888 5.843 2.517 0 -2.607 -0.6292 4.225 4.748 -17.62 -19.79 -20.4 3.605 6.112 -25.08 -3.775
3.185 5.933 1.888 1.618 0 -5.573 -6.742 -6.112 -1.708 0.7035 -17.8 -25.41 -29.55 -2.99 0.6292 -30.02 -13.3
3.19 9.708 1.798 -2.157 -1.978 -10.7 -9.978 -9.978 -4.494 -2.11 -16.18 -26.2 -31.74 -4.66 -2.697 -31.55 -19.06
3.195 8 -1.169 -5.483 -4.404 -14.38 -13.84 -12.4 -4.494 -2.55 -17.35 -25.06 -29.11 -2.286 -2.697 -30.92 -19.6
3.2 0.08989 -7.101 -8.36 -7.64 -16.45 -18.7 -13.39 -4.045 -0.9673 -21.84 -24.01 -24.36 0.4397 -0.809 -28.22 -16
3.205 -8.27 -12.58 -9.438 -9.978 -16.99 -21.93 -12.49 -4.944 -0.5276 -25.35 -22.16 -18.82 0.3517 -0.1798 -21.93 -10.25
3.21 -10.97 -13.3 -6.831 -8.36 -16.09 -20.49 -9.438 -7.011 -3.781 -22.74 -18.03 -12.49 -3.693 -3.056 -11.51 -3.955
3.215 -6.472 -7.91 -0.2697 -1.438 -14.65 -14.29 -5.303 -8.449 -8.881 -14.2 -11.87 -6.331 -10.11 -8.539 0.7191 1.978
3.22 0.809 0.6292 7.551 8.09 -14.29 -6.472 -1.708 -7.91 -11.43 -4.854 -5.892 -1.847 -14.86 -12.67 10.25 7.461
3.225 5.213 7.461 12.04 14.47 -15.01 -0.8989 0.2697 -4.944 -9.057 0 -2.55 0.1759 -14.33 -11.42 13.39 11.78
3.23 4.764 9.169 10.79 13.66 -14.38 1.169 1.079 -0.8989 -3.957 -0.7191 -2.11 0.7914 -7.914 -5.034 9.798 13.84
3.235 2.247 6.921 5.303 7.011 -10.61 1.258 1.258 2.067 0.6155 -4.584 -3.254 1.231 0.3517 1.978 2.157 12.4
3.24 1.618 4.494 0 0.4494 -4.674 1.798 0.8989 2.966 3.693 -8.449 -4.309 2.198 6.155 5.213 -5.753 8
3.245 3.775 4.674 -1.528 -0.8989 0 3.326 0.3596 2.697 6.331 -10.16 -4.748 3.605 8.354 4.854 -11.42 3.326
3.25 6.292 7.011 0.8989 3.056 1.079 4.944 -0.08989 3.146 9.761 -8.629 -4.485 4.836 9.057 4.404 -13.66 0.2697
3.255 6.292 8.539 3.955 8.27 -0.8989 4.944 -0.9888 4.225 14.16 -3.506 -3.341 5.1 10.11 6.202 -12.58 -1.438
3.26 3.865 7.011 4.404 10.25 -3.236 2.697 -3.146 4.315 17.15 3.865 -1.407 3.781 10.29 8.36 -8.809 -4.135
3.265 1.708 3.056 2.067 8.449 -3.506 -1.528 -6.742 1.708 15.21 10.43 -0.3517 0.08793 6.859 7.101 -3.865 -8.18
3.27 1.798 -0.6292 -0.5393 5.303 -2.787 -6.921 -10.7 -3.685 6.419 12.04 -2.374 -5.979 -0.9673 1.079 0.6292 -11.33
3.275 2.966 -1.708 -1.079 3.865 -4.584 -12.76 -13.39 -10.07 -5.628 7.101 -7.386 -12.4 -10.46 -6.472 3.506 -10.43
3.28 2.067 0 0.3596 4.764 -10.07 -17.35 -12.94 -14.29 -13.89 -1.528 -11.87 -15.21 -15.48 -9.618 5.303 -3.865
3.285 -2.697 2.787 2.966 6.921 -15.01 -17.98 -8 -12.94 -12.93 -7.461 -10.73 -10.38 -10.82 -4.494 7.551 6.382
3.29 -8.719 5.034 6.382 9.438 -12.4 -11.96 1.079 -4.584 -2.814 -5.663 -1.759 2.638 2.814 6.202 11.69 15.37
3.295 -10.43 6.562 11.15 12.58 -0.4494 0.08989 11.87 8.809 12.31 2.337 12.66 19.26 18.91 15.1 16.99 18.52
3.3 -4.404 8.18 16.9 16.54 14.74 13.57 20.13 22.02 25.32 10.25 26.03 32.36 28.84 15.91 21.03 14.56
3.305 6.562 9.528 21.3 20.04 23.28 22.11 22.92 29.12 29.37 12.04 32.01 36.32 29.19 9.079 20.85 6.472
3.31 15.01 9.169 21.39 20.31 19.33 21.39 18.97 26.97 21.37 6.112 27.79 30.07 21.98 0.6292 15.64 -1.079
3.315 14.65 5.933 15.73 15.46 5.034 11.33 9.348 16.81 5.979 -4.674 14.95 16.62 11.87 -4.045 6.472 -5.663
3.32 5.753 0.8989 6.112 6.831 -12.49 -3.685 -3.685 3.506 -7.65 -16.63 -1.935 0.7035 2.726 -3.865 -4.225 -7.281
3.325 -5.124 -3.506 -2.876 -1.528 -26.16 -17.53 -16.45 -7.011 -13.1 -26.25 -18.03 -13.1 -3.869 -1.618 -13.3 -7.011
3.33 -11.33 -5.303 -7.011 -5.843 -31.91 -24.9 -24.72 -11.69 -10.2 -30.74 -28.49 -21.46 -7.298 0.08989 -18.43 -5.663
3.335 -10.16 -4.315 -6.022 -5.124 -28.67 -23.19 -25.98 -11.06 -3.254 -27.78 -29.72 -22.95 -7.562 1.169 -18.07 -3.236
3.34 -4.854 -2.157 -3.146 -1.618 -16.54 -13.21 -20.31 -8.449 3.781 -16.09 -20.75 -18.2 -4.924 2.966 -12.67 -0.08989
3.345 -0.2697 -0.7191 -2.427 0.6292 3.326 1.348 -10.88 -6.112 8.178 2.607 -4.924 -9.936 -0.4397 6.202 -4.135 2.607
3.35 0.4494 -0.7191 -5.303 -0.4494 26.16 14.65 -2.337 -4.854 9.233 22.56 10.64 -2.286 3.254 8.539 4.404 3.416
3.355 -1.798 -2.067 -10.43 -4.404 42.16 20.58 1.079 -4.854 7.298 35.78 19.26 1.231 2.99 7.101 10.43 1.438
3.36 -5.034 -4.225 -14.83 -8.18 41.71 15.82 -1.348 -6.022 3.166 36.67 18.11 0.3517 -1.847 1.708 12.94 -1.438
3.365 -8 -7.281 -15.55 -9.169 23.1 2.966 -6.472 -7.461 -2.462 26.25 10.46 -1.847 -7.474 -3.236 13.03 -1.888
3.37 -10.88 -10.52 -11.51 -6.652 -4.135 -10.52 -8.899 -7.371 -7.65 11.6 2.726 -0.9673 -8.705 -2.787 12.58 2.427
3.375 -12.67 -11.96 -3.775 -1.798 -25.71 -16.72 -5.663 -4.225 -9.233 0.5393 0.6155 5.276 -3.517 3.326 13.57 9.888
3.38 -11.06 -8.899 4.404 3.416 -31.28 -12.49 1.258 1.258 -5.276 -3.056 4.836 14.77 4.573 10.79 16.45 16.54
3.385 -3.685 -0.7191 9.708 7.281 -20.58 -1.079 7.551 6.022 1.231 -0.6292 11.26 22.25 10.29 13.93 19.96 19.06
3.39 8 8.899 9.618 8.449 -2.517 9.888 9.348 6.562 3.957 3.326 14.07 23.04 9.321 10.61 21.75 17.44
3.395 18.16 13.93 3.775 6.022 11.33 14.02 6.112 0.9888 -0.5276 4.674 10.46 16.09 1.319 2.337 19.42 13.48
3.4 19.78 9.708 -5.933 -0.08989 13.75 9.708 -0.08989 -8.989 -9.849 1.888 1.935 4.485 -10.29 -7.461 12.31 9.079
3.405 10.43 -2.427 -15.55 -8.449 5.393 0.7191 -5.843 -18.61 -18.55 -3.865 -7.474 -6.243 -20.31 -15.28 2.157 5.034
3.41 -4.404 -15.91 -20.85 -15.82 -7.101 -7.371 -8.899 -23.01 -22.07 -10.25 -14.42 -12.31 -24.45 -18.97 -7.191 1.079
3.415 -14.65 -22.92 -19.78 -18.61 -16.54 -11.51 -9.528 -20.58 -18.99 -15.73 -17.59 -13.19 -22.07 -18.16 -12.4 -2.787
3.42 -13.21 -20.31 -13.66 -14.65 -18.52 -11.87 -8.899 -13.39 -10.82 -19.42 -17.67 -11.61 -15.48 -13.48 -12.22 -5.213
3.425 -2.517 -12.04 -6.022 -5.393 -13.03 -10.16 -7.91 -4.764 -1.407 -19.42 -15.56 -9.849 -7.562 -6.472 -7.91 -4.674
3.43 8 -5.303 -0.3596 4.045 -3.236 -7.73 -6.472 2.427 5.012 -14.11 -11.43 -8.354 -0.3517 0.8989 -1.798 -0.7191
3.435 10.61 -4.315 1.169 8.719 5.933 -4.494 -4.315 6.472 7.123 -3.596 -4.66 -5.804 5.276 6.742 4.315 4.764
3.44 5.663 -7.64 -0.809 6.292 10.52 -0.3596 -1.528 7.461 5.892 9.348 4.485 -0.8793 10.2 11.51 10.34 10.7
3.445 0.2697 -10.61 -3.865 -0.6292 10.16 4.404 2.337 7.461 2.726 21.39 14.33 6.507 16.36 17.35 16.81 17.62
3.45 -0.1798 -10.34 -5.034 -7.191 7.82 8.809 8 8.899 -0.8793 29.93 22.6 15.12 24.27 25.53 23.64 26.61
3.455 2.787 -8.09 -3.326 -9.618 6.292 11.6 14.83 12.22 -2.814 34.43 27.7 22.95 31.74 33.17 29.57 37.03
3.46 3.146 -7.281 -0.6292 -8 6.562 12.13 20.31 15.37 -1.495 35.51 29.72 28.05 35.09 35.42 33.17 45.48
3.465 -2.427 -9.169 0.8989 -4.944 7.461 11.15 21.84 16 1.935 33.8 29.19 29.81 32.62 30.56 33.62 48.09
3.47 -9.528 -11.51 0.8989 -2.517 7.91 9.798 18.79 13.3 4.836 29.66 26.56 28.58 25.76 21.48 31.01 43.6
3.475 -10.34 -10.97 0.8989 0.2697 7.91 8.899 12.58 8.809 5.804 22.56 21.81 24.71 17.5 12.76 25.44 33.26
3.48 -1.708 -6.562 2.607 5.573 7.461 8.09 5.933 5.663 5.892 12.49 14.77 18.38 9.497 6.921 16.54 20.4
3.485 10.52 -0.9888 6.562 13.48 6.202 6.112 1.079 5.663 6.331 0.7191 5.276 9.497 2.55 3.056 4.135 7.82
3.49 17.26 1.438 10.43 20.58 3.056 1.708 -1.528 7.64 6.683 -10.43 -6.067 -1.407 -3.693 -1.169 -10.88 -3.416
3.495 14.47 -0.2697 11.24 22.2 -2.697 -5.034 -3.775 8.27 6.419 -19.33 -17.5 -13.28 -9.497 -7.011 -26.07 -13.75
3.5 6.831 -4.135 7.64 17.08 -9.528 -12.4 -6.921 4.944 5.276 -25.08 -26.38 -24.01 -14.16 -13.21 -38.11 -23.28
3.505 2.607 -6.292 1.888 8.539 -13.03 -17.26 -10.16 -0.9888 3.166 -27.06 -30.95 -31.57 -16.71 -17.8 -44.94 -31.37
3.51 5.393 -5.124 -1.618 2.157 -9.888 -17.17 -11.42 -5.753 0 -25.89 -31.66 -35.35 -17.41 -20.67 -46.92 -37.75
3.515 11.51 -2.157 -0.2697 1.798 -2.247 -13.21 -9.978 -6.472 -3.166 -23.37 -30.6 -36.14 -18.38 -23.46 -46.29 -42.7
3.52 14.38 0 4.584 6.562 3.416 -8.719 -7.82 -4.045 -5.188 -22.29 -29.63 -35.26 -21.1 -26.52 -44.94 -46.2
3.525 11.06 -0.1798 9.169 11.96 1.708 -6.831 -7.371 -1.438 -6.331 -23.55 -29.28 -32.45 -23.83 -27.33 -42.43 -46.2
3.53 4.944 -2.157 9.798 13.66 -6.202 -7.371 -9.528 -1.169 -7.914 -25.71 -27.35 -25.94 -22.95 -22.92 -36.49 -40.09
3.535 1.618 -3.146 5.483 10.34 -13.84 -7.551 -12.76 -3.146 -9.673 -25.8 -21.37 -15.04 -16.71 -13.57 -25.17 -27.15
3.54 3.955 -1.348 -1.708 3.775 -15.37 -4.764 -14.38 -5.303 -10.02 -21.57 -10.64 -1.319 -6.859 -3.056 -9.258 -9.528
3.545 9.348 2.337 -8.09 -2.876 -10.61 0.7191 -12.22 -5.393 -8.442 -12.67 2.374 11.7 3.078 5.213 8.449 8.719
3.55 13.21 6.022 -11.24 -7.73 -3.955 6.382 -6.022 -2.427 -5.452 -0.3596 14.25 21.54 10.64 10.88 24.63 24.27
3.555 13.84 8 -10.79 -9.888 0 9.618 2.157 2.067 -1.671 12.67 23.21 28.05 15.12 15.64 37.21 35.15
3.56 13.3 8.629 -8.629 -9.528 1.169 10.25 9.528 6.382 2.902 24.09 29.72 33.15 17.5 20.85 45.39 41.35
3.565 14.47 8.989 -6.112 -7.64 3.056 10.61 14.02 9.798 7.386 32.27 34.47 37.9 19.17 25.8 48.99 43.51
3.57 16.45 8.989 -3.506 -5.034 8 12.31 15.37 12.58 9.936 36.67 37.02 40.98 20.58 28.04 47.64 42.25
3.575 14.74 7.101 -1.079 -2.337 13.84 14.11 14.02 14.56 10.02 37.03 35.79 39.31 20.31 25.44 41.53 36.94
3.58 5.483 1.618 0.4494 -0.3596 15.37 12.94 9.798 14.38 8.53 33.26 29.81 30.69 16.62 18.43 32 27.78
3.585 -9.169 -6.652 0 0.3596 10.25 7.281 2.876 10.34 5.979 26.25 19.7 16.44 9.409 9.258 20.94 15.64
3.59 -21.21 -14.38 -3.056 -0.3596 1.528 -0.9888 -6.022 2.427 2.022 16.81 7.123 0.3517 -0.9673 0.1798 9.438 1.888
3.595 -22.11 -17.17 -7.461 -1.888 -5.573 -8.18 -15.82 -8 -2.814 5.483 -5.628 -14.16 -13.63 -8.539 -2.787 -12.58
3.6 -10.7 -12.85 -10.88 -2.697 -8.36 -11.06 -24.09 -17.71 -7.123 -7.101 -16.97 -25.24 -26.91 -16.9 -16.18 -26.7
3.605 5.393 -2.966 -10.43 -1.258 -7.461 -9.079 -27.33 -23.01 -10.2 -19.06 -25.15 -31.92 -36.58 -23.28 -29.3 -37.48
3.61 15.64 8.449 -4.944 2.697 -5.213 -3.955 -23.19 -21.03 -11.61 -27.24 -28.67 -32.8 -37.81 -24.63 -38.65 -41.35
3.615 14.74 17.53 3.955 8.09 -3.865 1.618 -12.31 -11.96 -10.02 -29.66 -25.94 -26.73 -28.84 -19.87 -40.9 -36.58
3.62 6.921 22.56 12.76 13.21 -3.865 5.753 1.348 1.348 -3.869 -26.34 -16.88 -13.72 -11.87 -10.79 -35.06 -24.81
3.625 0.809 23.37 18.61 16.45 -3.506 8.36 13.39 15.01 5.804 -18.7 -3.166 4.221 7.826 -0.5393 -22.83 -10.07
3.63 1.258 20.58 20.31 17.44 -0.1798 10.88 21.03 25.35 15.3 -8.18 12.13 23.13 24.62 8 -7.73 3.056
3.635 5.843 15.46 18.43 16.27 7.191 14.47 23.82 29.39 20.14 3.506 26.12 38.34 34.38 13.21 7.461 12.04
3.64 8.09 9.888 14.02 13.21 16.81 19.15 23.1 26.16 17.76 14.47 36.58 46.6 35.7 15.01 20.85 16.99
3.645 4.584 5.663 8.629 8.539 24.99 23.46 20.76 17.53 8.705 22.74 42.3 47.48 30.6 14.47 31.19 20.31
3.65 -1.798 3.685 3.955 3.326 28.31 25.8 18.43 7.73 -2.55 27.33 43.18 43.35 22.69 13.21 37.84 23.82
3.655 -4.854 4.225 1.258 -0.2697 25.71 25.17 16.45 0.7191 -9.497 28.31 40.45 37.2 14.95 12.13 40.54 27.15
3.66 -1.169 6.382 0.5393 -0.7191 19.06 21.84 14.65 -1.528 -8.178 27.06 35.96 31.39 9.409 11.69 40 28.67
3.665 6.202 8.719 1.348 1.348 11.42 17.08 12.94 0.3596 -0.9673 25.26 30.34 26.12 7.474 12.67 37.12 27.96
3.67 10.79 9.528 2.787 3.326 4.494 11.51 11.69 4.584 5.188 23.28 23.48 20.58 9.321 15.19 32.36 25.53
3.675 8.629 7.64 3.506 2.787 -1.708 4.854 10.34 8.629 6.859 20.31 15.12 13.72 13.01 18.43 25.71 22.56
3.68 1.348 3.146 2.697 -0.3596 -7.371 -2.517 7.82 10.34 6.067 15.55 6.067 5.804 15.56 21.03 17.44 19.51
3.685 -5.933 -3.056 -0.4494 -3.955 -9.978 -8.809 3.326 8.809 6.771 10.25 -2.022 -1.671 14.95 21.66 8.989 16.18
3.69 -9.798 -9.169 -5.483 -6.022 -6.472 -11.87 -2.787 4.315 9.321 6.742 -7.474 -7.298 10.38 19.51 1.798 11.96
3.695 -10.52 -12.85 -11.24 -6.292 1.798 -10.61 -9.528 -2.247 10.55 5.213 -9.761 -10.82 2.55 13.39 -3.236 6.112
3.7 -9.978 -12.76 -15.55 -6.112 9.258 -6.831 -14.83 -9.079 7.211 3.775 -9.761 -13.19 -6.243 3.865 -7.101 -0.2697
3.705 -8.36 -8.899 -16.27 -6.652 10.34 -2.697 -16.09 -13.12 -0.6155 0.3596 -8.969 -14.86 -12.66 -5.843 -11.06 -5.124
3.71 -3.775 -2.607 -12.13 -7.011 5.933 0.809 -11.6 -12.13 -9.057 -4.944 -7.914 -14.95 -13.63 -11.33 -15.55 -6.202
3.715 4.764 4.315 -4.674 -4.854 1.528 4.494 -2.427 -6.742 -12.84 -9.618 -6.067 -12.57 -9.321 -10.7 -19.42 -3.596
3.72 14.47 10.25 3.146 1.079 2.247 8.989 8.27 0.5393 -9.761 -11.6 -2.462 -7.562 -2.55 -5.753 -21.03 0.2697
3.725 19.42 14.29 10.07 10.52 7.64 13.66 17.44 7.64 -3.166 -10.52 2.286 -1.055 4.309 -0.5393 -19.42 2.697
3.73 16.54 16.63 17.71 21.48 13.12 17.17 24.18 14.92 2.374 -8.36 6.947 5.54 10.64 1.978 -15.73 2.157
3.735 8.989 18.34 28.04 32.18 14.38 18.7 29.48 23.28 6.155 -7.101 10.55 11.26 16.62 1.888 -11.69 -0.8989
3.74 3.685 20.22 40.54 41.53 11.6 19.15 34.16 32.18 10.82 -6.562 13.28 16 21.98 1.528 -8 -4.854
3.745 4.854 21.66 51.06 48 8.36 19.51 37.84 39.01 17.5 -4.584 15.39 19.87 26.2 3.416 -4.225 -7.281
3.75 10.16 21.03 53.75 48.9 7.64 19.87 38.47 40.54 23.74 0.809 16.88 22.6 28.23 7.82 0.9888 -6.382
3.755 13.75 17.44 45.66 42.25 8.629 18.7 34.34 35.24 25.85 8.539 17.06 23.21 27.52 12.4 7.82 -2.247
3.76 12.04 11.78 29.39 28.85 9.438 14.92 25.71 24.99 22.69 15.46 15.65 20.93 24.71 14.83 14.74 3.775
3.765 6.652 6.472 11.96 13.12 9.618 9.978 15.82 14.29 15.65 18.97 12.93 16.53 21.46 15.01 19.06 10.16
3.77 1.438 2.517 -0.3596 0.5393 10.34 6.022 8.36 6.472 7.914 19.15 9.585 11.26 18.03 14.02 19.24 14.74
3.775 -2.337 -1.079 -6.292 -6.472 10.43 3.506 3.775 1.708 2.814 17.17 6.155 6.067 12.84 12.04 16 15.82
3.78 -6.921 -6.472 -9.798 -9.618 6.382 0.2697 -0.3596 -2.517 2.198 14.11 2.462 0.5276 4.045 8.629 11.6 12.94
3.785 -13.39 -13.3 -14.92 -12.58 -3.236 -5.663 -6.831 -8.18 4.045 10.61 -2.198 -5.892 -6.771 4.225 8.27 7.91
3.79 -18.97 -18.34 -22.11 -16.99 -14.11 -13.57 -15.46 -14.56 3.781 7.551 -7.474 -12.93 -15.65 0.8989 6.382 3.326
3.795 -18.07 -17.44 -27.6 -20.67 -18.79 -19.42 -22.74 -19.33 -0.7035 5.753 -11.87 -18.82 -19.08 0 4.854 0.9888
3.8 -8.809 -9.978 -27.15 -19.42 -13.66 -19.51 -24.9 -20.04 -7.211 5.753 -13.45 -21.63 -16.36 1.528 2.787 0.6292
3.805 4.494 -0.1798 -19.24 -11.78 -2.157 -13.3 -20.04 -15.64 -10.11 7.461 -11.43 -20.05 -9.057 4.135 0.1798 1.528
3.81 14.11 6.562 -6.202 0 7.73 -4.674 -10.34 -7.191 -5.716 9.618 -7.562 -14.95 -0.5276 6.112 -1.708 2.337
3.815 16.36 8.09 7.371 11.6 10.16 1.528 -0.9888 1.888 4.66 9.888 -4.397 -9.497 5.628 6.112 -2.607 1.618
3.82 14.02 7.461 17.62 19.96 5.303 2.876 3.685 7.82 14.86 6.831 -4.045 -6.419 6.947 3.506 -3.326 -1.708
3.825 13.12 8.989 23.19 25.08 -0.9888 1.079 3.775 9.438 17.59 0.6292 -6.419 -6.243 3.957 -1.258 -5.303 -7.82
3.83 15.64 14.11 25.35 28.31 -3.506 0.08989 3.416 8.809 11.52 -6.472 -9.321 -6.683 0.2638 -7.281 -9.169 -15.19
3.835 18.34 19.96 26.43 30.56 -1.528 2.427 6.742 9.618 3.341 -12.31 -9.761 -5.276 -0.7035 -13.21 -14.2 -22.02
3.84 16.54 22.47 27.33 31.01 1.708 7.551 14.2 13.12 0.7035 -16.09 -6.771 -1.847 1.847 -17.89 -19.42 -26.7
3.845 10.34 20.31 27.42 28.31 3.596 12.31 21.21 16.54 3.078 -18.52 -2.902 0.5276 5.012 -20.4 -24.45 -29.48
3.85 4.225 15.64 24.63 21.93 4.225 13.57 21.75 14.83 2.198 -20.94 -2.198 -1.407 3.693 -21.57 -29.57 -31.91
3.855 -3.865 7.91 2.337 4.225 18.88 12.13 5.034 6.292 3.254 12.76 16.8 22.42 16.27 11.24 15.37 6.652
3.86 -1.888 11.42 5.933 7.73 24.18 20.4 10.97 10.88 4.836 22.2 25.76 29.28 19.35 13.12 19.24 12.4
3.865 5.124 15.1 10.16 12.49 25.26 24 13.39 13.93 6.507 25.35 28.93 30.07 19.17 12.49 19.24 15.82
3.87 12.31 16.99 13.39 16.27 21.21 21.12 12.22 14.65 7.826 20.04 25.59 26.2 16.62 10.16 15.91 17.26
3.875 15.28 16.18 14.47 17.17 13.03 12.94 8.629 13.3 7.826 8.449 17.15 20.14 12.93 6.921 10.97 16.45
3.88 13.57 13.12 13.3 15.1 3.146 2.157 3.596 9.528 5.892 -4.854 5.804 12.66 7.562 2.337 5.124 12.13
3.885 9.708 8.629 10.07 11.33 -6.652 -8.27 -2.697 2.517 2.638 -15.91 -6.331 2.902 -0.9673 -4.494 -1.618 3.775
3.89 6.202 2.966 5.124 6.831 -15.73 -16.9 -9.438 -6.921 -1.759 -22.47 -17.5 -9.233 -12.57 -12.94 -9.258 -7.371
3.895 4.404 -3.596 -0.8989 2.337 -23.46 -22.38 -15.46 -16.81 -7.826 -24.45 -25.41 -21.1 -24.62 -20.94 -16.45 -18.34
3.9 3.955 -9.618 -7.191 -1.888 -28.4 -24.36 -19.69 -24.63 -14.77 -22.38 -28.58 -29.46 -34.21 -26.34 -21.21 -26.61
3.905 3.865 -13.12 -12.94 -5.573 -29.39 -22.92 -22.47 -29.48 -20.22 -17.89 -27 -32.36 -39.39 -27.69 -22.56 -30.47
3.91 2.427 -13.57 -17.08 -8.18 -25.62 -19.51 -24.45 -31.28 -22.07 -12.67 -23.3 -31.04 -39.57 -24.54 -21.12 -28.94
3.915 -1.798 -12.76 -18.61 -9.708 -18.07 -15.82 -25.53 -30.29 -20.14 -7.91 -20.31 -27.7 -34.82 -17.44 -18.34 -21.93
3.92 -7.91 -12.31 -17.17 -9.708 -10.07 -12.67 -24.63 -26.79 -15.12 -4.404 -18.47 -23.21 -26.2 -8.36 -14.47 -10.79
3.925 -12.31 -11.96 -12.58 -7.64 -4.854 -9.528 -20.22 -20.13 -8.178 -2.247 -15.65 -16.71 -14.95 -0.2697 -8.989 1.348
3.93 -11.24 -9.348 -5.393 -3.056 -2.517 -4.315 -11.51 -9.978 -1.231 -0.08989 -9.409 -6.683 -2.286 5.124 -1.528 10.79
3.935 -3.955 -2.966 3.326 3.326 0.809 3.775 0.4494 2.697 4.045 3.506 0 5.979 10.38 7.82 7.191 15.19
3.94 5.124 4.944 11.06 9.708 9.258 13.21 11.96 14.65 7.738 8.989 10.29 18.11 20.58 8.36 15.37 14.56
3.945 10.16 9.888 14.83 13.66 22.29 20.13 18.7 21.66 10.82 15.1 18.47 26.38 25.85 7.82 22.2 11.51
3.95 8 8.449 13.57 13.39 34.07 21.66 18.97 22.11 12.57 19.96 22.77 29.9 25.94 7.371 27.51 9.438
3.955 0.7191 1.978 8.629 9.258 36.67 17.89 15.1 17.44 11.52 22.11 23.39 29.9 22.25 7.64 31.28 9.888
3.96 -5.933 -4.494 2.517 3.416 26.52 11.51 10.79 11.24 7.562 20.76 21.37 27.7 16.44 7.551 32.18 10.97
3.965 -8.36 -6.652 -2.157 -1.258 8.629 6.382 8.09 6.112 3.078 16.63 17.85 23.65 9.761 6.112 28.76 9.888
3.97 -7.281 -4.764 -4.674 -3.146 -6.202 4.404 6.562 3.326 0.3517 12.13 13.63 17.32 3.605 3.506 21.57 5.483
3.975 -6.112 -2.966 -4.854 -2.247 -9.618 4.674 4.135 2.067 -0.2638 9.798 8.969 9.233 -0.9673 1.169 13.48 -0.1798
3.98 -7.011 -4.404 -3.506 0.2697 -3.236 4.404 -0.8989 1.169 0.08793 9.438 3.693 0.8793 -3.693 0.1798 7.64 -4.494
3.985 -8.719 -8.27 -1.528 3.056 3.146 1.438 -7.91 -0.6292 0.2638 7.82 -2.55 -6.595 -5.628 0.1798 4.045 -5.843
3.99 -8.18 -10.43 0.4494 4.674 1.169 -3.865 -13.93 -2.966 -1.319 1.708 -10.2 -12.49 -7.298 0.4494 -0.2697 -4.944
3.995 -3.506 -7.551 2.247 4.764 -8.449 -8.719 -16.18 -4.854 -5.1 -8.449 -17.94 -16.71 -8.705 0.2697 -7.91 -3.506
4 4.404 -0.5393 3.685 3.865 -17.98 -10.43 -14.29 -5.483 -8.617 -18.61 -23.3 -19.17 -9.321 -0.5393 -18.25 -3.236
4.005 12.22 6.112 4.674 3.416 -20.49 -9.079 -10.61 -4.674 -8.178 -24 -24.01 -19.79 -9.145 -1.978 -26.97 -4.584
4.01 16.18 8 5.843 5.124 -16.54 -6.921 -7.551 -2.427 -2.99 -22.38 -20.22 -18.38 -7.65 -3.596 -29.84 -7.011
4.015 13.84 4.315 7.91 8.989 -11.6 -5.843 -5.393 0.9888 3.429 -16 -14.42 -15.12 -4.836 -5.213 -25.89 -9.528
4.02 6.562 -0.7191 11.06 13.57 -9.798 -5.843 -2.787 4.854 6.859 -8.989 -8.705 -10.64 -2.022 -7.551 -18.07 -11.78
4.025 -0.9888 -1.798 14.2 16.81 -9.169 -4.225 1.618 7.64 5.452 -3.416 -3.341 -5.54 -0.4397 -10.52 -9.708 -13.21
4.03 -3.056 3.416 16.45 17.53 -4.135 1.348 8.18 8.809 0.8793 2.067 2.902 -0.1759 0 -12.58 -2.247 -12.76
4.035 2.427 11.69 17.26 16 7.101 10.07 15.01 8.629 -3.517 9.978 10.55 5.276 0.5276 -11.78 5.034 -9.528
4.04 11.87 16.45 16.36 13.39 19.06 17.17 18.88 7.64 -4.748 19.96 17.85 9.585 1.495 -7.91 12.67 -3.955
4.045 16.81 13.03 13.57 10.79 22.74 17.44 17.62 6.112 -2.022 28.22 22.07 11.7 2.726 -3.416 19.24 2.067
4.05 11.24 2.067 9.618 8.27 14.56 10.16 12.22 4.404 1.495 30.92 21.54 11.61 4.133 -0.1798 22.83 7.191
4.055 -3.865 -10.25 5.663 5.303 0.5393 0 6.562 3.326 1.935 27.24 17.32 10.73 6.595 1.438 22.65 11.42
4.06 -19.69 -16.72 2.876 1.798 -8.989 -6.202 4.045 3.056 -1.055 19.87 12.66 10.29 9.849 2.427 19.69 15.01
4.065 -26.16 -13.93 1.528 -1.528 -8.899 -5.034 4.854 3.146 -4.397 12.22 9.761 9.761 12.31 3.865 16 17.53
4.07 -20.04 -5.483 0.8989 -4.135 -1.798 0.6292 6.112 2.607 -5.276 6.652 7.826 7.562 12.22 5.753 12.49 17.89
4.075 -7.101 1.798 -0.08989 -5.843 4.674 4.944 4.494 0.6292 -3.957 3.416 4.836 2.374 9.057 7.371 8.809 15.46
4.08 3.146 3.056 -2.067 -7.281 5.303 3.146 -0.7191 -3.056 -2.374 1.079 -0.7035 -5.54 3.429 7.191 3.775 10.34
4.085 4.944 -0.9888 -5.034 -8.629 0.6292 -4.404 -7.551 -7.73 -1.671 -1.618 -8.002 -14.33 -2.726 4.494 -2.787 4.315
4.09 0.1798 -5.663 -7.91 -10.43 -3.865 -12.58 -12.22 -11.78 -2.902 -5.393 -14.86 -21.54 -7.562 0.1798 -10.34 -0.3596
4.095 -3.955 -6.022 -9.528 -12.49 -3.416 -15.64 -12.49 -13.75 -6.419 -8.899 -19.52 -25.5 -10.11 -4.584 -17.26 -3.685
4.1 -1.978 -0.6292 -9.348 -14.11 1.618 -12.13 -9.708 -13.66 -11.08 -10.97 -21.02 -26.29 -12.05 -9.708 -22.47 -7.82
4.105 5.933 7.461 -8.09 -14.11 6.292 -5.303 -7.011 -12.49 -14.33 -11.06 -19.61 -25.24 -15.04 -15.37 -25.26 -15.28
4.11 13.75 13.39 -6.112 -11.33 5.663 -0.3596 -6.112 -10.7 -14.25 -9.618 -16.88 -23.3 -18.47 -20.31 -25.89 -25.17
4.115 15.28 13.84 -3.775 -5.933 -1.169 -0.4494 -5.933 -8.09 -10.64 -8.539 -14.86 -21.02 -19.43 -22.47 -24.72 -33.08
4.12 8.899 9.258 -0.9888 0.2697 -10.61 -4.764 -4.764 -4.315 -4.66 -9.618 -14.42 -18.47 -16.27 -20.67 -22.47 -34.52
4.125 -0.5393 2.966 1.618 5.124 -17.26 -9.438 -1.618 -0.1798 1.847 -13.21 -14.95 -15.48 -9.585 -15.91 -19.69 -28.13
4.13 -6.562 -0.8989 4.045 7.011 -17.17 -10.25 2.966 3.416 6.067 -16.99 -14.33 -11.08 -1.759 -10.16 -16.36 -16.63
4.135 -6.292 -0.4494 6.292 6.202 -10.16 -5.124 8.18 6.472 5.979 -17.53 -10.2 -4.309 5.54 -4.764 -12.22 -4.674
4.14 -1.888 3.596 8.629 5.124 -0.1798 4.315 13.75 9.438 3.078 -13.84 -1.935 4.924 11.7 0 -6.562 4.315
4.145 1.708 9.079 10.7 5.663 7.73 14.2 19.24 13.03 1.847 -7.73 8.969 15.3 17.32 4.944 0.9888 10.25
4.15 2.427 13.48 12.31 8 11.96 21.12 24.36 17.44 4.748 -1.258 19.79 25.06 23.3 11.24 10.34 15.46
4.155 2.787 16.18 13.03 10.07 14.92 24.36 28.4 21.75 10.11 5.124 28.4 32.54 29.37 18.25 19.87 21.57
4.16 6.382 17.53 12.67 9.528 19.96 25.08 30.02 24.18 14.86 12.22 33.68 36.05 33.06 23.73 26.88 27.24
4.165 13.39 17.8 10.52 5.843 26.43 24.18 27.69 23.01 16.8 19.33 34.73 34.21 31.66 25.26 28.22 29.21
4.17 18.16 15.73 6.022 -0.08989 29.3 20.94 20.85 17.89 15.04 23.19 30.07 26.38 25.41 23.37 23.19 26.25
4.175 14.38 9.438 -0.5393 -6.382 23.37 13.84 10.43 10.16 10.02 21.03 19.61 13.81 16.97 20.58 13.93 20.13
4.18 1.528 -1.079 -8.18 -11.6 8.18 2.697 -1.618 1.438 3.341 12.76 5.628 -0.08793 8.969 18.79 5.124 14.02
4.185 -12.94 -12.13 -14.65 -14.74 -9.888 -9.618 -13.03 -6.742 -2.726 2.517 -6.771 -11.61 2.374 17.26 0.08989 9.618
4.19 -19.69 -18.52 -17.17 -15.28 -21.57 -18.43 -20.4 -12.76 -7.211 -4.404 -13.98 -18.11 -3.166 13.93 -1.528 6.742
4.195 -15.64 -17.35 -14.2 -12.85 -21.48 -20.22 -21.66 -15.1 -9.585 -6.202 -16.18 -20.05 -8.178 7.64 -3.685 3.506
4.2 -6.562 -10.52 -7.64 -8.27 -12.94 -16.27 -17.62 -13.93 -9.497 -6.292 -16.97 -20.58 -13.01 -0.7191 -10.16 -1.798
4.205 -1.258 -4.045 -2.247 -3.955 -5.393 -11.78 -13.03 -11.78 -7.211 -9.978 -20.4 -22.77 -17.85 -8.629 -21.48 -8.989
4.21 -3.596 -3.236 -2.517 -2.787 -7.011 -12.04 -12.85 -12.22 -5.364 -19.06 -27.44 -27.44 -22.42 -13.57 -34.34 -16.63
4.215 -9.258 -8.539 -8.809 -6.112 -17.17 -17.71 -18.61 -16.9 -7.386 -30.11 -35.26 -32.89 -26.03 -14.74 -44.22 -23.55
4.22 -11.33 -15.46 -16.9 -11.42 -28.13 -24.99 -27.33 -24.27 -12.66 -37.66 -39.48 -36.67 -28.67 -14.02 -48.72 -29.84
4.225 -7.011 -17.98 -21.3 -14.65 -30.47 -27.96 -33.35 -30.2 -16.88 -38.74 -37.64 -36.93 -29.72 -13.84 -47.91 -35.6
4.23 -0.809 -14.11 -19.24 -13.3 -20.76 -23.46 -32 -30.11 -16 -33.53 -30.34 -32.98 -27.61 -14.29 -42.79 -39.1
4.235 1.079 -6.742 -12.85 -9.079 -3.685 -13.03 -23.19 -23.01 -10.64 -24.18 -19.96 -24.71 -21.02 -13.75 -33.62 -37.84
4.24 -2.337 -0.809 -7.281 -6.112 10.52 -2.067 -11.42 -12.22 -4.66 -13.48 -8.969 -13.1 -11.26 -11.15 -20.4 -30.56
4.245 -6.112 1.169 -6.202 -6.831 13.57 4.315 -2.607 -3.236 -1.495 -3.775 1.055 -0.6155 -1.847 -7.281 -5.213 -18.97
4.25 -4.764 0.1798 -8.36 -9.169 5.034 4.674 0.2697 0.6292 -2.462 2.876 8.617 9.673 4.045 -3.596 8.36 -6.652
4.255 1.708 -1.079 -8.899 -8.629 -7.191 1.708 -1.348 0.1798 -5.979 5.483 12.66 15.92 5.276 -1.348 17.08 3.326
4.26 8.09 -1.169 -5.034 -3.236 -14.2 -0.8989 -4.404 -2.067 -9.057 4.854 13.89 18.29 2.55 -1.169 20.94 9.708
4.265 8.899 -0.4494 0.809 3.865 -12.4 -1.169 -6.562 -4.135 -9.409 3.596 14.51 18.82 -1.495 -2.517 22.65 13.48
4.27 3.685 -0.3596 3.865 7.101 -4.764 0.08989 -6.742 -4.944 -7.123 5.034 16.44 20.05 -3.341 -3.326 25.08 16.63
4.275 -3.146 -1.528 1.348 3.865 3.056 1.438 -5.034 -4.135 -3.693 10.79 19.61 21.9 -0.7035 -1.528 28.13 19.96
4.28 -6.742 -3.236 -4.135 -2.247 7.64 1.708 -1.798 -1.618 0.6155 18.25 21.28 21.81 5.012 2.607 28.31 21.66
4.285 -5.663 -4.225 -7.011 -4.225 8.539 1.169 1.978 1.348 5.979 22.56 18.91 16.97 9.409 6.202 22.56 18.7
4.29 -1.798 -3.596 -2.966 1.528 8.18 0.809 5.393 3.056 9.849 21.03 12.31 7.386 8.002 5.393 11.78 9.618
4.295 2.427 -0.6292 7.191 12.49 8.36 1.618 7.73 2.067 8.266 15.73 4.748 -3.078 0.3517 -0.9888 0.809 -4.045
4.3 6.742 5.034 18.7 22.47 9.258 4.225 8.989 -1.079 1.231 10.97 0.4397 -9.673 -10.02 -10.97 -5.663 -17.89
4.305 11.33 13.03 26.34 27.15 9.708 8.449 9.438 -3.775 -6.331 8.989 1.231 -10.55 -17.41 -19.33 -7.551 -27.51
4.31 14.83 20.94 27.96 26.52 8.719 12.76 9.258 -3.146 -8.793 7.91 3.605 -8.354 -17.76 -21.12 -9.618 -30.65
4.315 14.38 24.45 24.18 22.92 5.483 14.38 7.551 0.3596 -4.836 2.607 1.495 -8.09 -12.31 -15.82 -17.08 -28.94
4.32 8.18 20.67 16.63 17.98 -1.169 10.07 1.978 2.787 1.671 -9.798 -7.914 -13.28 -7.035 -8.629 -30.2 -26.7
4.325 -1.169 10.97 6.921 11.69 -11.15 -0.7191 -8.449 -0.2697 5.892 -26.43 -21.37 -22.16 -7.914 -5.933 -43.06 -27.6
4.33 -8.09 1.079 -2.157 4.944 -21.03 -13.84 -21.21 -9.079 4.924 -38.74 -30.95 -28.84 -15.3 -9.978 -47.37 -31.01
4.335 -7.73 -2.427 -6.562 0.4494 -24.54 -22.02 -30.02 -17.71 0.4397 -38.56 -30.25 -27.17 -23.48 -16.72 -38.83 -32.72
4.34 -0.6292 2.157 -3.865 0.809 -17.8 -20.13 -29.84 -19.96 -2.814 -24.72 -18.73 -16.09 -25.59 -20.13 -20.85 -28.85
4.345 7.371 10.61 4.225 5.573 -3.236 -9.618 -20.4 -13.39 -1.495 -3.955 -1.935 0.3517 -18.82 -16.99 -1.438 -18.7
4.35 9.618 15.46 12.4 10.16 11.42 2.787 -6.562 -1.348 3.166 13.93 12.57 15.56 -5.188 -8.449 12.31 -5.303
4.355 4.225 12.04 15.1 9.708 18.97 9.888 5.303 10.07 6.947 23.37 20.66 25.15 9.761 1.618 19.06 6.921
4.36 -4.315 2.337 10.34 3.146 16.9 9.169 10.88 16 7.211 24.72 22.69 28.05 20.05 8.989 21.84 14.47
4.365 -8.719 -6.921 0.9888 -5.393 8.449 3.865 9.438 14.56 5.276 22.2 21.46 25.85 22.34 12.22 24.63 16.81
4.37 -5.933 -9.978 -7.82 -10.79 0.1798 -0.5393 3.506 7.64 2.99 19.69 19.61 21.46 17.15 12.58 28.22 16.36
4.375 0.3596 -6.382 -12.67 -11.15 -2.427 -0.2697 -2.966 -1.798 0.4397 19.06 17.85 17.23 8.178 11.87 30.83 15.73
4.38 3.146 -0.4494 -14.02 -8.719 1.618 3.865 -8.09 -11.06 -2.902 19.42 16.8 14.25 -1.231 10.43 30.56 15.37
4.385 -0.9888 2.966 -14.56 -7.371 8.36 8.449 -11.6 -18.43 -6.419 19.06 16.53 11.87 -9.057 7.73 27.33 13.66
4.39 -8.539 2.607 -16.27 -8.989 11.42 9.618 -14.56 -22.56 -9.057 17.08 15.74 8.705 -14.33 4.045 22.29 9.079
4.395 -11.6 0.4494 -18.16 -12.04 6.472 5.753 -17.44 -22.74 -9.849 12.67 11.87 3.166 -16.53 0.7191 15.82 2.067
4.4 -5.483 -0.2697 -17.53 -12.94 -5.753 -1.888 -19.78 -19.51 -8.002 5.034 2.99 -5.188 -16.36 -1.079 6.562 -5.213
4.405 7.461 2.157 -12.31 -8.989 -18.52 -9.528 -20.49 -14.11 -2.726 -5.573 -9.936 -14.95 -14.42 -1.798 -6.652 -10.52
4.41 19.42 7.91 -2.337 -0.2697 -22.02 -12.49 -17.53 -7.281 4.573 -16.9 -22.42 -22.86 -10.73 -2.517 -23.19 -13.39
4.415 24 15.55 10.16 10.7 -10.7 -7.281 -9.708 0.9888 11.34 -24.63 -29.19 -26.29 -5.716 -4.584 -39.28 -15.73
4.42 21.84 24 21.66 20.49 11.33 5.124 1.618 9.978 15.48 -25.71 -27.35 -24.89 -0.8793 -9.079 -49.71 -21.03
4.425 18.79 31.55 28.76 26.7 31.64 19.24 12.94 17.62 16.36 -20.13 -17.94 -20.22 1.583 -16.09 -50.52 -30.38
4.43 20.04 35.69 31.01 29.3 39.28 28.76 21.03 21.66 13.63 -9.978 -4.836 -13.54 1.583 -23.55 -40.99 -40.54
4.435 24.99 34.25 30.2 30.11 32.54 30.2 24.99 21.93 7.738 1.978 8.354 -5.012 1.143 -28.13 -23.91 -45.48
4.44 28.22 27.24 29.03 30.65 19.42 24.99 25.98 19.33 1.231 13.75 19.26 4.485 2.198 -27.87 -4.404 -41.26
4.445 24.81 17.17 27.96 30.38 9.618 17.08 25.17 15.73 -1.847 23.55 26.38 12.66 5.188 -22.47 12.13 -28.22
4.45 14.56 7.191 24.45 26.16 7.191 9.708 22.11 11.87 -0.4397 29.93 28.23 16.53 8.969 -13.21 22.29 -10.34
4.455 1.528 -0.9888 15.46 14.92 8.629 3.236 15.64 7.371 2.638 32.18 24.18 15.3 11.7 -2.337 26.25 7.191
4.46 -9.348 -8.18 0.7191 -2.607 8.18 -3.056 5.303 1.079 3.605 29.93 16.27 11.26 11.43 7.101 26.61 20.49
4.465 -16.45 -15.46 -16.18 -21.03 2.966 -9.528 -7.191 -7.551 0.7914 23.82 8.178 8.002 7.65 12.49 26.43 27.51
4.47 -20.67 -22.29 -29.12 -32.81 -4.674 -14.83 -18.25 -16.63 -4.748 15.82 2.638 7.562 1.671 13.12 26.79 28.49
4.475 -23.82 -26.97 -33.8 -34.25 -10.79 -18.07 -24.63 -23.19 -10.73 7.64 -0.6155 8.354 -3.957 10.25 26.16 25.44
4.48 -25.98 -28.22 -31.19 -27.78 -14.38 -20.22 -26.34 -25.53 -14.33 0.4494 -3.869 7.298 -8.002 5.753 22.65 21.03
4.485 -26.61 -27.33 -26.7 -20.49 -18.25 -23.55 -25.44 -24.27 -14.6 -5.483 -8.178 3.078 -9.849 1.258 16.54 17.71
4.49 -26.16 -27.78 -25.08 -18.34 -24.36 -28.4 -23.73 -21.3 -13.54 -9.798 -12.49 -2.11 -9.849 -2.067 10.43 17.35
4.495 -26.7 -31.55 -26.79 -22.02 -30.83 -32.45 -20.94 -18.43 -14.77 -11.78 -14.68 -5.364 -8.617 -3.955 6.652 18.88
4.5 -28.76 -36.67 -27.69 -26.43 -33.98 -32.36 -16 -16.09 -19.17 -12.31 -14.95 -7.211 -8.09 -5.483 4.135 19.06
4.505 -29.66 -37.66 -23.01 -25.26 -32.36 -27.33 -8.899 -13.57 -23.65 -14.02 -16.18 -11.17 -9.145 -7.371 -1.618 15.01
4.51 -24.9 -30.2 -11.24 -15.82 -28.04 -19.69 -0.9888 -8.899 -24.36 -18.97 -21.46 -19.26 -9.936 -8.36 -14.02 7.461
4.515 -13.39 -14.92 4.674 -1.348 -24.18 -12.49 6.562 -0.7191 -19.52 -26.07 -29.72 -28.84 -7.211 -6.112 -30.83 0.4494
4.52 0.5393 2.247 18.61 11.69 -21.21 -6.472 12.58 9.169 -10.11 -30.83 -35 -33.24 0 0 -44.4 -2.607
4.525 10.61 15.1 25.26 17.98 -16 0 16 16.45 0.7035 -28.58 -30.78 -28.14 8.09 7.461 -47.28 -2.427
4.53 13.57 20.67 23.19 16.18 -5.483 8.719 15.82 17.17 8.002 -18.52 -16.71 -16 11.34 11.33 -38.65 -2.876
4.535 12.85 21.21 15.46 9.348 9.258 18.52 11.42 10.34 7.826 -5.663 0 -4.836 6.067 7.91 -25.35 -8.18
4.54 15.01 21.12 6.742 1.888 21.66 25.26 3.685 -0.3596 0.7914 2.247 10.11 -1.759 -6.243 -2.966 -16 -19.24
4.545 22.11 23.01 0.7191 -2.787 24.99 25.8 -4.674 -9.258 -7.562 1.348 10.64 -6.595 -19.35 -16.99 -13.93 -31.73
4.55 29.12 25.17 -1.258 -3.955 19.24 21.39 -9.258 -11.6 -11.7 -4.584 6.683 -11.52 -25.24 -27.15 -14.29 -38.38
4.555 28.31 24 0.5393 -2.067 12.4 17.17 -6.562 -6.382 -10.02 -6.652 6.947 -7.386 -19.96 -28.4 -9.169 -33.89
4.56 17.98 17.89 4.944 2.067 12.31 17.26 2.607 3.146 -4.573 0.1798 15.74 8.266 -6.331 -21.03 5.124 -18.97
4.565 4.674 8.899 10.16 7.91 19.42 20.49 13.57 12.4 1.759 12.76 29.11 29.11 9.057 -9.708 24.63 0.9888
4.57 -2.247 1.169 14.38 14.02 26.25 21.93 20.94 18.25 6.595 22.38 37.99 45.11 21.28 1.258 40.45 19.42
4.575 0.08989 -2.697 15.73 17.71 24.99 17.53 22.02 20.04 9.497 22.83 36.49 49.77 28.75 10.34 46.56 32.27
4.58 6.382 -3.685 12.85 16.27 15.19 8.27 17.8 18.7 12.13 16.54 26.91 43.79 31.92 17.71 43.42 38.83
4.585 7.82 -4.584 6.112 9.348 3.596 -1.079 11.33 15.01 15.83 11.33 16.97 32.89 31.39 23.82 36.94 40.81
4.59 0.5393 -7.64 -1.708 -0.5393 -1.708 -6.202 5.933 10.52 19.17 13.21 12.66 23.48 28.4 28.58 32.9 40.9
4.595 -12.31 -13.03 -7.191 -9.798 0.6292 -6.292 3.685 7.371 18.99 20.76 13.89 18.64 24.45 31.55 32.81 40.63
4.6 -24 -18.61 -8.629 -15.46 4.944 -4.764 4.135 6.921 14.51 26.16 15.74 17.5 20.75 31.82 33.71 39.73
4.605 -29.39 -21.93 -7.64 -17.44 4.135 -5.124 5.393 8.36 8.705 22.47 13.28 16.62 17.41 29.03 30.92 36.31
4.61 -27.6 -21.84 -7.371 -17.35 -3.146 -7.91 4.854 9.079 4.485 9.618 5.276 13.01 13.37 23.64 21.75 28.67
4.615 -21.57 -19.24 -9.708 -16.81 -12.13 -11.15 1.348 6.292 2.11 -5.843 -6.067 5.012 6.859 15.91 6.831 16.18
4.62 -14.56 -15.37 -14.11 -16.36 -17.17 -12.58 -5.303 -0.809 0 -17.08 -17.59 -6.595 -3.254 6.202 -10.16 0.08989
4.625 -9.169 -11.78 -18.43 -15.46 -16.81 -12.22 -13.84 -10.07 -2.814 -21.3 -25.94 -18.73 -15.39 -4.315 -24.09 -15.82
4.63 -6.472 -9.258 -20.58 -14.2 -13.03 -10.79 -21.03 -17.26 -6.507 -19.15 -29.19 -26.82 -24.97 -12.85 -30.56 -26.61
4.635 -6.112 -7.91 -19.69 -13.03 -8.18 -8.809 -23.55 -18.97 -10.2 -13.03 -26.38 -27.35 -27.79 -15.91 -28.22 -28.85
4.64 -6.292 -6.921 -15.91 -12.31 -3.236 -5.843 -19.87 -15.28 -12.13 -5.213 -18.03 -20.31 -23.83 -13.39 -19.69 -23.73
4.645 -5.034 -5.034 -10.7 -11.33 0.8989 -1.438 -11.69 -9.169 -10.46 1.708 -6.331 -9.057 -16.53 -8.18 -9.618 -16.36
4.65 -1.708 -1.258 -4.764 -8.539 4.225 4.944 -1.798 -3.236 -5.452 6.652 5.628 2.374 -9.409 -3.775 -1.618 -11.87
4.655 2.876 4.764 1.258 -3.685 8.27 13.75 7.91 2.427 1.231 10.52 16.27 12.66 -2.726 -1.888 4.045 -11.69
4.66 7.91 12.31 6.921 2.427 15.55 24.99 17.08 9.169 8.002 15.46 26.2 22.6 5.012 -1.528 10.07 -13.03
4.665 13.39 20.4 11.87 8.09 27.78 37.3 25.8 17.17 13.37 22.74 36.4 32.62 14.6 -0.9888 17.98 -11.42
4.67 19.33 27.06 15.55 12.04 42.34 47.28 33.26 24.18 15.21 30.56 45.02 40.98 24.09 0.9888 25.89 -4.494
4.675 24.18 30.38 17.98 13.75 51.78 50.79 37.57 27.24 11.7 34.16 47.57 43.62 29.81 3.865 29.3 5.753
4.68 24.99 28.58 18.34 13.21 48.18 44.67 36.13 24 4.045 29.03 40.27 37.64 28.49 5.843 24.72 14.29
4.685 18.97 21.3 15.55 10.61 29.39 29.93 27.78 15.28 -3.341 15.28 24.09 24.01 20.58 5.663 13.12 16.9
4.69 6.742 9.978 9.618 5.933 3.236 11.33 14.83 4.944 -7.562 -1.438 4.485 8.002 10.38 4.225 -0.1798 14.11
4.695 -7.191 -2.157 2.337 -0.08989 -17.53 -4.584 2.157 -2.697 -8.969 -13.66 -11.61 -4.573 2.726 2.966 -9.348 9.888
4.7 -16.9 -11.6 -3.326 -5.933 -24.09 -13.21 -6.472 -5.573 -9.233 -17.98 -19.79 -11.08 -0.8793 2.517 -11.78 7.73
4.705 -18.97 -16.18 -6.202 -9.438 -17.44 -14.29 -10.79 -5.124 -8.881 -15.73 -19.7 -12.57 -2.726 2.157 -9.079 8.18
4.71 -14.74 -16.36 -6.831 -10.07 -5.753 -10.34 -12.94 -3.955 -7.562 -10.7 -14.33 -11.52 -4.748 1.978 -4.584 9.618
4.715 -9.708 -14.56 -7.551 -9.348 2.247 -5.124 -15.01 -4.674 -5.276 -5.213 -7.562 -9.936 -7.211 2.427 -1.079 9.888
4.72 -9.079 -13.39 -10.52 -9.978 2.966 -1.978 -18.07 -8.36 -3.166 -0.5393 -2.286 -8.705 -9.233 3.416 0.2697 7.82
4.725 -13.93 -13.48 -15.46 -13.48 -2.067 -2.337 -21.39 -14.2 -2.814 2.697 0 -8.09 -10.82 3.146 -0.08989 3.775
4.73 -19.78 -13.57 -19.42 -18.34 -8.18 -5.034 -22.74 -19.42 -5.364 3.865 -0.08793 -7.298 -11.61 1.079 -1.258 -0.4494
4.735 -20.31 -11.78 -18.61 -21.12 -10.61 -6.652 -19.69 -19.6 -9.497 3.146 -0.4397 -4.485 -10.73 -1.978 -1.978 -3.326
4.74 -13.12 -7.281 -11.6 -18.79 -7.461 -4.764 -11.6 -12.67 -11.43 1.258 1.055 1.231 -7.386 -4.315 -1.438 -4.404
4.745 -2.247 -1.708 -1.079 -11.24 -1.258 -0.1798 -0.9888 -0.4494 -8.002 -1.348 4.045 8.09 -2.198 -5.213 -0.5393 -5.483
4.75 4.764 1.708 8.449 -1.169 2.427 2.787 7.281 11.42 -1.231 -5.213 4.573 11.26 2.638 -5.753 -1.798 -8.899
4.755 3.865 0.8989 13.57 7.551 -1.079 -0.2697 8.539 16.9 2.638 -11.15 -1.759 6.067 3.341 -8.18 -7.64 -16.18
4.76 -2.157 -3.955 13.84 12.58 -12.13 -10.52 0.809 12.76 0 -19.15 -15.3 -8.002 -2.726 -13.93 -17.62 -26.61
4.765 -6.112 -9.978 10.43 13.3 -25.71 -23.64 -13.3 1.079 -6.771 -27.42 -30.78 -26.12 -14.16 -21.03 -27.69 -36.58
4.77 -3.416 -13.84 4.674 10.16 -34.07 -32.9 -27.15 -11.96 -12.4 -32.99 -41.15 -40.54 -25.24 -24.99 -33.08 -41.53
4.775 3.146 -14.56 -2.966 3.146 -32.27 -33.98 -34.07 -20.67 -13.98 -34.07 -42.91 -46.52 -29.99 -22.65 -32.18 -39.1
4.78 7.551 -12.67 -12.13 -6.831 -22.38 -28.13 -32.27 -23.1 -12.4 -31.28 -38.6 -45.2 -27.35 -15.73 -28.13 -32
4.785 6.831 -9.618 -21.03 -16.81 -11.42 -20.04 -25.71 -21.66 -10.64 -26.88 -33.24 -41.42 -21.81 -9.528 -26.16 -25.53
4.79 3.865 -6.202 -25.71 -22.38 -5.753 -14.29 -19.87 -19.69 -11.08 -22.56 -30.25 -38.6 -18.73 -8.27 -28.85 -23.01
4.795 3.506 -2.787 -23.28 -20.58 -6.652 -12.22 -17.53 -18.7 -13.81 -18.79 -29.37 -36.49 -20.05 -12.04 -34.07 -23.64
4.8 6.831 -0.08989 -14.83 -13.03 -10.88 -12.4 -17.62 -19.15 -16.8 -15.64 -27.44 -32.62 -24.36 -17.8 -37.12 -24.27
4.805 9.978 0.7191 -6.472 -5.483 -14.2 -12.85 -17.08 -20.67 -18.29 -13.12 -21.9 -25.85 -29.02 -22.74 -33.98 -22.56
4.81 8.09 -0.2697 -4.404 -4.225 -13.48 -11.78 -13.75 -22.83 -19.26 -9.978 -12.22 -16.71 -31.48 -24.99 -23.64 -18.25
4.815 1.169 -1.978 -10.43 -10.79 -7.551 -7.551 -7.461 -24.27 -21.63 -3.775 0.7914 -5.804 -29.46 -23.91 -7.82 -11.24
4.82 -5.753 -1.888 -20.04 -20.58 2.067 0.08989 0.4494 -22.83 -24.18 5.843 16 6.683 -21.9 -18.97 10.07 -1.618
4.825 -7.371 1.169 -26.07 -26.16 11.78 9.438 8.27 -16.99 -22.6 15.55 30.43 20.05 -9.057 -10.52 25.17 10.16
4.83 -3.326 5.663 -23.19 -22.65 17.08 16.36 15.01 -7.011 -14.51 19.96 38.95 30.78 6.859 -0.1798 32.45 21.39
4.835 1.888 8.27 -11.87 -11.24 15.73 17.44 19.6 4.494 -2.814 15.91 37.2 33.85 20.4 8.36 29.12 26.79
4.84 3.416 7.371 2.607 2.067 8.899 11.87 20.4 13.03 5.979 5.663 24.89 26.29 25.06 10.25 16.81 21.12
4.845 -0.1798 3.955 12.85 10.79 0.1798 2.876 15.73 14.65 7.738 -4.674 7.914 10.55 17.5 3.416 1.708 4.225
4.85 -6.652 0.3596 14.38 11.33 -7.011 -5.213 6.022 8.809 2.022 -9.978 -6.243 -6.331 1.847 -8.539 -8.809 -16.27
4.855 -12.76 -2.427 7.461 4.584 -11.42 -9.888 -5.483 -0.9888 -7.035 -10.07 -13.01 -17.32 -12.84 -18.16 -11.96 -29.93
4.86 -16.27 -5.843 -3.955 -5.753 -14.11 -12.22 -14.74 -9.798 -13.54 -8.719 -13.19 -19.96 -18.82 -19.51 -9.798 -30.56
4.865 -17.08 -11.24 -14.92 -15.37 -15.19 -13.75 -18.88 -13.93 -13.01 -8.719 -10.2 -16.36 -14.25 -11.87 -6.831 -19.96
4.87 -16 -17.53 -21.57 -21.21 -12.13 -14.11 -17.26 -11.96 -6.067 -8.629 -6.419 -9.936 -2.374 1.258 -4.854 -4.674
4.875 -14.11 -21.12 -21.93 -22.2 -2.966 -10.97 -11.24 -4.944 2.55 -4.584 -1.407 -2.11 11.34 15.01 -2.247 9.438
4.88 -11.87 -18.88 -16.63 -18.61 9.798 -3.326 -3.596 3.955 8.793 4.135 5.54 6.947 22.42 25.44 3.416 19.87
4.885 -8.629 -11.06 -8.36 -11.87 18.79 6.022 2.876 10.97 11.43 13.48 13.37 16.27 28.49 30.83 11.51 27.33
4.89 -3.146 -1.169 0.08989 -4.045 18.88 12.67 7.371 14.2 10.73 18.61 18.99 23.39 29.46 31.91 18.7 32.9
4.895 4.674 7.101 6.742 2.337 12.49 14.83 10.34 13.84 7.298 18.43 20.22 26.56 27.08 30.29 21.93 36.31
4.9 12.49 12.22 10.43 5.843 8.18 14.38 12.4 12.04 2.902 15.73 17.94 25.41 22.86 26.97 21.03 36.4
4.905 16.36 14.92 10.61 5.933 11.33 14.56 13.66 10.34 0.2638 13.12 14.77 21.37 18.38 22.74 17.71 33.08
4.91 13.3 15.28 7.82 3.236 18.34 15.37 13.12 9.169 0.2638 10.25 11.26 15.65 14.77 18.34 12.67 27.51
4.915 4.944 12.58 3.326 -0.8989 19.15 13.57 10.43 7.73 0.9673 4.584 5.716 7.914 12.05 14.11 5.124 21.21
4.92 -2.787 7.281 -0.809 -4.764 7.91 6.202 5.843 4.494 -0.3517 -4.045 -2.902 -2.198 8.266 9.169 -5.034 13.84
4.925 -4.045 2.067 -3.236 -6.472 -10.61 -4.584 1.258 -0.8989 -3.869 -11.87 -12.13 -13.28 1.671 2.427 -15.1 4.494
4.93 2.157 0.7191 -3.056 -5.573 -23.73 -12.31 -1.258 -6.562 -7.65 -13.03 -16.8 -21.28 -6.771 -5.303 -20.22 -6.292
4.935 10.52 4.135 -0.6292 -2.517 -21.57 -11.6 -0.6292 -9.348 -8.617 -5.303 -13.89 -22.77 -13.98 -11.87 -17.62 -16.09
4.94 14.2 8.989 2.247 0.809 -6.742 -3.506 1.978 -8.09 -5.012 6.652 -5.276 -18.03 -17.76 -15.73 -9.888 -22.29
4.945 10.43 10.79 3.416 2.787 8.539 5.303 3.955 -4.944 1.759 15.01 3.166 -11.08 -18.73 -17.35 -2.787 -24.36
4.95 2.517 8.27 1.798 2.337 14.29 9.169 3.865 -3.236 6.595 14.65 6.507 -6.067 -18.55 -17.98 -0.3596 -23.01
4.955 -4.045 4.404 -1.528 -0.08989 10.7 7.461 2.427 -4.764 4.485 7.011 3.957 -4.485 -18.38 -18.52 -2.067 -19.42
4.96 -6.652 3.146 -4.584 -3.326 5.573 4.225 1.348 -8.899 -4.045 -2.607 -0.8793 -4.66 -17.59 -18.7 -4.135 -13.93
4.965 -7.011 5.213 -6.112 -5.933 4.315 2.517 0.9888 -13.12 -12.84 -10.43 -4.397 -4.485 -15.39 -17.53 -3.955 -7.101
4.97 -7.82 7.281 -6.292 -7.371 5.393 2.067 0.8989 -14.65 -15.74 -16.36 -5.804 -3.078 -11.08 -14.56 -3.326 -0.2697
4.975 -8.809 6.292 -5.933 -7.551 3.416 0.9888 0.5393 -12.58 -12.13 -21.84 -6.595 -0.9673 -5.628 -10.43 -5.303 4.135
4.98 -6.202 3.596 -5.483 -6.652 -3.326 -1.079 0 -8.27 -5.54 -26.88 -7.123 0.7914 -1.407 -7.101 -10.79 3.596
4.985 2.517 3.596 -4.764 -4.764 -10.34 -1.888 0.1798 -4.045 -0.08793 -29.12 -6.331 2.198 -0.6155 -6.202 -16.54 -2.247
4.99 14.11 8.18 -3.326 -2.247 -10.97 0.5393 0.9888 -1.528 1.935 -25.35 -3.166 3.254 -3.166 -7.101 -17.89 -10.34
4.995 20.76 13.12 -1.438 -0.5393 -3.236 4.674 1.348 -0.9888 0.8793 -15.28 0.8793 3.254 -6.947 -7.91 -13.21 -16.18
5 16.27 11.24 -1.258 -1.438 6.831 5.933 -0.809 -2.517 -1.583 -2.607 3.078 1.055 -10.55 -7.551 -4.854 -17.44
5.005 1.798 -0.3596 -4.854 -5.753 11.42 1.169 -6.472 -5.933 -3.341 7.64 2.022 -3.605 -13.63 -6.472 2.787 -15.01
5.01 -14.47 -16.54 -12.04 -12.04 7.82 -7.461 -13.57 -10.43 -4.573 13.57 -0.4397 -8.881 -15.12 -5.213 7.82 -10.79
5.015 -24.18 -27.78 -19.06 -17.35 0.8989 -14.11 -18.34 -13.93 -6.067 16.9 -0.9673 -11.43 -13.63 -2.966 11.33 -6.022
5.02 -24.63 -28.04 -21.84 -18.7 -2.697 -14.74 -18.25 -14.38 -6.771 20.67 2.462 -9.409 -8.617 0.6292 15.55 -0.6292
5.025 -19.24 -19.42 -18.7 -15.64 -1.708 -10.43 -14.29 -11.15 -4.573 25.44 8.617 -3.605 -1.847 5.213 21.3 5.483
5.03 -13.48 -9.618 -11.51 -10.52 0.5393 -5.843 -9.169 -5.483 0.5276 29.03 13.89 3.341 4.309 9.438 27.06 12.22
5.035 -9.528 -4.854 -4.135 -6.652 0.5393 -3.955 -5.124 0.2697 5.012 29.48 16 9.409 8.09 11.69 30.74 17.8
5.04 -6.022 -4.494 0.5393 -5.393 -0.7191 -3.685 -2.697 3.596 5.54 26.61 15.65 13.37 8.53 10.79 30.65 19.96
5.045 -0.9888 -3.506 2.157 -4.854 0.4494 -2.067 -1.528 3.236 1.847 21.66 14.42 14.33 5.716 6.831 26.43 16.45
5.05 3.955 1.079 2.247 -2.247 5.663 1.708 -1.618 0 -3.166 15.37 11.52 11.34 0.7914 1.438 17.8 7.64
5.055 5.124 7.461 3.236 3.326 11.69 4.584 -3.146 -3.865 -6.595 6.831 4.221 3.781 -5.012 -3.596 4.674 -4.674
5.06 1.528 11.15 5.663 9.978 12.31 2.787 -6.562 -6.742 -6.859 -5.573 -8.617 -7.298 -11.26 -8.18 -11.69 -17.98
5.065 -2.697 10.61 8.989 14.74 4.674 -3.865 -10.79 -8.09 -4.133 -20.76 -23.74 -18.73 -17.23 -12.94 -28.4 -29.84
5.07 -1.169 9.079 12.4 15.91 -6.652 -10.97 -12.94 -7.91 -0.7914 -34.16 -34.65 -26.29 -21.28 -17.71 -41.62 -38.47
5.075 8.899 10.43 15.46 14.47 -13.48 -12.76 -10.79 -6.292 0.3517 -40.18 -36.76 -27.79 -21.9 -21.48 -48.27 -42.79
5.08 22.74 15.01 17.44 12.49 -11.24 -8 -5.124 -3.775 -0.7914 -37.57 -30.78 -24.8 -19.43 -23.64 -47.73 -42.97
5.085 31.46 19.24 16.81 10.88 -3.056 -0.5393 0.1798 -1.888 -2.726 -30.11 -21.54 -20.31 -16.27 -24.45 -41.44 -39.64
5.09 29.66 19.24 12.58 8.809 3.506 4.494 1.798 -1.888 -4.748 -23.1 -13.89 -16.27 -14.07 -24.18 -31.28 -33.26
5.095 19.69 15.28 5.573 4.764 4.225 5.213 -0.2697 -4.045 -7.562 -18.52 -8.793 -11.7 -12.57 -22.29 -19.06 -24.18
5.1 9.258 10.61 -2.067 -1.348 0.5393 3.596 -3.775 -7.011 -10.64 -15.1 -3.957 -5.1 -10.55 -18.43 -6.652 -13.75
5.105 4.045 8 -8.09 -7.64 -3.416 2.247 -5.663 -9.258 -11.87 -10.61 2.374 3.078 -7.826 -13.03 3.596 -4.045
5.11 3.236 6.112 -11.15 -11.78 -5.663 1.618 -4.944 -9.169 -9.585 -5.303 8.881 10.38 -4.66 -7.011 9.888 3.506
5.115 2.067 2.247 -10.79 -11.96 -6.921 0.7191 -2.157 -6.562 -4.573 -0.6292 12.75 14.68 -1.583 -0.9888 12.31 8.449
5.12 -0.809 -2.966 -7.011 -8 -7.82 0.1798 1.258 -2.337 1.143 2.247 13.63 16.18 0.3517 4.045 12.67 10.79
5.125 -1.169 -3.775 -0.5393 -0.5393 -6.652 2.517 4.404 2.157 6.507 4.944 14.16 16.88 1.319 7.82 13.12 10.61
5.13 6.112 4.854 7.91 8.989 -0.08989 9.978 7.73 6.472 10.99 9.618 16.62 18.03 2.374 10.88 13.75 8.719
5.135 19.69 20.94 16.45 17.98 12.31 20.58 11.78 11.33 14.51 16.27 20.05 18.73 5.276 14.29 13.12 6.831
5.14 30.92 34.97 22.2 22.92 25.53 28.31 16.27 16.36 17.5 21.75 20.75 16.88 10.46 17.98 9.708 6.831
5.145 30.47 36.4 22.56 21.48 31.91 27.42 19.51 20.13 20.05 21.84 16.27 11.7 16.18 20.67 4.494 9.708
5.15 16.81 23.01 17.44 13.93 28.13 17.71 19.78 20.67 20.4 15.73 7.211 4.66 20.05 20.94 -0.3596 14.29
5.155 -1.888 2.517 9.169 3.596 17.89 4.135 15.46 16.45 15.83 6.652 -3.429 -2.55 19.08 17.53 -4.045 17.08
5.16 -14.56 -14.2 0.6292 -5.303 6.831 -8.18 5.663 7.191 5.452 -2.337 -14.33 -10.99 10.55 9.079 -8.899 13.3
5.165 -16.09 -21.12 -6.831 -10.61 -2.876 -18.16 -8.629 -5.843 -7.65 -11.06 -25.94 -23.04 -5.364 -4.404 -18.25 1.169
5.17 -10.07 -20.94 -13.3 -13.3 -13.12 -27.6 -23.37 -19.24 -19.35 -20.76 -38.51 -37.81 -23.74 -19.96 -31.55 -15.28
5.175 -4.494 -19.87 -18.43 -15.64 -24.99 -36.04 -31.91 -27.78 -26.12 -31.19 -48.28 -48.72 -35.61 -32.09 -42.88 -28.13
5.18 -4.315 -20.67 -20.49 -17.98 -35.24 -39.19 -29.21 -26.97 -25.85 -38.02 -48.1 -46.6 -34.73 -35.78 -43.78 -31.01
5.185 -7.73 -20.67 -17.53 -18.16 -37.66 -31.46 -15.73 -16 -18.03 -35.96 -32.62 -27.17 -21.19 -29.57 -30.38 -23.28
5.19 -9.708 -15.28 -9.258 -13.66 -28.49 -12.49 2.157 1.438 -5.188 -22.47 -4.397 4.309 -1.231 -15.37 -7.191 -9.798
5.195 -7.101 -4.045 1.708 -4.584 -9.978 11.06 16.09 18.43 7.474 -1.348 26.12 34.91 16.88 1.888 15.82 3.146
5.2 -1.618 8.09 11.33 5.753 10.16 29.3 21.12 28.31 16 19.15 47.31 52.41 27.26 16.9 30.38 11.96
5.205 2.247 14.92 16.45 13.66 23.91 35.24 18.07 28.31 19.61 31.28 53.2 52.67 29.19 25.62 34.7 16.9
5.21 1.348 13.48 17.62 17.26 27.51 29.84 12.67 21.75 19.35 33.08 46.34 41.5 26.47 27.78 33.08 20.94
5.215 -3.056 6.472 17.17 17.26 22.65 19.51 10.7 15.1 17.06 28.49 34.03 28.75 24.09 25.8 31.1 25.8
5.22 -6.831 -0.4494 16.72 14.92 13.84 10.43 13.12 12.94 14.68 23.46 23.39 21.19 24.45 22.56 31.64 30.47
5.225 -6.202 -3.416 14.38 9.888 4.944 4.944 16 14.65 13.37 21.12 17.5 19.43 25.94 19.87 33.71 32.45
5.23 -1.888 -3.236 7.281 0.6292 -0.8989 2.067 15.19 15.73 11.78 21.39 15.65 20.05 26.03 17.98 34.88 30.83
5.235 1.438 -3.775 -4.494 -12.31 -1.888 0.08989 9.618 11.96 7.298 21.93 14.95 18.91 22.07 15.64 33.08 25.89
5.24 -0.3596 -7.73 -16.9 -24.81 0.9888 -1.438 1.708 2.876 -0.4397 20.04 11.78 13.45 12.57 10.34 26.52 17.8
5.245 -7.371 -13.93 -23.73 -30.47 3.775 -3.056 -5.573 -8.18 -8.53 13.75 3.166 2.55 -1.671 1.169 13.93 6.472
5.25 -14.92 -18.52 -21.39 -26.16 1.438 -5.573 -10.88 -16.27 -13.37 2.427 -12.13 -12.84 -16.53 -9.438 -4.225 -7.011
5.255 -18.16 -18.61 -12.13 -14.74 -7.461 -9.978 -14.92 -18.52 -13.98 -12.31 -32.1 -29.72 -26.29 -16.9 -24.36 -19.6
5.26 -15.55 -14.47 -2.247 -3.596 -20.04 -15.91 -18.43 -15.91 -11.87 -26.43 -49.95 -43.35 -27.96 -18.52 -40.09 -27.42
5.265 -9.079 -8.809 2.607 1.438 -29.39 -20.31 -20.85 -12.04 -9.233 -34.43 -57.33 -48.98 -23.48 -15.82 -45.57 -28.85
5.27 -2.157 -3.506 1.888 0 -29.66 -19.33 -19.33 -9.438 -7.826 -32.27 -49.68 -44.49 -17.32 -12.67 -39.37 -24.45
5.275 3.416 1.258 -0.2697 -3.685 -19.87 -11.6 -11.96 -7.91 -8.266 -20.58 -29.99 -31.48 -12.75 -11.6 -25.53 -17.26
5.28 7.551 6.382 -0.08989 -5.213 -5.843 -0.3596 -0.6292 -6.202 -8.442 -6.112 -7.914 -15.3 -10.02 -12.31 -11.24 -9.888
5.285 9.888 11.06 2.876 -3.685 3.326 7.64 8.899 -3.865 -5.892 2.337 6.771 -1.847 -7.123 -12.04 -2.067 -3.685
5.29 9.618 12.67 6.022 -0.8989 3.056 7.91 12.04 -1.438 -0.6155 0.809 9.849 5.804 -1.847 -8.449 0.9888 1.978
5.295 6.472 9.618 7.461 1.348 -3.326 1.798 8.989 0.6292 4.309 -6.921 5.276 8.617 5.804 -1.888 0.8989 7.64
5.3 2.427 3.865 8.27 3.865 -7.371 -4.315 4.494 2.337 6.419 -12.4 1.407 9.936 12.66 4.225 1.618 12.58
5.305 0.4494 -0.4494 9.978 8 -2.876 -4.584 3.685 3.775 5.628 -9.978 4.133 12.31 15.21 6.652 5.573 15.64
5.31 1.798 -0.7191 12.49 12.04 8.27 1.438 7.551 4.674 3.166 -0.809 12.57 15.74 13.01 5.573 12.4 16.9
5.315 4.225 1.258 12.49 11.87 18.07 8.899 12.31 4.315 0.08793 9.348 20.49 18.11 8.793 4.045 20.04 17.8
5.32 4.045 1.169 6.652 4.135 19.15 11.42 12.4 2.247 -2.286 15.28 22.42 17.23 5.188 4.494 25.89 18.61
5.325 -0.5393 -3.326 -4.854 -9.258 10.88 7.281 5.573 -1.438 -2.726 16.36 18.2 13.28 3.341 6.831 28.67 18.79
5.33 -7.461 -10.25 -16.99 -22.02 1.348 0.5393 -4.764 -5.303 -1.231 16.45 12.4 8.969 3.605 10.34 28.76 18.16
5.335 -12.04 -14.29 -23.55 -28.22 -0.08989 -2.607 -12.49 -7.551 0.08793 19.51 9.849 7.298 6.067 14.2 27.51 17.53
5.34 -11.42 -12.31 -22.2 -26.61 8.809 0.7191 -14.02 -8.18 -0.1759 24.72 11.52 9.145 9.936 18.16 25.8 17.89
5.345 -6.112 -5.933 -16.81 -21.48 20.4 7.64 -10.7 -8.629 -2.11 27.15 14.07 12.05 12.93 21.03 23.37 18.97
5.35 0.08989 -0.5393 -13.12 -18.07 23.46 11.78 -6.831 -9.708 -4.924 22.11 12.93 12.84 13.54 21.66 18.97 19.6
5.355 3.146 -0.3596 -13.39 -18.07 13.39 9.348 -5.303 -10.25 -7.474 9.888 6.419 10.64 11.96 19.24 12.31 18.16
5.36 1.798 -5.034 -15.19 -18.52 -4.404 1.438 -5.483 -8.09 -7.914 -4.494 -2.55 6.859 10.02 14.02 4.494 13.84
5.365 -1.888 -10.25 -13.39 -14.83 -19.15 -6.562 -4.494 -1.618 -3.781 -14.56 -8.442 4.397 9.936 7.73 -2.067 7.461
5.37 -4.315 -11.51 -5.034 -5.124 -22.11 -8.899 0.6292 9.169 4.66 -16.27 -7.826 4.836 13.54 2.876 -5.753 0.4494
5.375 -2.697 -7.281 8.27 8.27 -12.58 -3.236 10.16 22.29 14.33 -10.52 -1.847 7.123 19.87 0.7191 -6.921 -5.933
5.38 3.326 0.8989 21.66 20.22 2.427 7.461 20.4 33.62 21.37 -2.427 4.924 8.617 24.8 0.08989 -7.73 -12.31
5.385 11.51 9.978 29.48 26.34 14.29 17.44 26.07 38.65 23.65 2.157 8.354 7.035 23.74 -1.528 -9.888 -18.79
5.39 18.79 17.35 29.57 24.99 17.89 21.75 23.73 34.88 20.93 0.7191 7.035 2.814 15.74 -4.584 -13.3 -23.82
5.395 22.47 20.85 23.37 17.89 14.56 19.51 14.47 23.46 14.16 -4.135 3.693 -1.143 3.781 -7.191 -15.28 -24.27
5.4 21.66 19.6 13.93 8.36 8.809 13.3 2.697 7.64 5.628 -7.551 2.11 -2.374 -7.914 -7.281 -12.85 -18.7
5.405 16.81 13.66 3.416 -0.6292 4.315 6.921 -7.371 -8.449 -2.198 -6.382 4.309 -0.1759 -16.71 -4.404 -5.303 -8
5.41 8.989 4.045 -7.551 -8.809 1.798 2.247 -14.11 -22.02 -9.145 -1.169 8.442 3.605 -21.63 -0.08989 4.854 4.764
5.415 -0.6292 -7.191 -19.06 -17.62 0 -1.438 -17.98 -31.64 -16.18 4.135 10.82 6.683 -22.6 4.225 14.47 16.9
5.42 -10.34 -17.8 -30.11 -27.69 -3.236 -6.202 -20.67 -36.85 -22.34 5.843 9.321 8.266 -19.87 8 21.03 26.7
5.425 -17.98 -24.99 -38.47 -36.94 -8.719 -11.87 -21.75 -37.03 -23.65 3.056 5.628 9.585 -13.28 12.13 24.99 33.89
5.43 -21.48 -27.15 -41.26 -41.17 -14.29 -15.91 -19.15 -31.19 -17.67 -0.4494 4.221 12.93 -2.374 17.89 28.49 38.92
5.435 -20.49 -23.82 -37.12 -37.3 -16.36 -14.92 -11.06 -19.87 -6.595 0.1798 7.65 19.17 11.34 24.72 32.54 41.71
5.44 -16.18 -16.81 -27.96 -26.88 -12.94 -8.36 -0.08989 -6.562 3.869 7.011 14.68 25.59 22.95 29.12 35.87 40.45
5.445 -10.97 -9.798 -18.61 -15.64 -6.292 -0.3596 7.551 3.056 9.497 16.09 20.49 27.35 26.91 27.15 34.79 33.8
5.45 -7.371 -6.742 -13.12 -9.618 -1.258 3.775 7.281 5.573 8.969 21.3 19.87 21.19 21.46 18.43 26.88 22.29
5.455 -6.202 -9.348 -12.4 -10.52 -0.809 1.618 0.08989 2.067 4.748 18.88 11.78 8.354 10.11 6.652 12.94 9.348
5.46 -6.562 -15.19 -13.84 -14.65 -4.225 -4.674 -8.18 -3.506 0.5276 10.34 -0.08793 -6.507 -1.583 -3.506 -2.067 -1.708
5.465 -6.562 -19.06 -14.02 -16.27 -8.449 -10.97 -12.4 -7.91 -2.022 0.4494 -10.82 -18.82 -10.46 -10.25 -13.12 -9.528
5.47 -5.303 -17.44 -11.69 -13.21 -11.24 -14.74 -11.87 -10.7 -4.924 -6.382 -17.67 -26.64 -16.8 -14.83 -18.25 -15.19
5.475 -3.326 -11.06 -8.18 -7.82 -12.94 -16.09 -10.43 -13.75 -11.17 -10.25 -22.25 -31.48 -22.51 -19.24 -19.78 -20.85
5.48 -1.708 -3.775 -5.843 -4.315 -15.46 -16.72 -12.4 -18.25 -19.96 -14.2 -26.82 -35.35 -28.84 -24.09 -22.38 -27.87
5.485 -0.809 0.2697 -5.753 -4.404 -18.79 -16.81 -17.53 -22.83 -26.29 -20.67 -31.13 -38.16 -33.77 -27.87 -28.4 -35.51
5.49 0.1798 1.169 -6.382 -5.393 -19.78 -14.47 -20.85 -23.55 -25.68 -27.33 -32.1 -37.2 -33.24 -28.31 -35.87 -41.26
5.495 3.236 1.888 -4.584 -3.596 -14.92 -7.82 -16.99 -17.26 -18.38 -29.3 -26.91 -30.07 -25.24 -25.35 -40.45 -43.06
5.5 8.989 5.573 1.079 2.427 -5.303 2.157 -5.303 -4.584 -7.826 -24.63 -16.27 -18.03 -12.31 -22.2 -40 -41.8
5.505 16.27 12.67 9.169 10.25 3.685 11.78 8.899 9.888 2.11 -17.44 -4.924 -5.628 -0.1759 -21.84 -36.49 -40
5.51 22.29 20.31 15.91 15.64 7.82 17.62 19.6 21.12 8.793 -14.29 2.022 2.022 7.298 -24.09 -33.8 -38.65
5.515 24.27 24.9 18.43 16.27 8.09 19.42 23.46 26.34 11.26 -17.35 2.814 3.869 10.55 -24.81 -33.89 -36.49
5.52 21.57 24.81 16.54 13.48 9.348 18.79 21.48 25.89 10.46 -22.47 0.08793 2.022 12.31 -20.4 -34.7 -31.1
