    T[sec] F7  F3  F4  F8  T3  C3  Cz  C4  T4  T5  P3  Pz  P4  T6  O1  O2 
41 23.01 23.01 23.01 23.01 23.01 23.01 23.01 23.01 22.01 23.01 22.01 22.01 22.01 23.01 23.01 23.01
0 -2.787 -6.202 -5.034 -4.989 -2.652 -5.843 -11.46 -7.236 -3.697 -3.775 -1.978 -4.643 -1.72 -1.708 -1.618 -3.416
0.005 -0.9888 -5.393 -3.685 -4.135 -1.933 -3.865 -10.11 -6.112 -4.084 -2.247 -0.5159 -2.751 -3.525 -3.596 -0.9888 -5.303
0.01 1.079 -3.685 -1.888 -2.247 -2.652 -3.371 -8.404 -5.348 -4.987 -1.798 -1.548 -2.751 -5.847 -5.843 -0.9888 -7.191
0.015 2.337 -2.427 -1.213 -1.573 -4.719 -5.169 -8.18 -6.382 -7.179 -2.157 -4.127 -4.385 -8.254 -8 -0.5393 -8.18
0.02 2.157 -2.247 -2.067 -2.742 -6.427 -8.27 -9.258 -8.36 -8.598 -2.247 -6.277 -6.448 -9.028 -8.36 0.4494 -7.64
0.025 0.9888 -2.472 -2.787 -4.09 -5.663 -9.933 -9.438 -8.809 -7.265 -0.8989 -6.191 -6.878 -6.964 -6.112 1.888 -5.753
0.03 0.2697 -2.337 -1.618 -3.416 -2.292 -8.18 -6.876 -6.112 -4.213 1.438 -3.697 -4.987 -3.439 -2.787 3.056 -3.685
0.035 0.4494 -2.112 1.483 -0.2697 1.573 -3.865 -2.382 -1.708 -2.064 3.326 -0.6878 -2.064 -1.118 -0.809 3.056 -2.607
0.04 0.9888 -2.202 4.404 3.236 3.73 0 1.079 1.348 -1.376 3.146 0.6019 -0.08598 -0.6878 -0.4494 2.157 -2.697
0.045 0.6292 -2.337 4.809 4.674 3.371 1.124 1.708 1.528 -0.8168 1.618 0.3439 1.032 -0.6019 0.08989 2.337 -2.157
0.05 -0.5393 -1.798 2.517 3.101 1.438 0.2247 0.2697 0.1348 0.6878 0.4494 0.2579 2.665 0.8598 2.157 5.213 0.3596
0.055 -1.438 -0.1798 -0.2697 0.1798 0 -0.4944 -0.6742 -0.3596 3.525 0.5393 1.634 5.417 4.213 5.573 9.348 4.674
0.06 -1.079 2.157 -1.034 -1.393 0.3146 0.4944 0.4494 0.8539 7.222 1.708 3.697 7.738 8.168 9.169 12.04 8.899
0.065 0.6292 4.539 1.169 -0.3596 2.382 3.101 3.461 2.876 10.15 2.876 5.503 8.34 10.58 11.15 12.13 11.87
0.07 2.157 5.393 4.674 1.933 4.225 5.798 6.157 3.685 9.931 3.326 6.62 7.394 10.06 10.25 10.43 13.57
0.075 1.708 3.416 6.472 2.921 3.955 6.562 6.427 2.157 6.62 2.517 6.362 5.933 6.878 7.191 8.18 14.2
0.08 -1.169 -0.5843 4.854 1.079 1.438 4.494 3.82 -0.764 3.267 0.6292 4.299 4.557 3.611 3.955 5.933 13.84
0.085 -5.034 -3.955 1.213 -2.157 -1.753 0.809 0.04494 -2.876 2.45 -1.708 0.6019 3.439 2.064 2.247 2.876 11.96
0.09 -6.831 -4.315 -1.258 -4.225 -4.045 -2.112 -2.517 -2.787 2.708 -3.865 -3.439 2.064 1.548 0.8989 -1.528 8.09
0.095 -5.303 -1.978 -0.764 -3.685 -4.854 -3.146 -3.416 -1.753 1.118 -5.663 -6.706 -0.3439 -0.3439 -1.888 -7.461 2.427
0.1 -1.888 0.6742 1.618 -1.663 -4.27 -3.101 -3.865 -2.022 -2.708 -6.652 -8.168 -4.041 -4.299 -5.933 -13.3 -3.506
0.105 0 1.528 3.236 -0.4045 -2.742 -2.787 -4.854 -4.315 -6.706 -5.843 -6.706 -6.964 -8.34 -9.079 -16.36 -7.551
0.11 -1.169 0 2.382 -1.348 -0.809 -2.292 -6.067 -6.831 -8.942 -3.236 -2.493 -7.05 -10.15 -10.07 -15.46 -8.809
0.115 -4.404 -2.742 -0.4045 -3.73 0.8539 -1.258 -6.112 -7.146 -8.684 -0.5393 2.064 -4.643 -9.2 -8.989 -12.58 -8.449
0.12 -6.831 -4.18 -2.697 -5.528 2.067 0.1348 -4.135 -4.36 -6.062 0.08989 3.697 -2.321 -6.191 -6.742 -10.79 -8
0.125 -5.933 -2.427 -2.202 -4.989 2.787 1.438 -0.5843 0.1348 -2.364 -1.169 1.548 -1.806 -2.751 -4.225 -10.88 -7.64
0.13 -1.708 1.798 0.9438 -2.427 2.921 2.427 3.236 4.09 -0.08598 -2.787 -1.892 -2.751 -0.7738 -2.427 -10.88 -6.472
0.135 3.416 5.438 4.539 0.2247 2.652 2.787 5.483 5.393 -0.2579 -2.697 -3.783 -3.697 -1.118 -1.798 -8.809 -4.135
0.14 6.202 5.978 5.933 1.348 2.562 2.337 5.213 3.73 -1.419 0 -3.009 -3.783 -2.665 -1.888 -4.764 -1.618
0.145 5.483 3.596 4.36 0.9438 3.056 1.393 3.101 0.7191 -1.72 3.955 -0.2579 -3.009 -3.869 -1.708 -0.4494 0
0.15 2.697 0.4944 1.169 -0.04494 3.64 0.5393 0.809 -1.708 -1.634 6.921 2.321 -2.235 -4.213 -1.528 1.888 0.5393
0.155 0.6292 -1.528 -1.843 -0.9888 3.056 -0.3596 -0.6292 -3.011 -2.149 6.831 2.493 -2.407 -4.127 -1.618 1.438 0.6292
0.16 0.3596 -2.157 -4.045 -1.843 1.124 -2.022 -1.663 -3.506 -2.235 4.135 0 -3.783 -3.353 -0.9888 -0.5393 1.348
0.165 1.169 -1.978 -5.573 -2.562 -1.079 -3.73 -2.652 -3.416 -0.6878 1.528 -2.837 -4.557 -1.376 0.9888 -1.079 3.326
0.17 1.978 -1.888 -6.517 -2.876 -2.202 -3.64 -3.191 -2.382 1.806 1.528 -2.923 -2.751 1.118 3.326 1.618 6.112
0.175 1.978 -2.067 -6.562 -2.427 -1.528 -0.5843 -2.562 -0.1798 3.439 3.955 0.5159 1.462 2.923 4.494 6.202 8.27
0.18 1.438 -1.753 -5.483 -1.348 0.6292 4.404 -0.1348 2.697 4.127 6.831 5.417 5.847 3.955 4.494 9.528 9.528
0.185 1.169 0.1798 -3.326 0 3.416 9.348 3.91 5.483 4.858 8.629 9.63 8.77 5.073 4.944 10.79 11.15
0.19 1.978 3.461 -0.809 0.8539 5.708 12.49 8.989 7.506 5.847 9.438 12.38 10.23 6.792 6.742 11.15 14.11
0.195 3.506 6.067 0.9438 1.169 7.056 13.21 13.26 8.315 6.835 10.07 13.84 10.75 8.426 8.899 12.04 16.99
0.2 4.854 6.517 1.843 1.618 7.865 11.87 15.24 8.18 7.867 10.88 13.84 10.23 9.2 9.978 12.76 16.9
0.205 5.753 5.663 2.742 3.191 8.404 9.798 14.47 8.045 8.469 10.97 11.78 8.082 8.34 8.899 11.69 12.13
0.21 7.011 5.303 4.629 5.798 8.315 8.18 12.18 8.719 7.093 8.989 7.48 4.299 5.761 5.573 7.191 4.135
0.215 8.989 6.067 7.101 7.82 6.742 7.056 9.528 10.25 3.697 4.315 1.29 -0.6019 2.493 1.618 -0.4494 -3.775
0.22 10.88 6.876 8.584 7.82 4.135 5.663 7.326 12 1.204 -1.528 -4.901 -4.729 0.8598 0 -8.629 -8
0.225 11.15 6.337 7.685 5.618 1.978 4.135 6.022 13.3 2.149 -5.213 -7.738 -5.503 2.321 1.798 -13.3 -7.461
0.23 8.899 3.775 4.449 2.562 1.618 3.506 5.798 13.66 5.417 -4.315 -5.159 -1.548 5.761 5.124 -12.04 -3.955
0.235 4.854 -0.2247 0.2697 0 2.697 4.135 6.157 12.36 7.566 -0.3596 0.9458 4.729 7.738 6.292 -7.371 -1.079
0.24 0.5393 -4.09 -3.416 -1.888 3.73 4.449 5.753 8.449 6.62 3.146 5.331 8.426 6.362 3.865 -4.045 -1.258
0.245 -2.787 -6.517 -5.888 -3.596 2.787 2.382 3.371 1.843 2.622 3.326 3.955 6.191 1.978 -0.7191 -4.854 -3.955
0.25 -4.944 -7.91 -7.146 -5.303 -0.8989 -2.517 -1.124 -6.112 -3.439 -0.2697 -2.665 -1.032 -3.869 -5.663 -9.258 -7.101
0.255 -6.652 -9.708 -7.326 -6.517 -6.337 -8.809 -7.056 -13.53 -9.673 -5.573 -10.75 -9.544 -9.2 -9.438 -14.29 -9.348
0.26 -8.18 -11.64 -6.382 -5.888 -10.74 -13.8 -12.72 -18.52 -13.07 -9.798 -16.25 -15.82 -12.3 -11.15 -17.35 -10.79
0.265 -8.719 -11.15 -3.865 -2.742 -11.64 -15.01 -15.96 -19.87 -12.47 -11.06 -17.2 -17.71 -12.38 -10.88 -16.99 -11.42
0.27 -6.562 -6.337 0.1348 2.112 -8.944 -11.91 -15.28 -17.39 -9.888 -9.438 -14.36 -15.73 -10.23 -9.348 -13.3 -11.06
0.275 -1.438 1.483 4.674 6.831 -4.494 -6.472 -11.1 -12.13 -7.437 -6.652 -10.49 -11.61 -7.136 -7.371 -8.09 -9.169
0.28 4.315 8.404 8.315 10.16 -0.2697 -1.798 -5.303 -5.438 -4.514 -3.506 -7.136 -7.05 -3.095 -4.135 -2.697 -5.663
0.285 7.73 10.97 10.61 12.22 2.697 0.764 0.4045 1.888 0.04299 -0.08989 -3.697 -1.634 2.235 0.809 2.607 -0.7191
0.29 7.73 8.764 12.09 14.07 4.315 2.337 5.618 9.393 5.675 3.596 1.806 5.847 8.254 6.472 8.449 4.315
0.295 6.022 4.809 13.3 15.82 5.213 4.584 10.47 16.13 10.75 6.742 8.856 14.7 13.07 10.61 13.66 8.27
0.3 5.573 3.551 14.16 16.58 6.427 7.955 14.61 20.63 14.49 8.18 14.62 21.92 15.73 12.58 16.54 10.16
0.305 7.551 6.831 13.89 15.37 8.18 11.42 17.39 21.8 16.04 7.461 16.77 24.93 16.08 12.4 16.63 10.34
0.31 10.25 11.91 12.27 12.54 9.258 13.53 17.98 19.91 14.19 5.393 15.48 23.82 13.93 10.34 15.1 9.169
0.315 10.52 13.93 9.888 9.393 8.449 13.39 15.73 15.96 9.286 2.966 12.64 19.86 9.716 6.742 12.94 6.562
0.32 6.652 10.65 7.685 7.236 5.663 10.7 10.88 10.97 4.127 1.079 9.802 14.62 4.815 2.966 10.79 2.876
0.325 0 4.045 5.888 6.067 1.798 6.022 4.404 5.213 0.3439 0 7.308 9.028 0.2579 0 8.719 -0.809
0.33 -6.112 -2.337 3.551 4.584 -2.427 0.3596 -2.202 -1.483 -2.88 -0.809 4.815 3.611 -3.525 -2.247 7.191 -3.146
0.335 -8.989 -6.652 -0.4045 1.258 -6.247 -5.618 -8.315 -8.764 -6.019 -1.888 1.548 -1.634 -6.277 -3.865 5.663 -3.596
0.34 -9.079 -8.989 -6.292 -3.91 -8.764 -11.15 -13.71 -15.19 -7.265 -2.966 -2.493 -6.448 -6.878 -3.955 3.596 -2.337
0.345 -8.719 -10.56 -12.67 -9.213 -9.663 -14.88 -17.93 -18.88 -5.46 -3.596 -5.675 -9.286 -4.815 -2.157 1.618 -0.5393
0.35 -9.169 -12.04 -17.26 -12.4 -9.798 -15.46 -20.31 -18.79 -2.192 -3.596 -6.534 -8.77 -1.634 0.08989 0.5393 0.08989
0.355 -9.528 -12.54 -18.25 -12.4 -9.573 -12.76 -20.04 -15.6 0.08598 -3.685 -5.159 -5.675 0.08598 1.169 0.3596 -0.8989
0.36 -7.91 -9.978 -15.69 -9.618 -8.36 -8.045 -16.94 -11.42 0.7738 -4.135 -3.353 -2.493 -0.172 0.6292 0.4494 -2.247
0.365 -3.596 -3.775 -10.7 -5.124 -5.753 -3.236 -11.37 -7.64 -0.04299 -5.034 -2.064 -0.7738 -1.634 -0.8989 0.809 -2.247
0.37 1.708 3.73 -4.539 0.04494 -2.562 0.5393 -4.09 -4.225 -2.064 -5.843 -0.8598 0.172 -2.751 -2.427 2.067 -0.1798
0.375 5.573 9.438 1.438 4.674 0.1348 3.191 3.101 -0.08989 -3.353 -6.022 0.9458 1.462 -2.321 -3.146 3.506 2.607
0.38 6.652 12 5.753 7.056 2.022 4.809 8.18 4.36 -1.935 -5.034 2.923 3.095 -0.2579 -2.517 4.315 4.674
0.385 5.393 11.91 6.697 6.292 2.652 5.438 9.573 7.281 0.6448 -2.787 4.557 4.385 1.29 -1.438 4.584 4.764
0.39 3.146 9.798 4 3.056 1.483 4.944 7.326 6.787 0.9458 -0.1798 5.331 4.557 0.2579 -1.798 5.213 3.146
0.395 0.9888 6.112 -0.6292 -0.2697 -0.9438 3.326 3.191 3.506 -1.419 1.798 4.987 3.439 -2.923 -3.146 5.933 1.258
0.4 -0.9888 2.202 -4.36 -1.528 -3.056 1.348 -0.4494 0.2247 -2.493 2.517 3.439 1.204 -4.729 -3.056 5.573 0.6292
0.405 -2.966 -0.6742 -5.483 -0.4494 -4 0 -2.112 -0.764 0 1.888 1.032 -0.8598 -2.751 -0.08989 3.596 1.618
0.41 -4.944 -2.427 -4.899 0.6292 -4.674 -0.6292 -2.382 -0.2247 3.181 0 -1.72 -2.407 0.6878 3.236 0.3596 2.157
0.415 -6.202 -3.685 -5.213 -1.258 -6.067 -1.663 -3.416 -1.348 2.751 -2.427 -4.901 -4.299 1.462 3.506 -3.596 0.3596
0.42 -6.382 -4.764 -8.225 -7.011 -7.685 -4.135 -6.607 -6.697 -2.794 -4.315 -8.168 -7.738 -2.751 -0.8989 -7.101 -3.865
0.425 -5.753 -5.663 -12.67 -13.39 -8.674 -7.73 -10.79 -14.79 -11.48 -4.584 -10.4 -11.78 -10.4 -8.09 -8.449 -8.629
0.43 -5.034 -6.247 -14.65 -15.28 -8.539 -10.52 -12.45 -20.18 -18.36 -3.775 -10.23 -14.01 -16.77 -13.84 -7.101 -11.87
0.435 -4.404 -5.753 -11.06 -10.25 -6.607 -10.16 -9.169 -17.53 -17.58 -2.607 -7.91 -12.81 -16.77 -13.93 -4.674 -12.22
0.44 -3.326 -2.921 -2.831 -0.9438 -2.427 -6.292 -1.753 -6.831 -7.781 -1.258 -4.987 -8.942 -9.716 -7.461 -3.416 -10.07
0.445 -1.258 1.618 4.989 6.697 2.652 -0.809 5.843 5.528 4.213 0.1798 -2.665 -4.385 -0.172 1.079 -3.416 -6.652
0.45 0.9888 4.989 7.73 8.315 6.067 3.146 9.438 12.04 8.727 1.618 -1.204 -1.032 4.815 5.573 -3.326 -4.045
0.455 2.427 5.124 4.584 4.09 6.472 3.955 7.64 9.933 3.439 2.787 0 0.4299 3.095 3.775 -2.337 -2.697
0.46 2.876 3.326 -0.8989 -1.978 5.303 2.607 2.921 2.831 -4.858 3.865 1.376 0.7738 -1.462 -0.6292 -0.809 -1.258
0.465 2.787 2.292 -4.494 -5.573 4.09 1.393 -0.6742 -2.831 -8.813 4.494 2.923 1.118 -4.041 -3.056 0.7191 1.258
0.47 2.157 2.517 -4.404 -5.348 2.966 1.438 -0.8989 -3.371 -6.706 4.315 3.955 1.978 -3.267 -2.427 1.348 3.865
0.475 0.9888 2.787 -2.022 -3.326 1.888 1.978 1.438 0.4494 -1.247 3.416 3.525 2.149 -0.8598 -0.4494 0 5.124
0.48 -0.809 2.022 0.04494 -2.427 1.303 1.933 3.955 4.719 3.439 2.427 1.376 0.6019 0.6019 0.8989 -2.966 4.225
0.485 -2.876 0.3146 0.4944 -3.461 1.483 1.393 4.944 6.112 4.041 1.888 -0.9458 -1.548 0 0.1798 -5.843 1.978
0.49 -4.404 -1.348 0 -4.719 2.022 1.258 4.135 4.449 0.3869 1.348 -1.978 -2.493 -2.149 -1.978 -6.742 -0.3596
0.495 -4.584 -1.753 -0.04494 -4.539 2.966 2.202 2.022 1.888 -3.138 0.6292 -1.118 -1.462 -3.439 -3.326 -5.753 -1.708
0.5 -3.326 -0.1348 0.2247 -3.011 4.629 3.596 -1.034 0.04494 -2.579 0.3596 0.4299 0.3439 -2.064 -2.157 -4.045 -1.438
0.505 -1.978 1.708 -0.1348 -1.663 6.022 3.82 -4.809 -1.258 0.4729 0.809 1.29 1.29 0.5159 0.2697 -2.337 -0.1798
0.51 -2.517 1.169 -1.663 -1.663 5.213 1.798 -8.404 -2.742 1.548 1.438 0.6019 0.3439 1.634 1.169 -1.438 0.3596
0.515 -4.854 -1.843 -3.011 -2.427 2.157 -1.618 -10.29 -3.775 0.08598 1.438 -1.634 -2.064 1.032 0.4494 -1.978 -0.2697
0.52 -7.011 -3.865 -2.427 -2.607 -0.8539 -4.045 -9.213 -3.146 -0.3869 0.7191 -4.471 -4.385 1.032 0.5393 -3.685 -0.6292
0.525 -6.742 -2.292 -0.04494 -1.618 -2.382 -3.955 -5.573 -0.809 1.677 -0.2697 -6.362 -4.901 2.923 2.427 -4.854 0.7191
0.53 -4.045 1.303 2.247 -0.1798 -2.697 -2.247 -1.708 1.663 4.428 -1.169 -6.191 -3.525 5.417 4.674 -4.135 3.506
0.535 -0.8989 3.461 3.011 0.6292 -2.652 -1.213 0.2247 2.831 6.062 -1.618 -4.729 -1.634 6.534 5.663 -2.247 5.843
0.54 0.7191 2.742 2.472 0.5393 -2.067 -1.483 0.4045 2.697 6.448 -0.8989 -3.009 -0.6878 6.191 5.124 -0.7191 6.652
0.545 0.8989 0.6292 2.517 0.5393 -0.764 -1.393 0.9888 2.697 5.288 0.1798 -1.634 -0.3439 4.987 3.775 -0.1798 5.573
0.55 1.079 -0.3146 4.449 1.753 0.6292 0.809 3.685 4.09 2.88 0.6292 -0.4299 0.5159 3.611 2.157 -0.5393 3.416
0.555 2.427 0.8989 7.281 3.685 2.067 4.854 7.73 6.607 1.505 0 0.7738 2.407 3.353 1.708 -1.079 1.798
0.56 4.854 3.551 8.18 4.494 3.64 8.629 10.61 8.225 2.88 -0.2697 2.321 4.815 4.901 2.966 -0.5393 2.427
0.565 6.742 4.944 5.438 2.876 4.719 9.708 10.38 7.191 4.987 0.7191 4.471 6.792 6.534 4.494 2.157 4.944
0.57 6.472 3.236 0.5393 -0.2247 4.09 7.64 7.416 3.865 4.643 2.607 6.362 7.48 6.019 4.135 6.112 6.921
0.575 4.404 0 -2.427 -2.202 2.022 4.18 4.09 0.6292 2.192 3.775 6.706 6.277 3.353 2.247 8.18 5.843
0.58 2.427 -1.079 -0.8539 -0.9888 -0.1348 1.483 2.472 -0.5393 0.2149 2.876 4.643 3.095 0.172 0.2697 6.382 1.708
0.585 2.157 0.8989 3.865 2.607 -1.978 0.1798 2.247 -0.1348 -0.9458 -0.3596 0.9458 -0.9458 -2.493 -1.348 1.708 -3.775
0.59 3.056 2.966 7.64 5.933 -4.18 -1.573 1.258 -0.2697 -2.751 -5.124 -2.923 -4.729 -4.815 -3.326 -3.326 -8.539
0.595 3.596 1.663 7.056 6.202 -6.517 -5.393 -2.202 -2.382 -4.729 -8.899 -6.019 -7.566 -6.534 -5.393 -6.472 -11.06
0.6 2.697 -2.202 2.787 3.191 -7.461 -10.11 -7.056 -5.528 -5.03 -9.708 -7.222 -8.34 -6.448 -6.022 -6.652 -10.61
0.605 1.258 -5.079 -1.618 -0.809 -6.202 -12.4 -10.11 -7.461 -3.869 -7.551 -6.534 -6.62 -4.815 -5.124 -4.674 -8.09
0.61 0.5393 -4.584 -2.876 -3.191 -3.685 -10.47 -9.348 -6.831 -2.88 -5.124 -4.815 -3.181 -3.095 -3.775 -2.697 -5.303
0.615 0.5393 -1.933 -0.9888 -3.146 -1.708 -6.157 -5.753 -4.584 -2.321 -4.764 -3.955 -0.7738 -2.064 -2.697 -3.056 -3.685
0.62 0.3596 -0.4045 1.303 -1.933 -1.393 -3.101 -2.202 -2.652 -1.634 -6.831 -4.987 -1.376 -1.376 -1.798 -5.303 -2.966
0.625 -0.5393 -2.427 1.438 -1.393 -2.697 -3.146 -0.7191 -2.292 -1.419 -9.258 -6.964 -4.127 -0.7738 -1.258 -6.652 -2.067
0.63 -1.798 -7.101 -0.5843 -1.978 -4.629 -5.169 -1.213 -2.876 -2.321 -9.798 -7.91 -6.448 -0.4299 -1.079 -4.764 -0.7191
0.635 -2.067 -10.25 -2.562 -2.742 -5.213 -5.798 -1.843 -2.742 -2.837 -7.101 -6.448 -6.105 0.2579 -0.4494 0 0.7191
0.64 -0.4494 -8.045 -2.517 -2.562 -2.966 -2.697 -0.8989 -0.9888 -1.075 -1.708 -2.235 -2.407 1.806 1.528 5.573 1.978
0.645 2.157 -1.573 -0.6742 -1.348 1.079 3.416 1.663 1.753 2.021 4.225 3.783 3.439 3.697 3.865 9.978 3.146
0.65 3.685 3.596 0.9438 -0.04494 4.449 9.213 4.36 3.775 3.998 8.539 9.544 8.77 4.557 4.674 11.69 3.865
0.655 2.337 3.101 0.809 0.3596 5.573 11.19 5.169 3.865 4.385 10.16 12.3 10.4 4.127 3.775 10.61 3.775
0.66 -1.258 -2.112 -0.5843 0 4.899 8.854 3.461 2.067 3.998 9.618 11.09 7.824 3.095 2.067 7.82 2.787
0.665 -4.854 -7.551 -1.708 -0.4494 3.326 4.539 0 -0.6292 2.407 7.461 6.706 2.665 1.118 0 4.674 0.7191
0.67 -6.112 -9.843 -1.798 -0.9438 1.213 0.5393 -3.955 -3.551 -0.9458 3.955 0.7738 -2.923 -1.892 -2.697 1.079 -2.517
0.675 -5.034 -9.034 -1.618 -1.708 -1.169 -2.607 -7.416 -6.112 -4.557 -0.6292 -5.331 -7.566 -5.073 -5.213 -3.775 -6.292
0.68 -3.236 -6.966 -2.427 -2.876 -2.966 -4.899 -8.674 -7.461 -5.847 -4.944 -10.06 -9.974 -6.105 -5.663 -8.899 -8.449
0.685 -1.708 -4.989 -3.73 -3.596 -2.966 -5.348 -6.067 -6.157 -4.385 -6.472 -11.26 -8.598 -4.041 -3.775 -11.24 -7.101
0.69 0.08989 -2.382 -3.685 -2.517 -0.4944 -2.382 0.764 -1.528 -1.634 -4.315 -7.566 -3.095 -0.172 -0.5393 -8.629 -2.157
0.695 3.146 2.292 -0.7191 0.809 3.91 3.865 9.618 5.034 1.548 0.6292 -0.3439 4.471 3.611 2.697 -2.247 3.865
0.7 7.011 9.034 4.18 5.034 8.449 10.97 16.4 10.79 4.772 5.933 7.308 11.01 6.105 5.213 4.584 8.449
0.705 9.888 14.25 8.09 7.685 10.38 15.1 17.57 13.12 6.749 9.079 12.21 13.93 6.792 6.382 8.449 9.798
0.71 9.528 13.48 8.135 6.742 7.865 13.39 12.27 11.06 6.577 8.719 12.12 11.95 6.105 6.202 7.64 8.27
0.715 4.674 5.663 3.955 2.697 1.978 5.978 2.876 6.022 5.374 5.933 6.964 6.019 5.331 5.753 3.236 5.663
0.72 -2.787 -4.674 -1.483 -1.843 -3.955 -3.191 -5.933 0.8539 4.772 2.966 0 -0.6019 5.331 5.933 -0.8989 3.865
0.725 -9.079 -11.28 -4.539 -4.315 -7.056 -9.213 -10.16 -1.798 4.428 1.438 -4.729 -4.385 5.417 6.202 -1.618 3.596
0.73 -10.79 -11.06 -3.506 -3.865 -6.517 -9.573 -8.764 -1.528 3.095 1.438 -4.987 -3.525 4.299 5.034 1.079 3.775
0.735 -7.82 -6.022 0.1348 -1.708 -3.506 -5.888 -3.865 0.3146 1.376 2.157 -1.548 0.4299 2.235 2.517 4.315 2.966
0.74 -2.876 -0.809 3.416 0.2697 0.3596 -1.303 1.348 2.022 0.9028 3.056 3.009 5.159 0.7738 0.4494 5.933 0.9888
0.745 1.079 1.393 4.404 1.169 4 2.202 4.944 2.787 1.505 4.404 7.05 8.942 0.8598 -0.08989 6.202 -0.6292
0.75 2.517 0.4045 3.281 1.124 6.607 4.629 6.202 2.337 1.763 5.483 9.458 10.83 1.204 0 6.202 -1.079
0.755 1.708 -1.483 1.438 0.764 7.775 6.067 5.079 0.6292 1.032 5.393 9.544 9.974 0.6878 -0.2697 5.933 -0.5393
0.76 0 -1.978 0 0.6292 7.326 6.247 2.067 -2.022 -0.129 3.596 7.48 6.62 -1.204 -1.438 4.944 -0.3596
0.765 -1.438 -1.034 -0.5393 0.764 5.124 4.989 -1.618 -4.764 -1.806 0.4494 4.299 2.235 -3.697 -3.326 2.787 -1.438
0.77 -2.247 -0.764 -0.4045 0.8539 1.393 2.247 -4.854 -6.697 -4.17 -2.517 1.032 -1.462 -6.019 -5.483 -0.08989 -3.865
0.775 -2.876 -2.652 -0.2697 0.7191 -2.562 -1.483 -6.876 -7.416 -6.191 -4.225 -1.892 -4.213 -7.222 -7.011 -3.236 -7.011
0.78 -4.045 -5.978 -0.5843 0.2697 -5.348 -5.393 -7.64 -7.236 -7.05 -4.764 -4.557 -6.105 -7.394 -7.101 -5.213 -9.528
0.785 -5.573 -8.719 -1.573 -0.5393 -6.787 -8.539 -7.551 -6.562 -7.48 -5.124 -6.706 -7.652 -7.566 -6.652 -5.753 -10.25
0.79 -6.831 -9.843 -3.011 -1.933 -7.82 -10.83 -7.461 -6.022 -8.512 -6.472 -8.77 -9.286 -8.512 -6.831 -5.663 -9.169
0.795 -7.64 -9.798 -4.27 -3.371 -9.169 -12.81 -7.775 -5.753 -9.028 -8.36 -10.75 -10.92 -9.114 -7.101 -6.202 -6.742
0.8 -7.64 -8.899 -4.315 -3.775 -9.798 -13.75 -7.416 -4.944 -7.007 -8.719 -11.18 -11.35 -7.308 -5.483 -6.472 -3.416
0.805 -6.202 -6.742 -2.067 -2.337 -8 -11.51 -4.449 -2.157 -2.536 -5.573 -8.082 -8.168 -2.235 -1.258 -4.494 0.8989
0.81 -2.517 -2.876 2.022 0.4494 -2.966 -4.719 1.708 2.607 2.321 0.6292 -1.204 -1.204 3.955 4.045 0.3596 5.573
0.815 2.966 2.427 5.888 3.056 4 4.584 9.258 7.73 6.062 6.831 6.62 6.706 8.856 8.449 6.112 9.169
0.82 8.27 7.865 7.326 4.09 9.888 12.09 14.56 10.92 8.168 10.34 11.61 12.04 10.83 10.61 9.708 10.79
0.825 11.24 11.01 5.798 3.326 11.69 14.2 15.24 10.92 8.125 10.43 11.87 12.9 9.716 10.07 9.978 10.34
0.83 10.43 10.02 2.921 1.888 8.764 10.61 11.42 8.09 5.933 8.36 8.426 9.716 6.191 6.921 7.281 8.449
0.835 6.472 5.573 0.764 1.034 3.685 4.36 5.663 4 3.052 6.202 3.783 4.557 2.064 2.517 3.506 5.573
0.84 1.348 0.764 0.3146 1.079 0.2247 -0.04494 1.483 0.5843 1.118 4.854 0.6019 0.172 -1.29 -1.348 0.3596 2.247
0.845 -2.067 -1.258 0.9438 1.258 0.3596 0.1798 0.8539 -0.8989 -0.08598 3.865 -0.08598 -1.634 -3.353 -3.865 -1.348 -0.8989
0.85 -2.247 -0.1798 1.034 0.4944 2.697 3.955 2.876 -0.6742 -1.591 2.067 0.5159 -1.29 -4.643 -5.393 -2.787 -3.416
0.855 0 2.022 -0.2247 -1.169 4.674 7.236 4.494 -0.08989 -3.052 -0.809 0.3439 -0.9458 -5.159 -5.753 -4.764 -4.764
0.86 2.517 3.461 -2.112 -2.876 4.854 7.101 3.64 -0.08989 -3.138 -3.416 -1.032 -1.806 -4.471 -4.584 -6.472 -4.135
0.865 3.775 3.82 -2.876 -3.326 3.91 4.225 1.124 -0.2697 -2.149 -4.045 -1.806 -2.751 -2.751 -2.517 -5.663 -1.438
0.87 4.045 4.135 -1.528 -2.427 3.461 1.663 -0.4045 0.4494 -1.333 -2.607 -0.4299 -2.321 -1.204 -1.169 -1.888 2.157
0.875 3.955 5.438 1.213 -0.9888 4.18 1.573 0.9438 2.787 -0.6019 -0.6292 2.407 -0.08598 -0.08598 -0.809 2.876 4.764
0.88 4.045 8 4 0.3146 5.438 3.596 5.124 6.517 0.9458 0.5393 4.729 3.009 1.032 -0.3596 5.753 5.303
0.885 4.045 10.7 6.202 1.573 5.438 5.888 10.02 10.65 3.31 0.4494 4.987 5.675 2.665 0.9888 5.393 4.404
0.89 3.596 11.55 7.64 2.966 3.326 6.652 12.9 13.35 5.073 -0.1798 3.009 6.534 4.127 2.787 2.337 2.966
0.895 1.978 9.888 8.045 4 0.2697 5.303 11.73 12.72 5.503 -0.2697 0 4.729 4.385 4.045 -1.258 1.258
0.9 -0.2697 6.921 6.382 3.73 -1.169 3.011 6.876 8.225 4.471 0.8989 -1.72 1.462 2.923 3.955 -2.876 -0.5393
0.905 -2.427 4.449 1.888 1.348 0 1.528 0.4494 1.213 1.634 3.506 -0.6019 -0.9458 0 1.888 -0.9888 -2.697
0.91 -3.506 2.742 -4.629 -2.652 2.472 1.303 -5.079 -5.708 -2.536 6.292 2.665 -1.032 -3.267 -1.708 3.146 -4.854
0.915 -3.865 1.034 -10.79 -6.382 4.225 1.034 -8.494 -10.16 -5.374 7.91 5.589 0.172 -4.987 -4.764 6.472 -6.202
0.92 -4.494 -0.9888 -13.39 -7.506 3.865 -0.5843 -9.483 -10.65 -4.342 7.281 5.847 1.118 -3.611 -4.854 6.652 -5.753
0.925 -5.573 -2.921 -11.15 -5.348 1.483 -3.416 -8.225 -7.371 -0.3869 4.225 3.181 0.6878 0.08598 -1.978 3.596 -3.416
0.93 -6.562 -4.36 -5.663 -1.528 -2.112 -6.472 -5.933 -2.562 2.708 -0.5393 -1.032 -1.29 3.181 1.079 -1.169 -0.6292
0.935 -6.652 -5.124 -0.764 1.258 -5.933 -9.169 -4.404 0.5843 2.622 -5.843 -5.589 -4.385 3.181 1.888 -5.753 0.6292
0.94 -6.022 -5.393 0.6292 1.708 -9.079 -11.24 -4.719 0.3596 -0.2149 -9.978 -9.114 -7.308 0.5159 0.1798 -8.27 -0.08989
0.945 -4.944 -5.393 -0.9888 0.4944 -10.97 -12.18 -6.247 -2.247 -3.955 -11.6 -10.32 -8.254 -2.923 -2.607 -7.82 -1.348
0.95 -4.135 -5.303 -2.966 -0.5393 -11.37 -11.24 -7.011 -4.764 -6.534 -11.06 -9.286 -6.706 -4.987 -4.764 -5.393 -1.348
0.955 -3.775 -4.629 -2.697 -0.2247 -10.07 -8.36 -5.438 -4.944 -5.976 -9.708 -6.878 -3.611 -4.213 -4.674 -3.236 0.2697
0.96 -3.775 -2.472 -0.4045 1.079 -7.191 -4.404 -1.573 -2.517 -2.192 -8.539 -4.127 -0.3439 -1.032 -2.067 -2.517 2.607
0.965 -3.236 0.8539 1.483 1.753 -4 -0.5843 2.607 0.7191 1.892 -7.551 -1.376 2.149 2.321 1.169 -2.337 3.775
0.97 -2.067 3.416 0.5393 0.3596 -2.202 1.393 4.404 2.337 3.31 -6.382 0.9458 3.095 3.697 2.607 -1.888 2.966
0.975 -0.9888 2.787 -3.596 -2.787 -2.517 0.2697 2.202 1.079 2.364 -4.944 1.892 1.892 3.009 2.247 -0.809 1.079
0.98 -1.528 -1.258 -8.36 -5.708 -3.865 -3.281 -2.517 -1.618 1.806 -3.146 1.118 -1.032 2.235 1.978 0.3596 0.4494
0.985 -3.506 -6.337 -10.2 -6.202 -4.539 -6.831 -6.112 -2.966 2.966 -1.438 -0.2579 -3.697 3.009 3.326 1.528 2.607
0.99 -5.124 -9.303 -7.371 -3.551 -3.685 -7.64 -5.798 -1.483 4.772 -0.1798 -0.9458 -4.385 4.815 5.573 2.337 6.292
0.995 -4.045 -7.82 -1.663 0.5843 -1.258 -4.944 -2.202 1.393 5.804 0.9888 -0.08598 -2.837 6.019 7.191 2.787 8.27
1 0.5393 -1.618 3.146 3.685 2.202 0.08989 1.213 2.876 5.46 2.876 2.407 0.4299 5.503 6.921 3.685 6.382
1.005 7.64 7.011 4.18 3.685 5.888 5.843 1.528 1.079 3.224 5.933 6.362 4.299 3.009 4.494 6.202 1.258
1.01 14.2 14.02 1.213 0.2697 8.584 10.29 -1.798 -3.281 -0.6448 9.169 10.58 7.566 -0.7738 0.2697 9.708 -4.315
1.015 16.9 16.31 -3.416 -4.719 9.528 11.69 -6.876 -7.82 -4.299 10.79 12.72 8.512 -4.385 -3.955 12.13 -8
1.02 14.2 13.48 -6.831 -8.719 8.539 9.438 -10.38 -9.843 -5.804 9.708 11.35 6.362 -6.362 -6.292 11.51 -8.899
1.025 7.91 7.596 -6.831 -9.483 5.573 4.719 -10.34 -8.36 -5.847 6.112 6.62 2.064 -6.62 -6.831 7.64 -7.82
1.03 1.618 1.258 -3.685 -6.876 1.124 -0.5843 -7.281 -4.944 -6.062 1.169 0.08598 -3.095 -6.362 -6.742 2.067 -6.472
1.035 -1.888 -3.685 0.5393 -2.607 -3.685 -5.348 -3.82 -2.247 -6.405 -3.596 -6.448 -8.168 -5.933 -6.562 -3.236 -5.753
1.04 -2.517 -6.427 3.461 0.8539 -7.371 -8.674 -2.022 -1.753 -5.589 -6.831 -11.18 -12.04 -4.987 -5.393 -6.022 -4.584
1.045 -1.798 -7.101 3.955 2.112 -8.944 -10.2 -1.933 -2.921 -3.611 -7.73 -12.47 -13.67 -3.439 -3.326 -5.034 -2.157
1.05 -1.618 -6.966 2.472 1.079 -8.719 -10.07 -2.337 -4.315 -2.021 -6.742 -10.49 -13.07 -2.407 -1.708 -1.708 0.7191
1.055 -3.056 -6.966 0.2697 -0.764 -7.371 -9.124 -2.382 -4.989 -1.419 -5.303 -7.566 -11.35 -2.493 -1.169 0.5393 2.067
1.06 -5.573 -6.787 -1.348 -1.843 -5.438 -7.82 -1.888 -4.584 -1.075 -4.404 -5.589 -9.286 -2.751 -1.258 -0.08989 0.9888
1.065 -7.011 -5.753 -1.798 -1.213 -3.416 -5.798 -0.9438 -3.056 -0.5589 -4.045 -4.815 -6.191 -1.892 -0.8989 -2.787 -1.079
1.07 -6.022 -3.91 -1.258 0.4944 -1.843 -2.697 0.3146 -0.6742 0.3439 -3.865 -3.869 -1.548 0.6019 0.7191 -4.944 -1.438
1.075 -3.056 -1.978 -0.5843 2.022 -0.6292 0.809 1.888 2.022 2.751 -2.607 -1.548 3.783 4.901 4.045 -4.494 1.438
1.08 0 -0.4045 -0.3596 2.652 0.6292 3.82 3.685 4.719 7.007 0.3596 2.493 8.512 9.802 8.539 -0.809 6.831
1.085 1.708 0.9438 -0.1348 2.697 2.382 5.798 5.528 6.921 11.13 4.494 7.308 11.18 13.5 12.04 4.404 11.96
1.09 2.067 2.157 0.9438 3.101 3.865 6.517 6.652 8.045 12.42 7.82 10.75 11.35 14.01 12.49 8 13.93
1.095 2.067 3.281 3.101 4.315 4.27 5.843 6.202 7.64 10.79 8 10.4 9.114 11.69 10.16 7.281 11.6
1.1 2.607 4.404 5.483 6.067 3.326 4.18 4.315 6.247 8.469 5.124 6.534 5.589 8.684 7.191 2.787 7.101
1.105 4.045 5.393 7.011 7.281 1.483 2.517 2.427 5.034 6.878 0.9888 1.548 2.579 6.448 5.393 -2.427 3.326
1.11 5.393 5.348 6.921 7.146 -0.3596 1.888 2.067 4.764 5.675 -1.798 -1.72 0.6878 4.901 4.225 -5.843 1.438
1.115 5.213 3.865 5.169 5.753 -1.258 2.067 3.236 4.989 4.471 -2.337 -2.751 -0.9458 3.095 2.876 -7.281 0
1.12 3.056 1.708 2.697 4.18 -1.034 2.292 4.539 4.854 3.009 -1.169 -2.837 -3.267 0.6019 0.809 -7.82 -2.876
1.125 0.08989 0.08989 0.8989 3.506 -0.6292 1.888 4.27 3.73 0.2149 -0.08989 -3.009 -5.417 -2.579 -2.157 -8.18 -7.73
1.13 -1.618 -0.6742 0.4494 4.18 -1.393 0.8539 1.753 1.528 -4.127 -0.3596 -4.041 -6.362 -6.277 -5.663 -8.719 -13.12
1.135 -1.348 -1.034 0.8989 5.528 -3.371 -0.5393 -2.022 -1.169 -8.125 -1.888 -5.417 -6.019 -9.114 -8.27 -8.809 -16.9
1.14 0.6292 -0.9438 1.528 6.787 -4.764 -1.393 -5.034 -3.371 -8.813 -3.056 -5.675 -4.385 -9.372 -8.18 -7.281 -16.81
1.145 3.146 -0.1348 1.843 7.461 -3.775 -0.4045 -5.079 -3.91 -5.933 -2.067 -3.439 -1.548 -6.792 -5.393 -3.326 -12.4
1.15 5.303 1.348 1.978 7.551 -0.4494 2.472 -1.888 -2.787 -1.849 0.9888 1.204 2.321 -2.751 -1.618 2.157 -5.393
1.155 6.562 3.011 1.978 7.056 3.506 5.663 2.427 -0.9438 1.419 4.584 6.019 5.933 0.9458 1.708 6.652 1.079
1.16 6.472 4.27 1.708 5.978 6.022 7.146 5.483 0.4944 3.353 6.921 8.34 7.996 3.353 4.045 8.36 4.944
1.165 4.944 4.584 1.213 4.36 5.663 6.337 6.337 1.213 3.74 6.742 7.308 7.652 3.869 4.854 7.101 5.753
1.17 2.337 3.281 0.5393 2.292 2.517 3.775 5.438 1.258 2.579 3.775 3.267 4.643 2.407 4.045 3.596 4.225
1.175 -0.6292 0.6292 -0.5393 0.04494 -1.708 0.3146 3.551 0.6292 1.505 -1.079 -2.321 -0.6019 0.172 2.517 -0.809 1.708
1.18 -3.056 -1.933 -2.202 -2.022 -4.809 -3.011 1.258 -0.4494 1.935 -5.933 -7.48 -6.191 -0.8598 1.978 -4.674 -0.08989
1.185 -3.955 -3.326 -4.225 -3.73 -5.393 -5.258 -1.213 -1.663 3.181 -8.36 -9.802 -9.114 -0.08598 2.966 -6.112 0.1798
1.19 -3.506 -3.91 -5.933 -4.854 -4.18 -5.933 -3.64 -2.607 3.439 -7.371 -8.34 -8.082 1.29 4.404 -5.124 2.157
1.195 -3.326 -4.989 -6.652 -5.258 -2.966 -5.708 -5.663 -3.146 2.579 -4.315 -5.073 -4.901 2.149 5.213 -3.326 4.045
1.2 -5.213 -6.876 -5.978 -4.584 -3.461 -5.753 -6.652 -3.191 1.978 -1.888 -2.923 -2.837 1.978 5.124 -2.427 4.135
1.205 -8.539 -8.539 -3.775 -2.652 -6.472 -6.697 -6.292 -2.652 1.677 -2.517 -3.783 -3.783 0.7738 3.685 -3.146 1.528
1.21 -10.52 -8.449 -0.9888 -0.1798 -10.79 -8.27 -5.169 -1.888 0.5159 -6.831 -7.652 -7.394 -1.29 0.6292 -5.213 -3.056
1.215 -8.539 -5.618 0.9888 1.483 -13.35 -9.393 -4.36 -1.393 -1.634 -12.31 -12.47 -11.61 -3.439 -2.787 -8.09 -7.91
1.22 -2.517 -0.08989 1.348 1.528 -10.83 -8.225 -3.82 -0.9888 -3.439 -14.83 -14.7 -13.15 -4.471 -4.854 -10.07 -10.43
1.225 4.854 6.337 0.8539 0.4045 -3.056 -3.371 -2.157 0.1798 -4.213 -11.6 -11.52 -9.888 -3.955 -4.764 -9.798 -8.899
1.23 10.07 10.88 0.764 -0.5393 6.247 3.865 1.483 2.427 -4.084 -3.955 -3.525 -3.009 -2.923 -3.685 -7.191 -4.315
1.235 10.88 11.64 1.798 -0.3596 12.09 9.753 6.022 4.629 -3.009 3.865 5.245 3.869 -2.149 -2.697 -3.775 0.4494
1.24 8.09 9.258 3.416 0.9438 12 11.01 8.809 5.303 -1.118 8.18 10.66 7.394 -1.72 -2.337 -1.169 3.146
1.245 4.764 5.888 4.494 2.292 7.91 7.73 8.18 4.09 0.08598 8.36 11.69 7.91 -1.376 -2.607 0.6292 3.506
1.25 3.596 3.64 4.584 2.607 4.449 3.73 5.169 2.292 -0.3439 6.562 10.58 8.082 -0.7738 -2.876 1.978 3.326
1.255 4.674 3.326 4.315 1.843 5.528 3.101 2.697 1.798 -1.032 5.753 10.49 10.23 0.6019 -1.978 3.416 4.494
1.26 6.202 5.169 4.719 1.348 11.1 7.461 3.64 3.82 0.4729 7.011 12.98 14.79 3.353 0.8989 5.573 7.551
1.265 6.742 8.36 6.292 2.112 17.39 14.65 8.18 7.416 3.783 9.528 17.11 19.78 6.191 4.225 8.719 11.15
1.27 6.382 10.83 7.775 3.461 19.91 20.18 12.81 9.573 5.46 10.61 19.69 21.84 6.448 4.764 11.33 12.49
1.275 5.933 10.74 7.011 3.281 17.35 19.96 12.99 7.191 3.138 8.989 17.54 18.57 2.665 1.258 11.33 9.798
1.28 5.303 7.506 2.831 0.1798 11.73 13.57 6.876 0.08989 -2.536 5.393 10.58 10.66 -3.611 -4.494 7.73 4.315
1.285 4.315 2.337 -3.146 -4.944 6.022 4.225 -2.787 -8.36 -9.372 1.888 1.892 2.149 -9.63 -9.798 2.067 -0.809
1.29 2.607 -3.191 -7.91 -9.528 1.169 -4.36 -11.24 -14.11 -14.75 -0.1798 -4.901 -3.697 -13.33 -12.85 -3.685 -3.416
1.295 0.1798 -7.506 -9.348 -11.06 -3.281 -10.65 -15.24 -15.1 -16.47 -1.438 -8.856 -6.448 -13.84 -13.21 -8.449 -4.045
1.3 -2.067 -9.618 -7.73 -9.303 -7.506 -14.97 -14.83 -12.31 -14.32 -2.966 -11.18 -8.168 -12.21 -11.96 -11.87 -4.764
1.305 -3.506 -9.798 -5.348 -6.472 -10.61 -17.75 -12.36 -8.539 -11.39 -5.303 -13.15 -10.4 -10.75 -11.06 -14.11 -7.101
1.31 -3.865 -9.483 -4.584 -5.258 -11.51 -18.88 -10.07 -6.292 -10.96 -8.27 -15.39 -12.98 -11.26 -12.04 -15.64 -10.97
1.315 -3.775 -9.573 -6.157 -6.652 -9.663 -17.8 -8.764 -6.202 -12.94 -10.7 -17.2 -14.79 -13.24 -13.66 -16.45 -14.83
1.32 -3.506 -9.169 -8.449 -8.899 -5.708 -14.16 -7.461 -7.011 -14.44 -10.88 -16.68 -13.93 -14.36 -13.84 -15.28 -16.36
1.325 -2.517 -6.921 -8.989 -9.258 -1.079 -7.91 -4.719 -6.742 -14.01 -7.551 -12.12 -9.63 -13.24 -12.04 -10.43 -14.47
1.33 -0.5393 -2.966 -6.652 -6.652 2.966 -0.2247 -0.3146 -4.989 -12.72 -1.169 -3.783 -2.923 -10.83 -9.888 -2.067 -10.16
1.335 1.169 0.5843 -2.607 -2.697 6.157 6.652 4.18 -2.742 -11.65 6.292 5.761 3.525 -8.942 -8.539 7.371 -5.124
1.34 0.809 1.978 0.8989 0 8.764 11.01 7.551 -1.258 -10.79 12.58 13.67 8.34 -7.652 -7.82 15.46 -0.3596
1.345 -2.427 0.8539 2.337 0.3146 10.61 12.54 9.528 -0.5393 -9.716 16.18 18.74 12.04 -6.019 -6.472 20.94 4.494
1.35 -6.831 -1.303 1.888 -0.9888 11.06 12.22 10.79 0.2697 -7.781 16.81 20.89 15.91 -2.923 -3.775 23.73 9.798
1.355 -9.169 -2.562 0.8989 -2.067 10.07 11.1 11.55 1.888 -3.568 15.46 20.64 19.26 2.149 0.7191 23.73 14.92
1.36 -7.73 -1.618 0.6292 -1.573 8.404 9.843 11.51 4.225 3.224 13.39 18.4 20.29 8.942 6.562 21.12 18.61
1.365 -3.416 0.5843 1.618 0.1798 6.202 8.404 10.38 6.472 10.15 11.15 14.62 17.8 14.79 11.87 16.54 19.51
1.37 0.5393 1.663 3.461 1.798 2.921 6.067 7.775 7.82 13.58 7.73 9.372 11.44 16.85 14.11 10.34 16.81
1.375 1.528 0.1348 5.169 2.292 -1.528 2.112 3.91 7.685 12.77 1.888 2.407 2.665 14.44 12.67 2.787 10.97
1.38 -0.4494 -2.382 6.292 2.067 -5.528 -2.742 -0.2247 6.517 9.931 -5.124 -5.245 -5.503 9.63 9.169 -4.494 3.865
1.385 -2.607 -3.326 6.876 2.292 -6.876 -6.157 -3.191 5.393 6.878 -10.61 -11.09 -9.974 5.245 5.393 -9.528 -1.708
1.39 -2.607 -2.202 6.921 3.011 -5.213 -6.472 -4.225 4.584 3.912 -12.4 -13.41 -9.974 2.321 2.247 -11.33 -4.225
1.395 -1.079 -1.213 5.888 2.831 -3.011 -5.034 -4.045 3.056 1.29 -10.52 -12.72 -7.824 0.5159 -0.08989 -10.79 -4.045
1.4 -0.7191 -2.697 3.146 0.4944 -4.045 -5.079 -4.09 -0.08989 -0.7738 -7.371 -11.26 -6.792 -0.9458 -1.618 -9.438 -2.876
1.405 -3.146 -6.742 -0.5393 -3.596 -10.07 -8.36 -4.764 -4.404 -2.966 -5.573 -10.75 -7.996 -2.923 -2.787 -7.91 -2.157
1.41 -6.652 -10.83 -3.461 -7.056 -18.43 -13.26 -5.483 -7.955 -5.417 -6.022 -11.09 -10.32 -5.245 -4.315 -6.292 -2.697
1.415 -7.82 -11.37 -3.551 -7.011 -22.97 -16.09 -5.169 -8.449 -6.319 -7.101 -11.09 -11.61 -6.362 -5.034 -4.315 -4.045
1.42 -4.944 -6.652 -0.04494 -2.292 -18.83 -13.48 -2.921 -5.034 -3.611 -5.843 -8.856 -9.974 -4.385 -3.506 -1.348 -4.854
1.425 0.4494 1.124 5.708 5.079 -7.281 -5.393 1.169 1.124 2.021 -0.9888 -3.353 -4.901 0.4299 0.3596 2.876 -3.955
1.43 5.124 7.461 10.88 11.33 4.944 4.315 5.618 7.236 7.566 5.213 3.783 1.806 5.589 4.584 7.64 -1.618
1.435 6.292 9.124 12.67 13.48 11.37 10.7 8.225 10.52 10.96 9.618 9.114 6.706 8.77 7.461 10.7 0.5393
1.44 4.494 7.146 10.7 11.51 10.83 11.55 8.225 10.34 12.51 10.16 10.49 8.168 9.63 8.809 11.24 1.888
1.445 2.517 4.944 7.101 8.09 7.236 9.303 6.697 8.719 12.9 8.27 8.598 6.878 9.544 9.528 10.07 2.876
1.45 2.427 4.36 4.584 5.753 4.944 7.371 5.258 7.865 12.38 6.022 5.847 4.987 9.372 10.07 8.629 3.775
1.455 3.236 4.225 4.135 5.258 5.079 6.562 4.18 8.045 11.91 4.674 3.611 3.439 9.63 10.79 7.371 4.315
1.46 2.427 2.652 4.539 5.393 5.124 5.303 2.607 8.18 12.34 3.506 1.892 2.321 10.23 11.69 5.933 3.955
1.465 -0.5393 -0.4944 4 4.629 2.472 2.247 0.1348 7.281 12.81 1.438 0.4299 1.548 10.4 12.04 4.225 2.876
1.47 -3.326 -3.281 1.843 2.697 -2.427 -1.483 -2.517 5.573 12.04 -1.798 -1.204 1.204 9.544 11.06 1.618 1.708
1.475 -3.146 -3.146 -1.079 0.4045 -5.888 -3.416 -4.09 4.18 10.53 -5.034 -3.009 0.7738 8.168 9.258 -1.798 1.079
1.48 0 0.5393 -3.101 -0.8989 -4.809 -1.798 -3.416 3.73 9.544 -6.472 -4.385 0.172 7.222 8 -4.944 1.079
1.485 3.056 5.258 -3.326 -1.169 -0.08989 2.292 -0.764 3.91 8.426 -5.393 -4.729 -0.5159 6.362 6.921 -6.292 1.258
1.49 2.607 6.697 -2.382 -1.169 3.73 5.528 1.753 3.011 5.546 -3.506 -4.213 -1.462 4.299 4.494 -5.663 0.3596
1.495 -2.247 3.236 -1.618 -1.573 3.236 4.854 1.978 0.08989 1.29 -2.876 -3.869 -2.923 0.6878 0.809 -4.315 -1.798
1.5 -8.539 -2.337 -1.798 -2.022 -0.809 0.6742 -0.3146 -3.775 -1.677 -3.775 -4.213 -4.213 -2.407 -2.067 -3.056 -3.955
1.505 -11.42 -5.393 -2.157 -1.573 -4.764 -3.191 -3.101 -5.933 -1.892 -4.944 -4.299 -4.299 -3.181 -2.697 -1.888 -4.404
1.51 -8.539 -3.775 -1.933 -0.08989 -5.933 -3.82 -4.315 -4.899 -0.2149 -5.124 -3.783 -3.439 -1.892 -1.438 -1.079 -3.326
1.515 -2.427 0.4045 -1.483 1.034 -4.674 -2.022 -3.955 -2.157 1.72 -4.944 -4.213 -3.611 -0.5159 -0.08989 -1.798 -2.787
1.52 1.798 3.281 -1.978 0.4494 -3.685 -1.258 -4 -0.8539 2.751 -5.933 -6.964 -6.362 -0.6019 -0.08989 -4.674 -4.404
1.525 1.438 2.337 -4.225 -2.067 -5.124 -3.775 -5.933 -2.787 2.021 -8.18 -11.35 -10.75 -2.149 -1.528 -8.809 -7.101
1.53 -2.517 -1.798 -7.191 -5.124 -8.404 -8.494 -9.348 -6.652 0.2149 -10.43 -14.53 -13.5 -3.783 -2.876 -11.69 -8.09
1.535 -6.382 -6.067 -8.944 -6.472 -10.47 -12.09 -12.04 -9.348 -0.08598 -9.888 -13.67 -12.3 -2.923 -2.067 -10.97 -5.393
1.54 -7.281 -7.326 -8.045 -4.944 -8.854 -11.73 -11.64 -8.225 2.966 -5.124 -7.996 -6.792 1.462 1.888 -5.663 0.3596
1.545 -4.764 -4.629 -4.719 -1.483 -4.045 -7.191 -7.281 -3.146 7.437 2.157 0.6019 0.6878 7.308 6.742 2.787 6.652
1.55 -0.6292 -0.2247 -1.034 1.573 0.5843 -1.213 -0.8539 3.056 9.544 7.91 8.168 6.878 11.09 9.169 10.16 10.25
1.555 2.607 3.011 0.8539 2.652 2.427 2.517 4.225 7.101 8.168 8.809 10.92 8.77 11.09 8.18 12.04 10.07
1.56 3.775 4.18 0.764 2.112 1.483 2.697 5.888 7.64 5.976 5.393 8.856 6.964 9.114 6.112 8.09 8
1.565 3.326 4 0.2697 1.618 -0.1348 1.169 4.629 6.067 5.288 1.528 5.503 4.729 7.566 5.483 2.247 6.472
1.57 2.697 3.551 1.213 2.472 -0.809 0.5843 2.517 4.36 6.019 0.7191 4.385 4.557 7.05 6.112 -0.9888 6.292
1.575 2.607 3.191 3.326 4.045 -0.08989 1.618 0.8539 3.056 6.663 2.876 5.933 6.105 6.191 6.112 -0.1798 5.933
1.58 2.787 2.966 4.674 4.584 1.079 2.876 -0.2247 1.348 5.761 5.483 7.566 6.792 4.041 4.404 2.697 4.315
1.585 3.056 2.517 3.551 2.787 1.753 2.921 -1.393 -1.258 2.321 5.393 6.878 5.159 0.4299 1.079 4.315 2.157
1.59 3.056 1.348 0.1798 -0.7191 1.483 1.258 -3.056 -4.225 -3.095 1.978 3.181 1.204 -3.611 -2.697 2.697 0.5393
1.595 2.427 -0.7191 -3.236 -3.91 1.124 -1.213 -5.169 -6.337 -7.652 -2.787 -1.978 -3.525 -6.534 -5.393 -1.978 -0.2697
1.6 1.079 -2.787 -4.135 -4.584 1.708 -3.011 -6.697 -6.652 -8.985 -5.753 -5.933 -7.136 -7.394 -6.202 -6.652 -0.9888
1.605 -0.1798 -3.506 -1.483 -2.292 2.876 -2.697 -6.472 -5.258 -7.996 -5.303 -6.62 -7.738 -7.136 -6.202 -8.27 -2.427
1.61 -0.08989 -2.562 2.921 1.169 3.236 -0.4494 -4.315 -3.416 -7.695 -2.247 -4.213 -5.503 -7.394 -6.831 -6.202 -4.045
1.615 1.708 -0.7191 6.112 3.371 1.978 1.663 -1.393 -2.562 -8.684 0.8989 -0.8598 -2.235 -8.254 -7.91 -2.337 -4.584
1.62 4.225 0.8539 5.843 3.011 -0.1798 1.888 0.8989 -2.787 -8.985 3.056 1.29 0.6019 -8.082 -7.281 1.169 -2.876
1.625 5.483 1.169 2.921 0.9888 -1.843 0.2247 2.247 -2.697 -7.394 4.494 2.579 2.751 -5.761 -4.584 3.865 0.7191
1.63 4.494 -0.04494 0 -0.8539 -1.798 -1.663 3.191 -1.169 -4.729 6.112 3.869 4.729 -2.579 -1.438 5.753 3.865
1.635 1.798 -2.022 -0.7191 -1.213 0.1348 -2.022 4.36 1.483 -2.021 7.64 5.503 6.448 0.08598 0.5393 6.921 4.584
1.64 -0.6292 -2.472 0.809 -0.2247 3.551 0 6.202 4.135 0.172 8.719 7.48 7.91 1.72 1.348 7.461 3.056
1.645 -0.809 0 3.056 0.809 7.461 4.36 8.899 5.708 1.505 8.809 9.544 9.372 2.751 1.708 7.82 1.618
1.65 1.708 4.494 3.955 0.7191 10.74 9.528 11.73 5.978 1.548 8.18 11.35 10.83 3.267 2.157 8.539 1.708
1.655 4.854 8.494 2.562 -0.4494 12.85 13.21 13.17 5.213 1.204 7.101 12.04 11.35 3.181 2.427 9.258 2.427
1.66 6.022 9.978 -0.1798 -1.573 13.62 14.11 12.13 3.685 1.333 5.933 11.09 10.06 2.321 2.427 9.618 2.247
1.665 4.404 8.629 -2.427 -1.438 12.54 12.49 8.629 1.708 0.9888 4.494 9.028 7.566 0.4299 1.258 9.528 0.5393
1.67 1.348 5.483 -3.146 -0.1798 9.213 9.708 3.73 -0.7191 -1.376 2.607 6.191 4.557 -2.665 -1.169 8.27 -2.067
1.675 -1.169 2.112 -3.056 0.5843 4.315 6.562 -1.124 -3.865 -4.987 -0.08989 2.751 1.29 -5.761 -3.775 5.124 -4.315
1.68 -2.427 0.1348 -3.64 -0.2697 -0.1348 3.416 -4.629 -7.146 -7.48 -2.787 -1.204 -2.149 -7.308 -5.213 0.4494 -5.753
1.685 -2.697 0.08989 -5.573 -2.787 -2.337 0.764 -5.978 -9.393 -7.953 -4.674 -4.987 -5.417 -7.222 -5.393 -4.674 -7.101
1.69 -2.517 1.213 -7.91 -5.393 -1.798 -1.079 -5.528 -9.933 -7.867 -5.663 -8.168 -8.34 -6.792 -6.022 -9.258 -9.258
1.695 -2.247 2.202 -9.348 -6.337 0.2697 -2.742 -5.124 -9.438 -8.082 -6.652 -10.92 -11.01 -7.308 -7.64 -13.3 -12.22
1.7 -1.888 2.382 -9.124 -4.989 2.202 -4.674 -6.337 -8.944 -8.254 -7.82 -13.24 -13.15 -7.996 -8.899 -16.27 -14.2
1.705 -1.079 1.528 -7.685 -2.202 2.472 -6.876 -8.899 -8.674 -8.082 -8.36 -14.19 -13.76 -7.91 -8.899 -17.08 -13.48
1.71 -0.1798 -0.2247 -6.022 0.3596 0.809 -8.809 -11.1 -7.955 -7.738 -7.73 -13.24 -12.47 -6.964 -7.73 -15.37 -10.7
1.715 -0.08989 -2.562 -4.854 1.933 -1.483 -10.02 -11.06 -6.022 -6.792 -5.933 -10.92 -10.15 -5.675 -6.472 -12.58 -8
1.72 -1.348 -4.135 -3.82 2.876 -2.652 -9.843 -8.045 -2.697 -4.643 -4.135 -8.34 -7.738 -4.127 -5.573 -10.34 -6.742
1.725 -2.876 -3.775 -1.888 3.91 -1.888 -7.91 -2.876 1.079 -2.407 -3.236 -6.019 -5.675 -2.837 -5.124 -9.258 -6.292
1.73 -3.506 -1.843 0.8989 4.854 0 -4.719 1.888 3.685 -1.978 -3.596 -3.955 -3.611 -2.407 -5.213 -8.719 -4.674
1.735 -2.787 -0.1798 2.876 4.719 1.528 -2.202 3.73 3.416 -3.138 -4.225 -2.321 -2.149 -2.665 -5.034 -7.73 -1.348
1.74 -2.247 -0.08989 2.022 2.831 1.753 -1.843 1.888 0.3146 -4.084 -3.775 -1.118 -1.634 -2.751 -3.955 -5.303 2.607
1.745 -3.056 -1.798 -1.708 -0.1348 0.4944 -3.191 -1.663 -3.281 -4.041 -1.348 0.172 -1.72 -2.235 -2.247 -1.348 5.213
1.75 -4.944 -4.135 -5.933 -2.562 -1.483 -4.27 -3.91 -4.854 -3.74 1.798 1.72 -1.634 -1.892 -1.348 2.607 4.854
1.755 -6.202 -5.708 -7.685 -3.011 -2.921 -3.326 -3.101 -3.236 -3.439 3.685 2.751 -1.118 -1.978 -1.978 4.225 1.798
1.76 -5.124 -5.348 -5.708 -1.528 -2.247 -0.04494 0.3596 0.5843 -2.493 3.326 2.837 0 -2.064 -3.056 3.146 -1.708
1.765 -1.438 -3.371 -1.618 0.1348 0.4494 4.449 4.584 4.629 -1.376 1.618 2.493 1.892 -1.892 -3.775 1.079 -3.596
1.77 2.787 -1.663 1.348 0.08989 3.775 8 7.101 6.742 -1.204 0 2.064 3.697 -1.892 -4.135 -0.2697 -3.326
1.775 5.034 -1.888 0.809 -2.247 5.573 8.315 6.382 5.798 -1.978 -0.809 1.462 3.783 -2.407 -4.135 -0.809 -2.067
1.78 3.596 -3.73 -2.652 -5.483 4.899 4.989 2.742 2.337 -2.364 -1.079 0.2579 1.548 -2.751 -3.326 -0.9888 -0.6292
1.785 0.2697 -5.393 -6.067 -7.461 2.337 0.1798 -1.348 -1.438 -2.235 -1.618 -1.118 -1.462 -2.407 -1.888 -1.169 1.169
1.79 -1.888 -5.708 -6.697 -7.326 -0.5393 -3.371 -3.506 -3.685 -2.45 -2.517 -1.892 -3.439 -1.892 -0.8989 -1.169 3.416
1.795 -1.079 -4.989 -4.584 -5.888 -2.022 -4.584 -2.652 -3.64 -2.622 -3.236 -2.064 -3.525 -1.29 -0.6292 -0.9888 5.663
1.8 1.618 -4 -1.978 -4.584 -1.258 -3.91 0.1348 -1.618 -1.505 -2.697 -1.634 -2.149 -0.08598 -0.2697 -0.2697 7.101
1.805 4.135 -3.551 -0.8539 -4.09 0.8539 -2.292 3.281 1.573 1.075 -0.4494 -0.4299 0.172 2.064 0.8989 0.8989 7.73
1.81 4.854 -3.82 -1.303 -4.09 2.472 -0.6742 4.809 5.079 3.955 2.247 1.376 2.579 4.815 2.966 2.067 7.64
1.815 3.506 -4.539 -2.022 -3.73 2.427 0.04494 3.91 7.685 6.663 3.596 2.837 4.213 7.308 5.483 1.798 7.281
1.82 1.438 -5.034 -1.843 -2.697 0.9888 -0.3596 1.303 8.809 9.286 2.697 3.095 4.385 9.458 8.18 0.1798 7.191
1.825 0 -5.079 -0.764 -1.303 -0.8989 -1.618 -0.809 8.539 10.96 0.6292 2.579 3.611 10.66 9.978 -1.528 7.281
1.83 -0.6292 -5.393 0.2247 -0.2697 -2.697 -3.056 -0.7191 7.461 10.19 -0.7191 1.892 2.493 9.974 9.528 -2.337 7.191
1.835 -0.809 -6.157 0.6742 0.08989 -3.82 -3.955 1.843 5.888 7.351 -0.2697 1.806 1.462 7.394 7.011 -1.978 6.382
1.84 -0.809 -6.067 1.258 0.6742 -3.551 -3.236 5.528 4.36 4.514 1.978 2.837 1.634 4.213 3.865 -0.3596 4.944
1.845 0.4494 -3.236 3.281 2.067 -1.663 0.4045 8.719 3.371 2.45 5.124 5.933 4.213 1.376 1.348 3.056 3.506
1.85 4.135 2.607 6.652 3.955 1.348 6.742 9.843 2.742 0.3869 7.82 10.92 9.028 -1.204 -0.6292 7.82 2.157
1.855 9.348 9.348 9.348 5.213 4.404 13.03 8.045 1.483 -1.677 9.169 15.91 13.84 -3.525 -2.247 12.22 0.6292
1.86 13.57 13.93 9.079 5.079 6.112 15.87 3.82 -0.764 -2.837 9.258 18.57 15.91 -4.557 -2.966 14.65 -0.9888
1.865 14.2 14.38 5.843 3.865 5.348 13.84 -0.8539 -3.281 -2.579 8.539 18.31 14.19 -3.783 -2.067 14.65 -1.618
1.87 11.15 10.79 2.157 2.652 1.978 8.404 -3.685 -4.27 -1.247 7.101 15.39 9.888 -1.376 -0.08989 12.58 -0.7191
1.875 6.112 5.124 0.9438 2.517 -2.652 2.427 -3.416 -2.652 1.29 4.404 10.75 4.901 1.806 2.607 9.169 1.438
1.88 1.348 0.4045 3.101 3.551 -6.472 -1.618 -0.7191 1.124 5.331 0.7191 5.761 0.7738 5.331 5.753 5.573 4.045
1.885 -1.528 -1.573 6.787 4.989 -8.315 -2.966 2.697 5.528 9.286 -2.876 1.892 -1.376 8.34 8.629 2.876 6.292
1.89 -2.966 -1.528 9.079 5.573 -8.584 -2.652 4.944 8.494 11.05 -5.393 -0.4299 -1.978 9.974 10.16 1.348 7.73
1.895 -3.955 -1.079 8.494 4.854 -8.27 -2.562 4.944 8.854 10.66 -6.292 -1.634 -1.892 10.15 10.43 0.2697 8.18
1.9 -5.124 -0.6742 6.022 3.551 -7.865 -3.056 3.371 7.416 10.1 -5.753 -2.235 -1.806 9.888 10.43 -0.2697 7.82
1.905 -5.393 0.3596 4.36 2.876 -7.236 -2.787 2.292 6.157 9.802 -4.315 -2.149 -1.118 9.2 10.07 0.08989 6.562
1.91 -3.865 2.382 5.079 3.281 -6.337 -0.5393 2.742 5.978 8.297 -2.787 -1.376 0 7.136 8.09 0.9888 3.416
1.915 -1.169 4.27 7.236 4.27 -5.483 2.427 3.64 5.618 4.729 -2.067 -1.032 -0.172 2.837 3.865 0.809 -2.067
1.92 0.7191 4.584 8.449 4.944 -5.124 3.551 3.011 3.191 0.08598 -2.157 -2.321 -2.923 -2.407 -1.348 -1.528 -8.899
1.925 0.7191 2.876 7.281 4.854 -5.618 1.393 0.04494 -1.573 -4.299 -2.607 -5.159 -7.652 -6.878 -5.753 -5.303 -14.38
1.93 -0.809 -0.1348 4.18 3.955 -6.966 -2.876 -3.955 -6.966 -7.523 -3.056 -8.254 -11.87 -9.114 -7.82 -8.629 -16.09
1.935 -2.517 -2.876 0.764 2.697 -8.315 -6.742 -7.101 -10.52 -8.168 -3.326 -10.15 -13.41 -8.254 -6.831 -9.618 -13.66
1.94 -3.326 -3.506 -1.348 1.663 -8.449 -7.73 -7.91 -10.79 -5.589 -2.876 -9.802 -11.18 -4.729 -3.146 -7.551 -8.809
1.945 -3.236 -1.708 -1.888 1.303 -7.146 -5.393 -6.472 -8.27 -1.634 -1.258 -6.62 -5.761 -0.172 1.079 -2.876 -3.685
1.95 -2.697 0.5393 -1.258 1.393 -5.483 -1.708 -4.135 -5.079 0.8598 0.8989 -1.978 0.172 2.837 3.236 2.067 -0.3596
1.955 -2.607 1.124 -0.5393 1.528 -4.719 0 -2.742 -3.416 1.333 2.337 1.634 3.697 3.181 2.697 4.854 0.6292
1.96 -2.966 -0.3596 -0.4494 1.303 -4.899 -1.483 -2.787 -3.865 1.161 1.798 2.235 3.095 1.892 0.809 4.584 0.2697
1.965 -2.876 -2.427 -0.9888 0.7191 -5.303 -4.629 -3.371 -5.034 0.9028 -0.3596 0.2579 0.08598 0.3439 -0.6292 2.787 -0.08989
1.97 -1.798 -3.685 -1.663 0 -5.079 -6.337 -3.326 -5.258 0 -2.697 -2.321 -2.751 -0.7738 -1.438 1.528 -0.1798
1.975 -0.4494 -3.64 -2.202 -0.4944 -3.73 -5.303 -2.607 -3.955 -1.161 -3.685 -3.869 -3.697 -1.204 -1.438 1.708 -0.5393
1.98 -0.08989 -2.742 -2.292 -0.4944 -1.573 -2.472 -1.708 -1.663 -1.204 -2.607 -3.783 -2.493 -0.6019 -0.6292 3.326 -1.348
1.985 -1.169 -1.708 -1.933 -0.04494 0.3596 0.1348 -0.8989 0.7191 0 -0.2697 -2.407 -0.08598 0.6878 0.6292 5.663 -2.247
1.99 -3.056 -1.438 -1.348 0.3146 1.034 0.9888 -0.3146 2.247 0.6019 0.9888 -1.204 1.892 1.376 1.258 7.281 -2.697
1.995 -4.944 -2.382 -1.393 0.04494 0.1798 -0.5393 -0.4944 1.708 -0.4299 -0.1798 -1.892 1.72 0.3439 0.6292 6.562 -2.787
2 -6.382 -3.775 -2.427 -1.079 -1.169 -3.506 -1.843 -1.124 -2.708 -3.236 -4.901 -1.032 -1.892 -0.7191 3.416 -3.236
2.005 -6.742 -4.494 -4 -2.382 -1.798 -5.708 -4 -5.079 -5.331 -5.843 -8.512 -4.729 -4.385 -2.247 -0.2697 -4.404
2.01 -5.753 -4.045 -4.944 -3.056 -1.393 -5.663 -5.888 -8.09 -7.523 -6.112 -10.58 -6.964 -6.362 -3.955 -2.787 -6.112
2.015 -3.416 -2.472 -4.494 -3.011 -0.08989 -3.596 -6.337 -8.629 -7.996 -4.135 -10.32 -7.05 -7.394 -5.303 -3.506 -7.73
2.02 -0.3596 0.04494 -2.787 -2.427 1.618 -0.809 -4.629 -6.562 -6.234 -1.438 -8.426 -5.675 -7.05 -5.573 -2.966 -8
2.025 2.697 3.101 -0.4944 -1.798 3.236 1.618 -1.169 -2.876 -4.127 0.1798 -5.847 -3.525 -5.761 -5.034 -1.888 -6.112
2.03 5.124 5.663 1.618 -1.169 4.27 3.416 2.607 0.6742 -3.869 0.5393 -3.439 -1.204 -4.471 -4.225 -0.9888 -2.427
2.035 6.562 6.921 3.191 -0.5393 4.899 4.404 5.169 3.101 -4.471 0.2697 -1.72 0.6878 -3.009 -3.056 -0.6292 1.438
2.04 7.191 7.191 4.135 0.3146 5.753 4.809 5.843 4.27 -2.966 0.809 -0.2579 2.751 -0.172 -0.6292 0 4.225
2.045 7.551 7.281 4.539 1.348 7.011 5.169 5.438 5.079 1.075 2.607 1.892 5.331 3.697 2.607 1.618 5.843
2.05 8 7.326 4.315 1.843 7.82 5.573 4.899 5.753 4.772 4.494 4.643 7.91 6.534 4.674 3.775 6.112
2.055 7.461 6.787 3.506 1.348 7.371 5.169 4.18 5.753 5.073 4.764 6.362 8.598 5.847 3.596 4.135 4.854
2.06 5.124 5.393 2.382 0.2247 5.528 3.281 2.831 4.584 2.064 2.876 5.245 6.105 1.892 -0.08989 1.348 2.157
2.065 1.618 3.775 1.663 -0.3596 2.787 0.3596 0.8989 3.011 -2.021 0 1.634 1.462 -3.009 -4.494 -3.865 -1.438
2.07 -1.258 2.472 1.618 -0.2247 -0.1798 -2.292 -0.8989 1.933 -4.901 -2.517 -2.579 -3.095 -6.191 -7.281 -9.348 -4.584
2.075 -2.067 1.843 1.393 -0.3596 -2.562 -4.09 -2.247 1.079 -4.987 -4.045 -5.761 -5.933 -6.277 -7.191 -13.3 -6.472
2.08 -1.258 1.888 -0.1348 -2.067 -3.64 -5.124 -3.371 -0.6292 -2.837 -4.494 -6.62 -6.362 -3.525 -4.494 -14.74 -6.112
2.085 -0.08989 1.978 -3.011 -5.483 -3.551 -5.663 -4.449 -3.91 -1.333 -4.045 -5.073 -4.987 -0.6019 -1.528 -13.48 -4.045
2.09 -0.08989 1.079 -5.663 -8.989 -3.056 -6.067 -5.528 -7.551 -2.622 -2.876 -2.149 -2.923 -0.3439 -0.8989 -10.61 -1.618
2.095 -1.438 -1.034 -6.112 -10.11 -2.517 -6.382 -6.112 -9.483 -5.03 -1.079 0.3439 -1.72 -2.579 -2.876 -7.91 -0.6292
2.1 -3.326 -3.146 -3.775 -7.596 -1.348 -6.202 -5.258 -7.955 -4.987 1.348 1.634 -1.892 -4.815 -5.124 -6.382 -1.079
2.105 -4.135 -3.281 0.1348 -2.742 0.809 -4.584 -2.652 -3.326 -2.192 4.135 2.235 -2.407 -4.987 -5.573 -5.393 -1.348
2.11 -2.876 -1.034 3.371 1.034 3.64 -1.438 0.809 1.708 0.3009 6.472 2.837 -2.149 -3.181 -4.494 -4.404 0
2.115 -0.08989 2.337 4.09 1.124 5.933 1.753 3.281 4.315 0.7308 7.461 3.353 -1.118 -1.032 -2.697 -3.326 2.607
2.12 2.787 5.483 2.427 -2.292 6.876 3.64 3.685 3.596 0.4729 7.101 3.611 0.172 0.6878 -0.7191 -2.067 4.944
2.125 4.854 7.281 0 -6.382 6.157 3.955 2.697 1.663 1.505 6.382 3.783 1.892 1.892 1.348 -0.1798 5.573
2.13 5.753 7.236 -1.573 -8.135 4.27 3.775 1.843 0.8539 3.783 5.843 4.385 3.697 2.407 2.876 1.978 4.225
2.135 5.034 5.483 -2.157 -7.191 2.697 3.955 1.798 1.303 5.503 5.393 5.331 4.987 2.149 3.326 3.146 1.618
2.14 2.787 3.191 -2.517 -5.348 2.607 4.584 1.978 1.663 4.901 4.674 5.847 4.901 1.204 2.787 2.607 -0.1798
2.145 0 1.618 -2.966 -4.719 3.775 5.438 1.663 0.9888 1.376 3.506 5.761 3.869 -0.4299 1.169 1.079 -0.3596
2.15 -1.798 0.9438 -3.101 -5.618 4.494 5.798 0.4045 0.08989 -3.267 1.798 5.159 2.665 -2.751 -1.169 -0.1798 0.5393
2.155 -1.618 0.6742 -2.337 -6.472 3.326 4.944 -1.573 0.2247 -4.944 0.08989 3.955 1.634 -4.385 -2.966 -0.6292 0.6292
2.16 -0.2697 0.3596 -0.8989 -5.663 0.4944 2.831 -3.551 1.888 -1.247 -1.079 2.321 0.6019 -3.611 -2.247 -0.1798 -0.6292
2.165 0.3596 -0.2697 0.4045 -3.191 -2.292 0.4494 -4.719 4 4.772 -1.079 0.8598 -0.08598 -0.7738 0.4494 0.8989 -2.337
2.17 -0.8989 -1.303 0.809 -1.079 -3.506 -1.034 -4.674 4.719 7.179 -0.5393 -0.5159 -0.5159 1.548 2.787 1.978 -2.787
2.175 -3.865 -2.337 0.08989 -1.213 -2.247 -1.618 -3.685 3.056 3.912 -0.5393 -2.407 -1.118 1.29 2.427 1.888 -1.798
2.18 -6.652 -2.202 -0.9438 -3.281 0.6742 -1.663 -2.247 0.08989 -1.505 -1.438 -4.815 -2.064 -1.118 -0.08989 0.9888 -0.08989
2.185 -6.921 -0.3596 -1.393 -4.989 3.461 -1.303 -0.6742 -1.843 -4.643 -2.787 -6.448 -2.493 -3.955 -2.966 0.3596 1.258
2.19 -4.494 2.067 -0.9888 -4.449 4.27 -0.4045 0.3596 -1.843 -4.17 -3.506 -5.847 -1.806 -5.331 -4.674 0.809 1.888
2.195 -1.618 3.146 -0.8539 -2.292 3.146 0.764 0.2697 -1.303 -1.763 -2.966 -3.095 -0.2579 -4.299 -4.225 2.157 2.067
2.2 -0.9888 2.157 -1.843 -0.9888 1.888 2.382 -0.6742 -1.933 0 -0.7191 0.5159 1.29 -1.548 -1.798 3.326 2.787
2.205 -3.056 0.3146 -3.865 -2.337 2.562 4.719 -0.8539 -3.506 -0.8168 2.607 3.955 2.837 0.9458 0.5393 4.315 4.584
2.21 -5.213 -0.4494 -5.438 -5.528 5.483 7.82 1.303 -4 -3.654 5.483 6.448 4.471 1.462 0.8989 4.674 6.382
2.215 -4.584 0.809 -5.079 -7.596 9.034 10.34 5.573 -1.528 -5.159 6.382 7.394 5.589 0.2579 -0.4494 4.045 6.472
2.22 -0.8989 3.775 -2.427 -5.708 11.1 10.65 9.618 3.73 -2.021 4.764 6.62 5.503 0 -1.169 2.247 4.494
2.225 3.506 6.427 1.708 0 9.888 8.09 10.97 9.843 4.557 1.798 4.471 4.213 2.407 0.7191 0.1798 2.247
2.23 5.753 6.427 5.618 6.247 5.573 3.416 8.674 13.98 10.32 -1.258 1.548 2.407 6.964 4.854 -1.708 1.888
2.235 4.404 3.281 7.685 9.393 0.1798 -1.483 4.225 14.25 12.38 -3.506 -1.892 0.5159 11.35 9.169 -3.326 3.865
2.24 0.7191 -0.764 7.326 8.449 -3.056 -4.449 0.7191 11.28 11.13 -4.494 -4.643 -0.5159 13.58 11.96 -4.584 7.101
2.245 -2.067 -2.607 5.618 5.843 -2.652 -3.775 0.6742 7.64 8.168 -4.225 -5.159 0.3439 12.81 12.04 -4.764 9.618
2.25 -1.978 -1.213 4.18 4.989 0.2697 0.1348 4.045 5.483 4.643 -3.236 -2.665 3.181 9.716 9.528 -3.596 9.708
2.255 0.3596 1.843 3.955 7.191 3.371 4.854 7.82 4.944 2.192 -1.888 1.118 6.191 5.933 6.022 -1.618 6.921
2.26 2.517 4 4.629 10.92 4.584 7.191 8.719 4.539 1.849 -0.3596 3.783 7.222 3.439 3.506 0.8989 2.607
2.265 2.876 3.64 5.034 13.3 3.416 6.022 5.618 2.517 2.493 1.169 4.213 5.761 2.064 2.337 4.135 -1.079
2.27 1.708 0.764 4.18 12.63 0.809 2.427 0.1348 -1.438 1.591 2.337 2.837 3.009 0.4299 1.258 7.461 -3.056
2.275 0.3596 -3.191 1.888 9.843 -1.393 -1.438 -4.764 -6.247 -1.118 2.067 1.204 0.4299 -1.72 -0.2697 9.888 -3.506
2.28 0 -6.067 -0.5393 7.371 -2.202 -3.82 -6.742 -9.303 -3.568 0.4494 0.2579 -0.7738 -3.267 -1.348 10.43 -2.787
2.285 0.4494 -6.697 -1.708 7.101 -1.978 -3.685 -4.989 -8.36 -3.998 -1.618 0.4299 -0.4299 -2.751 -1.079 9.348 -1.618
2.29 1.169 -5.708 -0.8989 8.494 -2.247 -1.618 -1.034 -3.775 -2.708 -3.236 0.6878 0.2579 -0.9458 -0.08989 7.101 -0.7191
2.295 1.348 -4.809 0.5843 9.528 -3.775 0.3596 2.202 1.124 -0.6019 -3.955 -0.6019 -0.4299 0.2579 0.5393 4.135 -1.079
2.3 0.5393 -4.584 1.169 8.629 -5.573 0.809 2.607 2.652 1.333 -3.685 -3.697 -3.267 0.08598 0.4494 0.809 -2.517
2.305 -0.4494 -4.629 0.04494 5.933 -6.112 -0.04494 0.2697 -0.1348 2.021 -2.966 -6.706 -6.277 -1.032 0.08989 -1.528 -4.045
2.31 -0.8989 -4.629 -1.933 2.966 -4.899 -1.079 -2.742 -4.719 1.032 -2.247 -7.394 -6.878 -1.72 -0.1798 -2.337 -4.045
2.315 -0.8989 -4.809 -3.281 1.034 -2.787 -1.573 -4.539 -7.371 0.129 -1.618 -5.245 -4.299 -0.4299 0.3596 -1.708 -2.157
2.32 -1.079 -5.258 -3.101 0.5393 -1.079 -1.708 -4.404 -6.157 1.677 -0.8989 -1.72 -0.172 3.009 2.517 -0.4494 1.169
2.325 -1.978 -5.798 -1.708 1.034 -0.764 -2.022 -2.831 -2.067 4.858 0.1798 1.376 3.267 6.62 5.124 0.8989 4.854
2.33 -2.876 -5.978 -0.08989 1.798 -1.663 -2.517 -0.9888 1.708 6.706 1.438 2.837 4.557 7.738 6.202 1.798 7.191
2.335 -3.146 -5.348 1.079 2.562 -2.247 -2.966 0.1348 2.787 5.976 1.888 2.321 3.611 6.105 5.303 1.528 7.101
2.34 -2.157 -3.191 1.978 3.596 -1.258 -2.742 0.8539 1.483 4.299 1.438 0.7738 1.634 3.783 3.865 0.4494 5.124
2.345 -0.08989 0 3.236 4.764 0.8989 -1.303 1.843 0.2247 3.009 0.809 0 0.5159 2.579 2.697 0.1798 2.697
2.35 2.067 2.517 4.584 5.348 2.202 0.764 3.101 0.4045 1.677 0.5393 0.8598 0.9458 1.72 0.9888 1.798 0.5393
2.355 2.876 2.202 4.899 4.494 1.079 1.798 3.551 0.9888 -0.3439 0.8989 2.493 1.548 -0.3439 -1.798 4.225 -1.438
2.36 1.169 -0.764 3.326 2.292 -1.708 0.809 2.337 0.1348 -2.622 1.258 3.611 1.032 -3.439 -4.674 6.112 -3.146
2.365 -2.337 -4.315 0.6742 0 -4 -1.124 0.3146 -2.157 -4.256 1.169 3.869 -0.3439 -5.933 -6.022 6.472 -3.955
2.37 -5.753 -6.202 -1.213 -1.079 -3.955 -2.022 -0.6292 -3.91 -4.471 0.2697 3.439 -1.548 -5.761 -4.944 5.034 -3.056
2.375 -7.191 -5.843 -1.169 -0.809 -1.708 -1.303 0.08989 -3.236 -2.407 -1.258 2.493 -1.892 -2.493 -1.978 2.337 -0.5393
2.38 -6.562 -4.225 0.1348 -0.2697 0.809 -0.1798 1.618 -0.6742 1.462 -2.697 0.9458 -1.978 2.149 1.708 -0.3596 2.607
2.385 -4.854 -3.101 0.764 -0.809 1.438 -0.3146 1.978 1.393 4.256 -2.876 -0.3439 -2.235 5.245 3.775 -1.169 5.393
2.39 -3.236 -3.73 -0.6292 -2.831 -0.6742 -2.022 0.08989 0.6742 2.923 -1.618 -0.9458 -2.579 4.299 2.876 0.2697 6.742
2.395 -2.427 -5.843 -3.73 -5.348 -4.045 -4.404 -3.236 -2.876 -1.548 0 -1.032 -3.095 0.2579 0 2.876 6.022
2.4 -2.427 -7.551 -6.202 -6.562 -6.202 -5.978 -6.247 -6.787 -5.245 1.258 -1.204 -3.697 -3.783 -2.607 4.584 3.685
2.405 -2.427 -7.461 -6.022 -5.303 -6.022 -5.933 -7.146 -8.135 -6.019 1.348 -1.892 -4.041 -5.589 -3.596 4.674 0.9888
2.41 -2.067 -6.022 -3.236 -2.292 -4.764 -5.079 -6.292 -6.337 -5.245 0.08989 -3.095 -4.213 -5.589 -4.045 2.787 -1.438
2.415 -1.618 -4.854 -0.08989 0.6742 -4.18 -5.124 -5.393 -3.64 -4.772 -2.067 -4.987 -4.729 -5.245 -4.584 -0.5393 -3.416
2.42 -1.348 -4.27 1.124 2.382 -4.404 -6.337 -5.483 -2.292 -4.557 -4.045 -6.362 -5.073 -4.557 -4.584 -3.775 -4.494
2.425 -0.7191 -3.101 0.2697 2.831 -4.225 -6.517 -5.618 -2.382 -3.826 -4.225 -5.675 -3.697 -2.837 -3.056 -4.854 -3.955
2.43 0.8989 -0.5843 -1.079 2.876 -2.652 -3.865 -4.27 -2.382 -2.536 -2.247 -2.665 -0.3439 -0.3439 -0.7191 -3.236 -2.247
2.435 3.146 2.292 -1.618 2.787 -0.1348 0.4045 -1.663 -1.663 -1.075 0.3596 0.4299 2.751 1.204 0.809 -1.258 -0.6292
2.44 4.225 3.64 -1.393 2.202 1.618 2.787 0.04494 -1.213 -0.4299 2.067 0.7738 2.665 0.7738 0.3596 -1.348 -0.6292
2.445 2.607 2.247 -1.573 0.5393 1.034 0.809 -0.7191 -1.933 -2.106 1.618 -2.321 -1.204 -2.064 -2.337 -4.045 -2.427
2.45 -1.079 -1.393 -2.876 -1.978 -1.753 -4.36 -3.506 -3.506 -5.976 -0.6292 -6.878 -6.277 -5.761 -5.933 -7.91 -4.944
2.455 -4.674 -4.809 -4.674 -4.27 -4.629 -8.764 -5.798 -4.135 -8.727 -3.236 -9.63 -8.942 -7.394 -7.64 -10.61 -6.921
2.46 -5.753 -4.944 -5.348 -4.719 -4.854 -8.629 -4.899 -2.112 -6.663 -4.315 -8.598 -7.222 -5.073 -5.483 -10.43 -7.371
2.465 -3.685 -1.213 -4.135 -3.011 -2.022 -3.596 -0.6292 2.022 -0.5589 -3.506 -4.385 -1.978 0 -0.8989 -7.64 -6.112
2.47 -0.2697 3.64 -2.022 -0.6742 1.573 2.742 4.36 5.618 4.471 -2.157 -0.08598 2.923 3.697 2.157 -4.584 -4.584
2.475 1.258 5.663 -1.258 -0.08989 3.146 5.573 6.652 5.708 4.901 -2.157 0.6878 3.611 3.353 1.348 -3.955 -3.865
2.48 -0.6292 3.64 -3.146 -2.247 1.978 3.236 5.258 2.337 1.677 -3.596 -1.892 0 0.2579 -1.618 -5.483 -3.775
2.485 -4.584 -0.3596 -6.562 -6.112 -0.3596 -1.169 2.652 -1.169 -1.72 -4.315 -4.385 -3.783 -1.892 -3.596 -5.753 -2.427
2.49 -7.191 -3.326 -9.079 -9.438 -1.708 -3.101 2.022 -1.303 -2.493 -1.978 -2.665 -3.181 -0.8598 -2.427 -2.067 1.079
2.495 -6.742 -3.64 -9.079 -10.47 -0.8539 -0.6742 4.404 2.427 0.3439 3.506 3.525 2.407 3.009 1.528 5.034 5.933
2.5 -3.775 -1.573 -6.876 -9.124 1.888 4.225 8 7.371 5.675 9.798 11.09 9.716 7.738 6.472 11.78 10.07
2.505 -0.4494 1.528 -3.955 -6.292 5.079 8.764 10.52 10.43 9.931 13.84 16.08 14.53 10.49 9.528 14.74 11.51
2.51 2.247 4.674 -1.483 -3.281 7.416 11.51 11.19 10.65 10.23 13.84 16.77 15.39 9.974 8.989 13.03 9.798
2.515 4.404 7.64 0.3146 -0.7191 8.764 12.63 10.79 9.258 7.394 10.79 14.27 13.24 7.308 6.112 8.629 6.292
2.52 6.831 10.92 2.112 1.258 9.618 13.08 10.52 8.225 4.643 7.281 11.09 10.83 4.901 3.416 5.213 2.966
2.525 9.618 14.38 3.955 2.831 10.07 13.35 10.43 8.225 3.482 5.753 9.372 10.15 3.955 2.607 5.124 1.708
2.53 11.69 16.31 5.034 3.64 9.258 12.67 9.528 8 2.794 5.573 9.028 10.83 3.439 2.427 7.011 2.427
2.535 11.51 15.01 4.315 3.236 6.876 10.07 6.787 5.888 1.72 4.854 7.652 10.4 2.235 1.798 7.191 3.236
2.54 8.899 10.92 1.798 1.888 3.91 5.798 2.742 1.798 0.8168 2.247 3.955 7.05 0.2579 0.6292 3.506 2.787
2.545 5.303 6.337 -0.9438 0.4045 1.528 1.663 -0.6292 -2.247 0.04299 -1.528 -1.032 1.72 -1.634 -0.7191 -2.427 1.079
2.55 2.697 3.101 -2.202 -0.4045 0.1798 -0.8989 -2.112 -4.449 -1.419 -4.584 -4.987 -3.353 -3.353 -2.247 -7.551 -1.348
2.555 1.618 1.169 -1.528 -0.6292 -0.6742 -2.517 -2.472 -4.584 -3.783 -5.753 -7.05 -6.964 -4.987 -3.775 -10.07 -3.955
2.56 0.809 -0.1348 -0.04494 -0.6742 -1.933 -4.674 -3.596 -4.225 -5.847 -5.393 -7.824 -9.2 -6.362 -5.034 -10.16 -6.472
2.565 -0.3596 -1.573 0.7191 -0.8539 -3.64 -7.685 -6.067 -4.404 -7.05 -4.584 -7.91 -10.06 -7.136 -5.933 -9.079 -8.449
2.57 -1.888 -3.011 0.3146 -0.9438 -5.213 -10.07 -8.404 -4.989 -7.652 -4.315 -7.308 -9.544 -7.394 -6.831 -8 -9.798
2.575 -2.607 -3.955 -0.7191 -0.809 -5.573 -10.34 -8.584 -5.079 -7.308 -4.225 -5.933 -7.652 -7.136 -7.281 -7.191 -10.25
2.58 -2.517 -3.64 -1.393 -0.3146 -4 -8.135 -5.843 -4.09 -5.331 -3.416 -3.525 -5.073 -5.761 -6.382 -5.753 -9.438
2.585 -2.067 -2.112 -1.034 0.3596 -1.483 -4.539 -1.663 -2.247 -2.794 -1.348 -0.2579 -2.407 -3.783 -4.225 -3.056 -7.101
2.59 -2.067 -0.8539 0.04494 0.8539 0.04494 -1.528 1.348 -0.764 -1.591 0.9888 2.321 -0.8598 -2.493 -2.157 -0.1798 -4.135
2.595 -3.326 -1.483 0.9888 0.809 -0.4045 -1.034 1.034 -0.6742 -1.892 1.618 2.064 -1.72 -2.321 -1.169 0.3596 -1.798
2.6 -5.213 -3.775 1.124 0.4045 -2.292 -3.191 -2.427 -1.933 -1.978 -0.08989 -1.548 -4.643 -2.321 -0.6292 -2.157 -0.809
2.605 -6.562 -6.202 0.6292 0.1348 -3.775 -6.067 -6.652 -3.236 -1.032 -2.787 -6.362 -7.222 -1.72 0.08989 -6.022 -0.6292
2.61 -6.472 -7.416 0.2247 0.1348 -3.64 -7.371 -8.854 -3.326 -0.129 -4.225 -8.77 -7.05 -0.7738 0.809 -8 -0.4494
2.615 -5.124 -7.146 0.4944 0.1348 -1.798 -6.157 -8.315 -2.382 0.08598 -3.236 -7.222 -4.213 -0.172 1.258 -6.742 0.08989
2.62 -3.506 -5.573 1.483 0.1348 0.764 -3.371 -6.202 -1.213 0.2579 -0.4494 -2.751 -0.6878 -0.08598 1.438 -3.146 0.7191
2.625 -1.978 -3.191 3.101 0.4944 2.697 -0.4494 -4.09 -0.5393 0.3869 1.798 1.806 1.204 -0.4299 1.169 0.3596 0.9888
2.63 -0.08989 -1.124 4.944 1.528 2.562 1.079 -3.056 -0.4494 -0.2149 1.528 3.439 0.3439 -1.462 0 1.528 0.1798
2.635 1.888 -0.3146 6.427 2.697 0.4494 0.3146 -3.281 -0.9888 -1.505 -1.348 0.9458 -3.009 -3.009 -1.798 -0.6292 -1.708
2.64 3.326 -0.7191 6.831 3.191 -2.157 -2.337 -4.315 -2.157 -2.321 -4.584 -3.955 -7.136 -4.127 -3.146 -4.045 -4.045
2.645 3.506 -1.303 6.022 2.427 -3.596 -4.764 -4.989 -3.506 -2.45 -4.944 -7.308 -9.028 -4.385 -3.326 -5.124 -5.124
2.65 2.876 -1.438 4.584 0.7191 -3.011 -4.899 -4.404 -4.18 -2.493 -1.348 -6.019 -7.05 -3.783 -2.697 -2.067 -3.955
2.655 2.157 -1.034 3.506 -0.8989 -0.8989 -2.517 -2.517 -3.416 -1.806 4.135 -1.032 -2.321 -2.149 -1.169 3.236 -1.079
2.66 1.978 -0.2697 3.596 -1.258 1.663 0.4494 -0.08989 -0.8539 1.032 8 4.213 2.493 0.9458 1.888 7.551 2.337
2.665 2.337 0.3596 4.764 0.08989 3.326 2.157 1.933 2.876 5.331 8.27 6.878 5.331 5.073 6.022 8.899 5.213
2.67 2.876 0.3596 6.112 2.067 3.146 2.112 3.056 6.337 8.34 5.663 6.534 6.019 7.996 8.989 7.461 6.472
2.675 2.966 -0.2697 5.933 2.876 2.067 1.348 2.697 7.236 8.168 2.876 4.901 5.503 7.652 8.989 5.393 5.573
2.68 2.876 -0.2247 3.146 1.303 2.157 1.978 0.9438 4.629 5.503 2.787 4.729 5.331 4.385 5.933 4.944 2.876
2.685 3.775 1.843 -1.798 -2.202 4.494 5.258 -1.258 -0.3146 1.591 5.843 7.05 6.706 -0.172 1.528 6.921 -0.08989
2.69 5.843 5.303 -7.101 -6.202 8 10.02 -3.326 -5.258 -2.45 9.169 10.4 9.114 -3.955 -2.607 9.708 -2.427
2.695 7.64 7.64 -10.74 -9.124 9.933 12.76 -5.034 -8.27 -4.987 9.258 11.44 10.06 -5.503 -4.494 10.25 -3.416
2.7 6.831 6.787 -11.51 -9.978 8.449 10.56 -6.382 -8.854 -4.256 4.854 8.426 7.91 -4.127 -3.326 7.461 -3.056
2.705 2.876 2.966 -9.258 -8.629 3.775 4.135 -6.697 -7.191 -0.9458 -1.348 3.009 3.611 -0.7738 -0.08989 3.146 -1.528
2.71 -2.157 -1.708 -5.124 -5.798 -1.978 -2.652 -5.124 -3.91 2.45 -6.022 -1.376 -0.172 2.407 2.697 0 0.7191
2.715 -5.303 -4.854 -0.8539 -2.697 -5.933 -6.427 -1.573 0 4.514 -7.191 -2.923 -1.806 4.385 3.865 -1.169 2.876
2.72 -5.034 -4.899 1.843 -0.2247 -6.472 -6.157 2.831 3.82 5.675 -5.933 -2.751 -1.634 5.331 4.045 -1.528 4.315
2.725 -2.427 -2.652 2.652 1.258 -4.584 -3.506 6.607 6.562 6.148 -4.584 -2.751 -1.204 5.589 4.045 -2.697 4.854
2.73 0.1798 -0.6742 2.247 1.708 -2.831 -1.303 8.404 7.461 5.116 -5.124 -4.471 -2.149 4.643 3.326 -5.213 4.225
2.735 0.5393 -1.213 1.483 1.213 -3.146 -1.663 7.506 5.888 2.88 -7.191 -7.738 -5.073 2.149 1.348 -8.809 1.888
2.74 -1.079 -3.596 0.8539 0.08989 -5.169 -4.27 4.315 2.202 0.7308 -9.079 -10.83 -8.684 -1.204 -1.438 -11.69 -1.888
2.745 -2.517 -5.258 0.3596 -0.9438 -7.236 -6.876 0.3146 -1.708 -1.032 -9.258 -12.04 -10.83 -4.127 -4.135 -12.49 -6.112
2.75 -1.438 -4.539 0 -1.618 -8.36 -7.281 -3.011 -4.09 -3.267 -7.91 -10.83 -10.23 -5.933 -6.292 -11.06 -9.438
2.755 1.888 -1.888 -0.3146 -1.528 -8.18 -5.573 -4.989 -4.315 -5.632 -6.472 -8.856 -8.168 -6.362 -7.191 -9.169 -11.06
2.76 5.303 1.169 -0.04494 -0.4944 -7.011 -3.146 -5.258 -3.146 -6.448 -5.483 -7.566 -6.62 -5.159 -6.202 -7.91 -10.88
2.765 7.011 3.551 1.348 1.438 -5.258 -1.124 -3.685 -1.393 -5.331 -4.315 -6.62 -6.191 -3.095 -4.135 -6.742 -9.079
2.77 6.921 4.674 3.596 3.506 -3.461 0.2247 -0.6742 0.2697 -3.697 -2.157 -4.815 -5.761 -1.462 -2.427 -4.944 -6.202
2.775 6.022 4.404 5.169 4.449 -2.202 0.764 2.247 1.438 -2.278 0.3596 -2.407 -4.643 -0.6019 -1.618 -2.697 -2.787
2.78 5.124 3.326 4.404 3.461 -1.708 0.2697 3.506 1.933 -0.5589 1.978 -0.4299 -3.095 0.2579 -0.5393 -0.9888 0.7191
2.785 4.225 1.798 1.034 0.8989 -2.067 -0.9438 2.472 1.888 1.247 2.067 0.2579 -1.634 1.978 1.528 -0.08989 4.315
2.79 3.056 -0.4045 -3.101 -1.843 -3.056 -2.112 0.3146 1.438 2.106 1.169 0 -0.6878 3.525 3.326 0.3596 7.011
2.795 1.438 -3.101 -5.573 -3.551 -3.73 -2.517 -1.348 0.5843 1.72 0.7191 -0.3439 -0.9458 3.525 3.685 0.8989 7.461
2.8 -0.1798 -4.944 -5.034 -3.461 -3.011 -1.843 -1.618 -0.6292 0.8598 1.438 -0.3439 -2.064 1.806 2.157 1.978 4.944
2.805 -0.8989 -4.629 -2.337 -2.247 -1.124 -0.08989 -0.6742 -1.708 -0.4729 2.787 0.4299 -2.751 -1.032 -0.7191 3.685 0.7191
2.81 -0.1798 -2.562 0 -1.483 0.2247 1.798 0.2247 -2.427 -2.966 3.056 1.29 -2.321 -4.127 -4.045 5.213 -3.146
2.815 1.169 -0.4944 -0.1348 -2.247 -0.2247 2.562 -0.1348 -2.966 -5.546 0.9888 1.032 -1.204 -6.105 -6.202 5.573 -4.944
2.82 1.978 0.5843 -2.787 -4 -2.202 1.528 -1.618 -3.371 -5.933 -2.517 -0.4299 -0.172 -5.847 -5.753 4.584 -4.315
2.825 1.978 1.169 -5.618 -4.854 -3.82 0 -2.337 -3.101 -3.74 -4.944 -1.892 0.5159 -3.783 -3.326 3.506 -2.337
2.83 1.888 1.978 -5.933 -3.236 -3.64 -0.2697 -0.6742 -1.393 -1.075 -4.944 -1.978 1.376 -1.806 -0.8989 3.506 -0.6292
2.835 2.157 3.101 -3.011 0.8539 -1.438 1.079 2.831 1.483 0.3009 -3.056 -1.118 2.149 -1.032 0.08989 4.404 -0.2697
2.84 2.157 4.225 1.303 5.843 1.573 3.011 6.157 4.404 0.7738 -1.438 -0.2579 2.493 -0.9458 0.5393 5.483 -0.5393
2.845 1.438 4.809 4.494 9.393 3.82 4.225 7.551 6.247 0.8598 -1.348 0 2.665 -0.08598 1.618 6.562 0
2.85 0 4.315 5.169 10.11 4.045 4.27 6.742 6.292 0.6019 -2.697 -0.2579 2.837 1.376 2.966 7.011 1.798
2.855 -1.438 3.101 3.865 8.27 2.652 3.191 4.809 4.854 0.5589 -4.225 -0.9458 2.665 2.665 3.775 6.202 3.506
2.86 -2.067 2.337 2.247 5.798 1.034 1.708 3.011 3.056 1.548 -4.584 -2.064 1.204 3.009 3.685 3.775 3.506
2.865 -1.798 2.787 1.888 4.539 0.4944 0.9438 2.247 2.202 2.708 -3.146 -3.009 -1.032 2.064 2.427 0.6292 1.618
2.87 -1.348 3.596 2.787 4.944 1.213 1.483 2.202 2.697 2.321 -0.3596 -2.923 -2.579 0.172 0.2697 -1.438 -0.7191
2.875 -1.798 3.461 3.73 5.978 2.876 2.876 1.888 3.371 0.5589 2.337 -1.204 -2.321 -1.204 -1.528 -1.618 -1.888
2.88 -3.236 2.562 3.64 6.247 5.034 4.27 1.034 2.876 -0.3009 4.045 1.892 0.172 -0.7738 -1.258 0 -1.079
2.885 -3.955 2.562 2.652 5.303 6.787 5.213 0.4045 1.303 0.5589 4.315 5.675 4.213 1.462 0.8989 2.157 0.9888
2.89 -2.427 4.135 1.933 3.64 6.831 5.483 0.8989 -0.08989 2.064 2.966 8.512 8.082 3.869 2.966 3.056 2.876
2.895 0.7191 6.202 2.247 2.067 4.764 4.764 2.427 -0.1798 3.267 0.7191 8.77 9.372 4.987 3.685 1.258 3.506
2.9 2.966 7.056 3.371 1.169 1.888 3.146 3.865 1.124 4.299 -1.169 6.706 7.824 5.073 3.326 -2.337 3.506
2.905 2.337 5.978 4.494 1.034 0.4944 1.888 4.404 2.921 4.643 -1.258 4.901 5.761 4.987 2.787 -4.674 4.045
2.91 -0.7191 3.461 4.899 1.034 1.618 2.157 3.64 3.461 3.181 0.4494 5.331 5.589 4.299 1.798 -3.955 5.213
2.915 -3.775 0.8989 4.494 0.6742 4.404 3.461 1.798 1.663 0.172 2.427 7.48 6.964 2.407 0 -1.438 5.303
2.92 -4.584 -0.08989 3.551 0.1348 6.652 4.225 -0.4494 -1.753 -2.321 2.697 8.426 7.394 -0.3439 -2.247 -0.5393 3.056
2.925 -2.876 0.4045 2.517 -0.2697 6.517 3.371 -2.112 -4.404 -3.138 0.809 6.448 5.245 -2.665 -3.775 -2.876 -0.9888
2.93 -0.2697 0.9888 1.618 -0.6742 4.135 1.303 -2.292 -4.27 -2.579 -1.258 2.064 1.204 -3.267 -4.045 -7.461 -4.494
2.935 0.8989 0.04494 0.6292 -1.258 1.888 -0.5393 -1.079 -1.483 -1.118 -1.618 -1.892 -2.235 -1.806 -2.697 -11.78 -5.483
2.94 0.08989 -1.708 -0.5393 -2.067 2.022 -1.034 0.5393 1.618 0.9458 0.8989 -3.181 -3.181 1.118 0.2697 -13.03 -3.596
2.945 -1.258 -2.697 -1.483 -2.652 4.36 -0.1348 1.618 3.011 2.407 5.124 -0.9458 -0.9458 3.611 3.146 -10.52 -0.2697
2.95 -1.528 -2.472 -1.708 -2.562 5.888 0.8989 1.663 2.067 1.677 8.36 2.579 2.407 3.611 3.775 -5.843 2.517
2.955 -0.6292 -2.067 -1.393 -1.933 4.404 0.4494 0.7191 -0.1348 -0.3439 8.989 4.643 4.127 1.204 2.067 -1.888 3.685
2.96 0.08989 -2.112 -1.079 -1.258 1.213 -1.303 -0.08989 -1.798 -1.032 7.73 4.385 3.439 -0.7738 0.4494 0.1798 3.775
2.965 0.2697 -1.798 -1.124 -1.079 -0.04494 -1.933 0.3596 -1.573 0.4729 7.191 3.611 2.407 -0.5159 0.7191 1.528 4.494
2.97 0.8989 0.04494 -1.124 -1.528 2.652 0.5843 2.382 0 2.407 8.809 4.471 3.181 1.29 2.517 3.146 5.843
2.975 2.876 3.416 -0.7191 -2.202 7.64 5.303 4.135 0.809 2.794 11.24 6.706 5.245 2.579 3.955 4.764 6.382
2.98 5.483 6.517 -0.04494 -2.607 10.83 8.539 3.416 -0.4045 1.763 11.87 7.91 6.362 2.235 4.045 5.213 5.124
2.985 6.562 7.146 0.3596 -2.517 9.124 7.73 -0.04494 -3.056 0.129 9.528 6.964 5.589 1.032 3.056 4.764 2.697
2.99 4.854 4.225 0 -2.697 3.506 3.64 -4.539 -4.989 -1.505 5.213 4.557 3.955 0.2579 1.618 4.404 0.8989
2.995 1.169 -0.6742 -1.438 -3.685 -1.393 -0.4944 -7.416 -4.719 -1.978 1.528 2.407 3.095 0.8598 0.9888 4.494 0.809
3 -1.798 -4.045 -3.191 -5.124 -1.618 -2.022 -7.056 -2.562 -0.3869 0.1798 1.462 3.525 2.579 1.708 4.674 1.798
3.005 -1.978 -3.73 -3.865 -5.618 1.978 -0.5843 -4.09 -0.08989 1.806 0.7191 1.204 4.213 3.697 2.517 4.135 2.337
3.01 0 -1.438 -2.607 -4.18 4.584 1.258 -0.764 0.9888 1.978 1.079 0 3.181 2.149 1.438 2.427 1.079
3.015 1.258 -0.9438 -0.08989 -1.213 2.067 0.4494 0.4494 0 -0.4729 -0.8989 -3.439 -0.6878 -1.806 -1.708 -0.5393 -2.157
3.02 -0.3596 -3.506 2.067 1.573 -4.404 -3.281 -0.9438 -2.472 -3.654 -5.124 -8.512 -6.534 -5.761 -5.303 -3.955 -6.022
3.025 -3.865 -6.831 2.697 2.382 -10.07 -7.101 -3.64 -4.854 -6.148 -9.169 -12.47 -11.26 -7.996 -7.371 -6.472 -8.539
3.03 -5.753 -7.596 1.528 0.4494 -10.88 -7.91 -5.753 -6.427 -8.297 -11.15 -13.5 -13.15 -8.77 -8.449 -8.09 -9.438
3.035 -4.045 -5.213 -0.809 -3.371 -7.461 -6.157 -7.056 -7.64 -10.02 -10.79 -12.12 -13.07 -9.286 -9.258 -9.798 -9.798
3.04 -0.6292 -2.067 -3.551 -7.056 -3.955 -4.854 -8.18 -9.213 -10.36 -9.258 -10.58 -12.9 -9.544 -9.708 -11.51 -9.888
3.045 0.809 -1.079 -5.573 -8.674 -4.135 -6.112 -9.258 -10.43 -8.985 -7.73 -9.716 -12.9 -8.684 -9.169 -11.42 -9.169
3.05 -1.079 -3.056 -6.067 -7.506 -8.135 -8.989 -9.303 -9.843 -6.835 -6.921 -9.286 -12.12 -6.362 -7.551 -8.09 -6.652
3.055 -4.494 -5.933 -4.899 -4.36 -12.4 -10.79 -7.236 -6.607 -4.17 -6.831 -8.512 -9.802 -3.009 -4.854 -2.517 -2.337
3.06 -6.112 -6.337 -2.382 -0.6742 -12.94 -9.753 -2.966 -1.528 -0.5589 -6.562 -7.136 -6.534 0.6878 -1.169 2.787 2.247
3.065 -4.404 -3.416 0.7191 2.382 -9.348 -6.202 1.933 3.685 3.31 -5.303 -4.729 -3.181 3.783 2.427 6.022 6.022
3.07 -0.9888 0.1348 3.64 4.315 -4.629 -2.157 5.528 7.326 5.933 -2.517 -1.204 0 5.331 4.674 7.191 8.18
3.075 0.5393 0.9888 5.438 5.079 -1.528 0.3146 6.337 8.674 7.136 1.169 2.923 2.751 5.933 5.483 7.73 8.629
3.08 -0.8989 -0.7191 5.843 5.169 0 1.393 5.169 8.449 8.383 5.124 7.05 5.417 6.878 6.112 9.079 8.539
3.085 -3.146 -1.753 5.393 5.124 2.067 2.921 4.27 8.18 9.888 8.449 10.4 7.996 8.34 7.281 11.6 8.719
3.09 -2.427 0.4944 4.809 5.213 5.618 6.112 5.438 8.719 10.45 10.34 12.21 9.888 9.2 8 13.75 8.989
3.095 1.708 5.169 4.09 5.124 9.438 9.663 8.045 9.438 9.673 10.52 11.61 9.974 8.426 7.64 13.66 8.719
3.1 6.292 9.034 2.742 4.629 11.6 11.24 9.933 9.393 8.77 9.618 9.372 8.34 7.05 6.921 11.33 7.73
3.105 7.64 9.528 0.7191 3.73 11.06 10.2 9.528 8.449 8.297 8.449 7.394 7.05 6.277 6.652 9.348 6.742
3.11 4.944 6.472 -1.258 2.697 8.135 7.775 6.876 7.326 7.48 7.191 7.05 7.566 6.105 6.742 9.618 6.562
3.115 0.5393 1.798 -2.652 1.888 4.36 5.258 3.371 6.292 6.362 5.124 7.48 9.028 6.019 6.652 11.33 6.921
3.12 -2.697 -2.247 -3.056 1.528 1.169 2.831 0.6292 5.348 5.761 1.978 6.62 9.2 5.503 6.562 12.13 7.371
3.125 -3.596 -4.629 -2.652 1.573 -0.9888 0.4944 -0.08989 4.584 5.546 -1.348 3.869 7.308 4.643 6.292 10.97 7.461
3.13 -2.876 -5.753 -1.978 1.843 -2.337 -1.348 1.079 4.09 4.557 -3.775 0.4299 4.385 3.353 5.124 8.539 7.011
3.135 -2.427 -6.067 -1.753 1.843 -2.742 -2.337 2.831 3.551 2.45 -4.494 -2.149 1.72 1.634 3.056 6.112 5.573
3.14 -3.056 -5.303 -2.472 1.169 -2.067 -2.472 3.371 2.472 0.3869 -3.955 -3.439 -0.3439 0 0.8989 4.764 3.056
3.145 -3.955 -3.326 -4.135 -0.1798 -1.124 -2.337 1.978 0.4045 -1.419 -3.236 -3.869 -2.149 -1.634 -0.8989 4.674 0.08989
3.15 -4.315 -1.708 -6.112 -2.067 -1.213 -2.742 -0.8539 -2.517 -3.654 -3.236 -4.127 -4.127 -3.611 -2.697 4.764 -2.427
3.155 -3.685 -2.202 -7.685 -3.73 -2.292 -4.18 -3.91 -5.618 -5.718 -3.955 -4.643 -6.277 -5.159 -4.045 3.596 -3.955
3.16 -2.697 -3.955 -8.135 -4.18 -2.202 -5.303 -5.528 -7.326 -5.718 -3.865 -4.643 -7.48 -4.901 -3.775 1.348 -3.955
3.165 -1.258 -3.955 -6.607 -2.517 0.9888 -3.91 -4.674 -6.292 -3.439 -1.978 -2.837 -6.105 -2.493 -2.067 -0.3596 -2.787
3.17 0.809 -0.5843 -3.326 0.6292 6.157 0.4944 -2.022 -3.011 -1.032 0.9888 0.6019 -2.579 0.08598 -0.6292 -0.6292 -1.348
3.175 2.607 3.506 0.1798 3.596 9.079 4.809 0.04494 0.04494 0 2.966 3.783 0.5159 0.9458 -0.6292 -0.08989 -0.9888
3.18 2.427 3.685 2.202 4.719 5.978 4.944 0 0.8989 0 2.427 4.557 1.032 0 -1.528 0 -1.528
3.185 -0.3596 -2.337 2.247 3.865 -3.101 0.04494 -1.663 -0.1348 -0.129 0.4494 3.525 -0.2579 -1.204 -2.067 -0.4494 -1.888
3.19 -3.865 -11.6 1.573 2.517 -13.66 -6.292 -2.517 -0.8539 -0.2149 -0.8989 2.751 -0.8598 -1.29 -1.618 -0.8989 -0.809
3.195 -4.764 -17.26 1.753 2.427 -19.33 -9.573 -0.9888 0.4494 0.3009 -0.2697 3.267 0.5159 0.172 -0.2697 -1.258 1.169
3.2 -1.528 -13.98 3.326 3.955 -16.81 -7.73 2.292 3.371 2.149 1.888 4.127 3.181 2.665 1.169 -1.528 3.056
3.205 3.775 -2.921 5.213 5.618 -8.449 -2.562 5.303 5.708 3.955 3.865 4.127 4.901 4.471 2.067 -1.888 3.685
3.21 7.101 8.135 5.618 5.438 -0.2697 2.337 6.292 5.528 3.654 3.775 2.493 4.385 4.041 1.348 -2.427 2.787
3.215 5.213 11.6 3.865 2.697 3.506 4.584 5.303 2.876 1.462 1.708 0 2.064 1.634 -0.1798 -3.775 0.7191
3.22 -0.809 6.876 1.169 -0.8989 3.326 4.764 4.27 0.2247 0 -0.6292 -1.462 -0.172 -0.3439 -0.809 -6.022 -1.348
3.225 -6.382 0.2697 0 -2.787 2.472 5.663 5.258 0.2247 0.6448 -0.809 -0.3439 0.172 -0.2579 0.2697 -7.73 -2.157
3.23 -6.742 -1.348 1.528 -1.708 3.416 8.629 8.27 3.281 2.278 1.528 3.095 3.697 1.462 1.978 -7.73 -1.169
3.235 -1.888 3.146 4.854 0.9888 5.888 11.82 11.01 7.056 3.353 4.494 6.362 7.738 3.439 2.966 -6.292 0.6292
3.24 4.045 9.753 7.506 3.146 8 12.36 11.28 8.719 3.482 5.573 6.792 9.372 4.471 3.056 -4.404 2.157
3.245 6.652 13.26 7.91 3.461 8.225 9.618 9.258 7.64 2.493 3.685 4.127 7.308 4.041 2.337 -2.966 2.157
3.25 5.124 11.69 6.517 2.382 6.247 5.573 6.607 4.989 0.04299 -0.1798 0 2.751 1.548 0.2697 -2.607 0
3.255 1.708 7.146 4.449 1.258 3.191 2.202 4.36 2.067 -2.88 -3.955 -3.783 -2.493 -2.407 -2.966 -3.596 -4.045
3.26 -0.7191 3.506 2.607 0.6292 0.6292 0 2.022 -0.5843 -4.428 -5.393 -6.105 -6.62 -6.019 -6.112 -4.944 -8.36
3.265 -0.8989 2.966 1.034 0.1348 -0.3596 -1.483 -1.079 -2.876 -4.471 -3.775 -6.191 -8.082 -7.738 -7.64 -4.944 -10.52
3.27 0.2697 4.315 -0.2247 -0.809 -0.04494 -2.562 -4.584 -4.539 -4.471 -0.8989 -4.643 -6.792 -7.222 -7.461 -3.775 -9.708
3.275 1.258 5.213 -1.169 -2.292 0.7191 -3.371 -6.966 -4.944 -4.987 0 -3.525 -4.815 -5.589 -6.112 -4.045 -7.461
3.28 0.809 4.764 -1.169 -3.056 0.8539 -4 -6.787 -3.775 -5.073 -2.697 -4.815 -4.299 -3.869 -4.225 -7.551 -5.933
3.285 -0.6292 3.551 -0.08989 -2.337 -0.7191 -4.449 -4.045 -1.348 -4.256 -7.82 -8.168 -5.331 -2.665 -2.427 -12.94 -5.753
3.29 -2.517 1.933 1.079 -0.6742 -4.09 -4.809 -0.4045 1.079 -3.095 -11.87 -10.75 -5.417 -2.064 -1.348 -15.91 -5.393
3.295 -4.135 0 0.9888 0.2247 -7.146 -4.854 1.798 2.382 -1.333 -11.33 -9.802 -2.751 -0.8598 -0.2697 -12.85 -3.146
3.3 -5.034 -1.573 -0.9438 -0.4494 -6.966 -3.596 2.022 2.292 1.72 -5.393 -4.385 2.837 1.978 1.978 -4.135 1.258
3.305 -4.315 -1.079 -3.551 -2.157 -2.831 -0.2247 1.303 1.573 5.202 3.056 3.267 8.77 5.417 5.034 5.843 5.933
3.31 -1.708 1.708 -4.764 -3.191 2.247 4.045 0.5843 0.764 6.019 8.809 8.426 10.83 6.448 5.843 10.88 7.191
3.315 1.258 5.034 -3.91 -2.787 4.09 5.798 -0.7191 -0.7191 2.837 8.449 7.222 6.362 2.837 2.517 7.461 2.966
3.32 2.427 6.202 -2.022 -1.348 1.079 2.472 -3.64 -3.461 -2.579 2.697 0 -3.009 -3.697 -3.326 -1.618 -4.404
3.325 0.7191 4.36 -0.5843 -0.1798 -3.865 -4.315 -7.461 -6.382 -7.394 -3.865 -8.254 -11.44 -9.2 -8.36 -9.528 -9.978
3.33 -1.708 1.258 -0.3146 0 -6.382 -9.573 -9.753 -7.73 -9.802 -7.371 -11.69 -13.67 -10.83 -10.07 -11.06 -10.25
3.335 -1.888 0.08989 -0.5843 -0.5843 -4.225 -9.573 -8.674 -6.652 -9.071 -7.371 -9.114 -9.458 -8.512 -7.91 -7.011 -5.933
3.34 1.438 2.472 -0.5843 -0.8989 0.3146 -5.258 -5.124 -4.36 -5.546 -6.382 -4.213 -3.353 -4.299 -3.596 -2.247 -1.169
3.345 6.022 6.382 0.04494 -0.2697 2.742 -0.764 -1.798 -2.697 -1.677 -6.562 -1.204 0.08598 -1.032 0.08989 -0.1798 0.8989
3.35 7.461 6.966 0.6742 0.6742 0.4944 0.08989 -1.079 -2.652 -0.04299 -7.64 -1.204 0 -0.172 1.258 -0.4494 0.4494
3.355 3.236 1.483 0.4494 0.8989 -4 -2.517 -2.876 -3.506 -0.4299 -7.191 -2.149 -1.548 -0.6878 0.809 -0.3596 -0.2697
3.36 -4.494 -7.011 -0.6742 -0.08989 -5.708 -5.124 -4.629 -3.551 -0.2149 -3.326 -1.376 -1.892 -0.172 1.079 1.888 0.7191
3.365 -10.07 -12.13 -1.708 -1.798 -1.933 -3.865 -3.91 -2.022 1.376 2.787 1.462 -0.5159 1.376 2.517 5.303 3.056
3.37 -8.989 -10.07 -1.663 -3.056 4.629 0.8539 -1.124 -0.4494 2.192 7.73 3.955 0.5159 1.892 3.056 6.652 3.865
3.375 -1.888 -3.101 -0.8989 -3.281 9.079 4.764 0.4045 -1.169 0.3009 8.449 2.751 -1.376 -0.4299 0.9888 3.955 0.809
3.38 5.303 2.292 -0.4045 -2.517 8.809 3.73 -1.573 -4.764 -3.138 5.573 -1.978 -6.362 -4.385 -2.697 -1.258 -4.854
3.385 6.652 1.753 -0.764 -1.348 5.393 -1.573 -5.933 -8.494 -5.976 2.607 -6.534 -10.58 -6.706 -5.393 -4.315 -9.079
3.39 1.169 -4 -1.663 -0.6292 1.933 -6.697 -8.854 -8.989 -6.749 2.067 -7.05 -10.75 -5.847 -5.393 -2.876 -8.809
3.395 -6.652 -9.798 -2.382 -0.9438 0.1348 -7.865 -8.09 -5.618 -5.03 2.876 -4.041 -7.136 -2.579 -3.056 0.7191 -4.764
3.4 -11.06 -10.43 -2.966 -2.382 -0.8989 -5.303 -4.854 -1.213 -1.419 2.067 -1.376 -3.267 0.8598 0.2697 2.427 -0.3596
3.405 -9.258 -5.393 -3.82 -4.225 -2.697 -2.112 -2.517 0.764 1.677 -1.348 -1.548 -1.462 2.579 2.697 0.7191 1.798
3.41 -3.326 0.4494 -5.438 -5.618 -5.079 -0.8989 -3.011 -0.6292 2.192 -5.303 -3.009 -1.032 2.235 3.056 -1.798 1.798
3.415 1.258 1.753 -7.416 -6.067 -6.337 -1.933 -5.348 -3.506 0.9028 -5.753 -2.407 0.172 1.204 2.427 -1.708 1.528
3.42 0.9888 -2.292 -8.719 -5.573 -4.944 -3.281 -6.382 -4.764 0.6019 -1.079 1.806 3.181 1.634 2.607 2.067 2.697
3.425 -3.506 -7.82 -8.315 -4.449 -2.202 -3.146 -4.18 -3.101 1.763 5.753 7.566 6.706 3.095 3.685 7.011 4.584
3.43 -8.18 -10.25 -6.292 -3.281 -0.9888 -2.022 -0.3146 -0.4944 2.192 9.348 10.23 7.824 3.095 3.506 8.629 4.854
3.435 -9.438 -8.449 -3.82 -2.472 -2.472 -2.157 1.573 -0.04494 0.2149 6.202 6.62 4.385 0.2579 0.809 4.404 1.888
3.44 -6.831 -4.449 -2.157 -1.663 -4.36 -4.494 -0.3146 -2.652 -2.536 -1.528 -1.118 -1.806 -3.439 -2.607 -2.697 -2.876
3.445 -2.607 -1.079 -1.124 -0.3146 -3.101 -6.787 -3.64 -5.483 -3.654 -7.551 -6.792 -5.933 -4.987 -4.135 -6.921 -5.573
3.45 0.7191 0.3146 0.2247 1.573 2.022 -5.483 -4.045 -4.809 -2.192 -7.011 -5.417 -4.127 -2.837 -2.697 -4.854 -3.685
3.455 1.978 0.5843 2.607 3.326 8 0.1798 0.3596 0 1.247 -0.5393 1.72 2.235 1.376 0.5393 1.258 1.438
3.46 1.528 1.124 4.989 4.045 10.47 6.966 6.921 5.798 5.245 6.831 8.684 8.426 5.073 3.775 6.112 6.112
3.465 0.1798 1.933 5.618 3.281 7.506 10.2 10.61 8.135 6.921 10.07 10.58 10.06 5.761 4.764 6.562 7.371
3.47 -1.258 1.258 3.506 1.348 0.5843 7.416 8.135 4.899 4.299 7.82 6.706 6.448 2.751 2.517 3.416 4.854
3.475 -2.787 -2.202 -0.6742 -0.9438 -6.337 -0.3146 0.3146 -1.978 -1.032 2.247 0.172 -0.08598 -1.978 -1.528 -0.2697 0.3596
3.48 -4.045 -6.921 -4.809 -2.697 -10.2 -8.899 -8.315 -8.36 -5.331 -3.146 -5.503 -6.448 -5.589 -4.854 -2.247 -3.506
3.485 -4.135 -9.393 -6.337 -3.056 -10.7 -13.8 -13.08 -10.56 -6.706 -6.652 -8.856 -10.4 -6.706 -6.022 -3.146 -5.483
3.49 -2.517 -7.955 -4.674 -1.933 -9.978 -13.57 -12.36 -8.494 -6.577 -8.989 -10.66 -11.78 -6.448 -6.112 -4.854 -6.022
3.495 0.08989 -4.629 -1.573 -0.1798 -9.888 -10.56 -8.854 -5.393 -6.448 -11.24 -12.21 -11.69 -6.277 -6.022 -8.629 -5.843
3.5 1.708 -2.652 0.3146 0.9888 -10.16 -8.18 -6.337 -4.36 -5.89 -12.4 -13.33 -10.83 -5.675 -5.303 -12.49 -4.854
3.505 1.258 -3.551 -0.2697 0.9438 -9.169 -7.326 -6.157 -5.438 -4.084 -10.43 -11.44 -7.91 -3.869 -3.236 -12.4 -2.427
3.51 0.1798 -5.708 -2.427 -0.3596 -5.528 -5.663 -6.652 -6.157 -1.591 -4.315 -5.159 -1.892 -0.9458 -0.5393 -6.652 0.809
3.515 1.169 -5.438 -4.225 -2.427 0.8539 -0.5843 -5.753 -4.629 0.6448 3.955 3.697 5.847 1.462 1.169 1.708 2.697
3.52 5.573 -0.2697 -4.494 -4 8.854 7.865 -2.966 -1.393 1.892 10.88 11.35 12.38 2.149 0.9888 8.18 1.169
3.525 12.22 8.27 -3.506 -4.584 15.82 16.72 0.1348 0.9438 0.9028 13.93 15.22 15.56 0.172 -1.528 10.16 -3.416
3.53 17.62 15.24 -2.742 -4.494 18.61 21.44 1.258 0.1798 -2.923 12.94 15.13 14.7 -3.869 -5.753 8.809 -8.539
3.535 18.34 15.91 -3.236 -4.449 15.42 19.06 -0.6292 -3.461 -7.394 9.258 12.21 10.66 -7.996 -9.348 6.652 -11.24
3.54 13.66 10.34 -4.27 -4.225 7.82 10.79 -3.91 -6.831 -8.641 4.854 7.652 4.987 -8.942 -9.528 5.034 -9.978
3.545 6.472 2.787 -3.82 -2.831 -0.1798 1.573 -5.303 -6.202 -5.417 0.809 2.493 -0.3439 -5.847 -5.753 3.596 -5.843
3.55 0.5393 -2.337 -0.3146 0.5843 -5.124 -3.775 -2.831 -0.5843 -0.2149 -2.966 -2.751 -4.213 -0.6019 -0.5393 0.809 -1.258
3.555 -2.337 -4.135 5.124 5.213 -6.157 -4.584 2.067 6.742 3.826 -6.472 -7.48 -6.878 3.955 3.416 -3.775 1.528
3.56 -3.236 -4.315 9.663 8.809 -5.348 -4.18 5.978 11.19 5.976 -8.989 -10.83 -8.684 6.534 5.303 -8.449 2.337
3.565 -3.775 -5.079 10.7 9.213 -5.798 -5.663 6.472 10.7 6.62 -9.079 -11.78 -9.2 7.48 6.022 -9.888 2.876
3.57 -4.584 -6.831 8.045 6.157 -8.899 -9.258 4 7.191 6.405 -6.742 -9.802 -7.738 7.48 6.202 -6.831 4.135
3.575 -4.674 -8.18 4 1.798 -12.27 -12.13 1.124 4.36 6.534 -3.416 -6.191 -4.815 7.394 6.652 -1.708 5.753
3.58 -3.326 -6.876 1.753 -0.6292 -12 -10.92 0.5843 4.809 8.125 -0.8989 -2.493 -1.204 7.91 7.64 1.888 6.472
3.585 -0.6292 -2.472 2.876 0.5843 -6.382 -4.629 3.416 8.18 10.19 0.08989 0.6878 2.235 8.856 8.449 2.607 5.933
3.59 2.517 3.011 6.562 4.629 1.753 4.27 8.449 11.78 10.45 0.3596 3.869 5.503 9.028 7.82 1.528 4.674
3.595 5.483 7.011 9.978 8.584 7.955 11.37 12.94 13.03 8.555 0.7191 6.792 7.996 8.168 6.022 0.809 3.955
3.6 8 8.719 10.74 10.16 9.843 13.89 15.19 11.55 6.448 1.798 8.942 9.286 7.222 4.764 1.798 4.494
3.605 10.43 9.348 8.899 9.169 8.854 12.99 15.46 9.483 5.589 3.865 10.4 10.06 7.222 5.303 4.315 6.472
3.61 12.49 10.07 6.292 6.966 8.09 12.09 15.01 8.944 5.546 6.022 11.87 10.83 7.996 6.921 7.281 9.079
3.615 13.12 10.65 4.629 5.079 9.393 13.26 14.52 9.978 5.761 7.461 13.58 11.44 8.77 8.27 9.079 10.7
3.62 11.06 10.43 4.045 3.955 12 15.73 13.66 10.79 6.62 7.82 14.7 11.01 9.458 8.989 9.258 10.52
3.625 6.831 8.989 3.371 3.056 13.21 17.17 12.09 9.753 7.652 7.101 14.7 9.458 9.63 8.809 8.36 9.079
3.63 2.607 6.112 1.393 1.573 11.19 15.73 9.843 6.742 7.222 5.303 12.64 7.136 8.598 7.281 7.011 7.011
3.635 0.08989 2.112 -2.112 -0.764 6.562 11.1 6.966 2.562 4.858 2.247 8.254 3.869 5.675 4.494 4.674 4.404
3.64 -0.5393 -1.978 -5.798 -3.461 1.933 4.539 3.82 -1.348 1.548 -1.169 2.149 -0.5159 1.462 1.169 0.9888 1.169
3.645 -0.7191 -4.854 -7.685 -5.483 -0.8989 -1.573 1.124 -3.91 -1.849 -3.685 -3.525 -4.987 -2.751 -2.067 -2.607 -2.517
3.65 -1.348 -5.978 -6.652 -6.067 -2.607 -5.618 -0.5393 -4.719 -5.288 -4.494 -6.706 -8.34 -6.534 -5.213 -4.674 -6.472
3.655 -2.966 -6.067 -3.685 -5.258 -4.674 -7.685 -1.573 -4.404 -8.082 -3.865 -7.308 -9.888 -8.942 -7.73 -4.674 -9.798
3.66 -4.854 -5.888 -1.034 -3.371 -7.416 -8.629 -2.472 -3.82 -8.684 -2.787 -6.448 -9.63 -9.286 -8.449 -3.326 -11.42
3.665 -6.382 -5.798 -0.1348 -1.213 -9.438 -8.719 -3.281 -3.146 -7.351 -1.888 -4.987 -7.738 -7.652 -7.011 -1.169 -10.34
3.67 -6.562 -5.798 -0.764 0.2247 -9.034 -7.371 -3.73 -2.202 -5.804 -1.348 -3.095 -4.643 -5.417 -4.764 1.169 -6.831
3.675 -5.483 -5.213 -1.573 0.3596 -5.663 -4.449 -3.416 -0.9438 -4.686 -1.169 -1.376 -1.892 -3.783 -2.876 3.056 -2.517
3.68 -3.596 -3.056 -1.438 -0.5843 -0.4494 -0.764 -2.292 0.5393 -2.837 -0.8989 -0.6019 -0.6019 -2.321 -1.169 4.225 0.6292
3.685 -1.618 0.6292 -0.3146 -1.753 3.865 2.202 -0.764 2.067 0.08598 -0.3596 -0.7738 -0.5159 -0.3439 0.7191 5.034 2.067
3.69 -0.5393 3.416 0.4494 -2.292 4.809 3.056 0.04494 2.966 2.794 -0.1798 -1.548 -0.6019 1.72 2.517 5.843 2.697
3.695 -1.798 2.382 -0.4045 -2.112 1.618 0.7191 -0.9438 2.382 4.127 -0.6292 -2.235 0 2.923 3.506 6.562 3.326
3.7 -5.483 -2.337 -2.921 -1.753 -3.596 -3.82 -3.551 0.4045 4.299 -1.258 -2.321 0.9458 3.095 3.775 7.101 4.674
3.705 -9.528 -6.921 -5.034 -1.618 -7.416 -7.371 -5.393 -1.348 3.611 -1.079 -1.29 1.978 2.149 3.146 8.18 6.112
3.71 -10.25 -6.831 -4.449 -1.753 -7.506 -6.787 -3.955 -1.258 1.634 0 0.6878 2.493 0 1.169 9.258 6.292
3.715 -6.202 -1.079 -0.9888 -1.708 -3.91 -2.202 0.5393 0.5393 -1.118 0.8989 2.064 1.462 -3.009 -2.157 8.539 3.596
3.72 0.1798 6.787 3.056 -1.213 0.8989 2.876 4.809 2.157 -3.525 0.1798 0.9458 -1.29 -5.847 -5.303 4.584 -1.618
3.725 4.494 11.15 4.899 -0.4045 3.551 4.584 5.169 1.528 -5.288 -2.247 -2.064 -4.643 -7.652 -7.281 -1.798 -6.831
3.73 3.506 8.404 3.416 0 1.933 1.573 0.6292 -1.438 -6.964 -5.124 -5.417 -6.534 -8.34 -8 -8 -9.528
3.735 -1.708 0.4944 0.08989 -0.1348 -2.472 -3.82 -5.933 -4.854 -7.824 -6.562 -7.308 -6.191 -7.48 -7.281 -11.51 -8.629
3.74 -6.652 -6.067 -2.022 -0.4944 -5.528 -7.236 -9.843 -5.888 -6.019 -5.124 -6.706 -3.955 -4.557 -4.494 -11.6 -4.854
3.745 -6.921 -5.888 -0.9438 0 -3.955 -5.348 -8 -3.371 -1.677 -0.9888 -3.697 -0.6019 0 -0.2697 -8.719 -0.1798
3.75 -1.978 0.3146 2.607 1.393 1.258 0.8539 -2.157 0.5843 2.235 3.685 0.5159 2.751 4.041 3.236 -4.944 3.416
3.755 3.955 6.742 5.618 2.607 5.933 6.517 2.292 2.292 3.525 6.652 3.955 4.901 5.159 4.225 -2.607 4.494
3.76 6.202 8.135 5.483 2.517 6.112 6.921 1.483 -0.1798 2.321 6.831 5.159 4.815 3.439 2.787 -2.247 3.236
3.765 3.596 4.494 2.742 1.169 1.708 2.112 -3.371 -4.809 0.172 5.213 4.041 3.439 0.4299 0.2697 -3.056 1.079
3.77 -0.2697 0.2247 0.4494 -0.04494 -3.551 -3.326 -7.281 -7.281 -1.806 3.326 1.978 1.892 -2.321 -2.247 -3.685 -0.3596
3.775 -1.348 -0.3596 1.034 0.04494 -5.258 -5.079 -6.382 -5.528 -2.794 1.978 -0.3439 0.6878 -3.955 -3.596 -4.135 -0.7191
3.78 1.258 3.011 3.865 1.528 -1.843 -2.427 -1.573 -1.483 -2.235 1.258 -2.493 -0.7738 -4.299 -3.326 -4.764 -0.1798
3.785 4.584 6.966 5.708 2.742 3.685 1.528 2.427 0.809 -1.333 1.169 -3.869 -2.235 -4.041 -2.067 -4.674 0.809
3.79 5.393 7.101 3.73 1.753 6.517 2.876 1.573 -1.124 -2.064 1.618 -3.955 -3.181 -4.041 -1.258 -2.876 1.888
3.795 2.697 2.607 -1.843 -1.573 4.539 0.08989 -4.135 -6.247 -4.041 2.607 -2.923 -3.267 -4.385 -1.618 0.2697 2.337
3.8 -1.169 -2.697 -7.461 -5.169 0.5393 -4.315 -10.29 -10.47 -4.772 3.955 -1.376 -2.493 -4.041 -1.888 3.506 1.888
3.805 -2.517 -4.225 -8.809 -6.022 -0.9888 -5.978 -11.42 -10.02 -3.224 5.303 0.4299 -0.8598 -2.493 -1.258 5.393 1.348
3.81 -0.1798 -1.034 -4.674 -3.326 1.663 -2.742 -6.202 -5.034 -0.9888 5.663 2.149 1.204 -1.032 -0.4494 5.124 1.169
3.815 3.685 3.101 1.618 0.7191 6.157 2.876 1.303 0.5843 0.3009 4.225 2.923 2.665 -0.6019 -0.08989 3.326 1.348
3.82 5.753 4.404 5.438 3.011 8.719 6.337 5.978 2.966 0.9888 1.798 2.579 3.009 -0.7738 0.1798 1.618 1.888
3.825 5.034 2.472 4.899 2.202 7.73 5.708 5.888 1.843 1.677 0.2697 2.321 3.267 -0.172 0.8989 1.798 2.697
3.83 3.685 0.4494 2.382 -0.04494 5.034 3.056 3.64 0.1798 2.278 0.7191 3.181 4.557 1.29 1.708 3.955 3.596
3.835 4.584 1.933 1.798 -0.9438 4.225 1.843 3.146 0.9888 2.837 2.697 4.901 6.534 2.923 2.337 5.573 3.685
3.84 8.18 7.551 4.674 0.809 6.831 3.551 5.663 4.315 3.697 4.045 5.675 7.738 3.955 2.697 4.674 2.787
3.845 12.31 13.89 8.674 3.596 10.65 6.607 8.944 7.506 4.127 3.236 4.643 7.308 3.869 2.787 1.348 1.438
3.85 13.75 15.91 9.483 4.225 11.37 7.82 9.393 7.64 2.88 0.08989 2.407 6.019 2.579 2.517 -1.978 0.4494
3.855 11.24 11.1 5.079 1.079 7.011 5.348 5.528 4.135 0.5159 -3.685 0.5159 4.729 1.032 1.978 -3.236 0.1798
3.86 6.022 2.472 -1.888 -3.775 0.2697 0.6292 -0.1798 -0.4045 -0.4729 -5.843 0.4299 4.299 1.032 2.337 -1.978 0.5393
3.865 1.798 -3.82 -6.112 -6.292 -4 -2.292 -3.371 -2.247 0.7738 -4.944 2.665 5.073 2.665 3.416 0.7191 1.258
3.87 1.079 -3.955 -4.18 -3.955 -3.191 -0.9888 -1.393 0.2697 2.794 -1.888 5.331 5.847 4.385 3.955 2.517 1.618
3.875 3.596 0.6742 2.067 1.753 0.9888 2.742 3.596 4.854 3.74 0.5393 5.331 4.299 4.385 2.966 0.9888 0.809
3.88 6.292 5.393 7.236 6.697 4.764 4.719 6.966 7.416 3.525 0.7191 0.9458 -0.6878 2.665 1.258 -3.955 -1.079
3.885 6.202 5.843 6.876 7.461 4.809 2.247 5.618 5.798 2.278 -1.169 -5.675 -7.394 0.6019 0.08989 -9.618 -3.146
3.89 2.787 1.124 1.393 3.955 1.124 -3.281 0.6292 1.348 0.129 -3.236 -10.49 -12.21 -0.6878 -0.1798 -12.67 -3.775
3.895 -2.427 -6.022 -5.034 -0.9888 -3.506 -8.315 -4.135 -2.652 -1.72 -3.506 -10.49 -12.81 -0.3439 0.2697 -11.42 -2.427
3.9 -7.101 -11.06 -8.18 -4.27 -5.573 -9.618 -5.258 -3.596 -1.333 -1.258 -5.761 -9.458 1.634 1.708 -6.112 0.8989
3.905 -8.809 -10.97 -6.787 -4.674 -3.82 -6.427 -2.067 -1.258 1.075 2.607 1.204 -3.611 4.299 3.416 1.169 4.854
3.91 -6.921 -6.652 -3.281 -3.461 -0.08989 -0.9438 2.652 1.888 3.138 6.202 7.136 2.149 5.503 3.865 7.73 7.281
3.915 -2.876 -1.798 -1.213 -2.337 2.472 3.011 5.034 2.831 2.966 7.101 9.2 5.417 3.611 2.427 10.43 6.112
3.92 0.809 0.5393 -2.022 -1.933 2.112 3.056 3.236 0.2697 1.204 4.584 6.792 5.159 -0.172 0 7.91 1.348
3.925 2.247 -0.1348 -4.225 -1.483 -1.034 -0.4045 -1.393 -4.09 -0.9458 -0.2697 1.548 2.235 -3.869 -2.067 1.798 -4.674
3.93 0.9888 -2.742 -5.438 -0.4944 -6.067 -5.213 -5.888 -7.416 -3.052 -5.843 -4.213 -1.376 -5.933 -3.326 -4.584 -8.809
3.935 -1.798 -5.843 -4.854 0.4494 -11.24 -9.483 -8.404 -8.225 -4.428 -10.25 -8.942 -4.471 -6.362 -3.955 -9.079 -9.978
3.94 -5.034 -8.09 -3.73 0.2697 -14.74 -12.27 -8.989 -7.326 -4.6 -12.49 -12.12 -7.05 -5.933 -4.315 -11.06 -9.438
3.945 -7.281 -9.169 -3.551 -1.258 -15.51 -13.17 -8.449 -6.382 -4.428 -12.58 -13.58 -9.028 -5.933 -4.944 -11.33 -9.348
3.95 -7.91 -9.708 -4.629 -3.281 -14.11 -12.22 -7.416 -6.337 -5.589 -11.51 -13.58 -10.4 -7.566 -6.562 -11.24 -10.88
3.955 -7.461 -10.43 -5.933 -4.404 -11.87 -10.43 -6.112 -6.921 -7.48 -10.79 -13.15 -11.61 -9.63 -8.449 -12.04 -12.76
3.96 -6.921 -10.97 -5.798 -3.91 -9.573 -8.674 -4.315 -6.517 -7.308 -10.52 -12.98 -12.38 -9.372 -8.09 -12.76 -12.49
3.965 -6.022 -9.708 -3.281 -1.978 -7.191 -6.742 -1.528 -3.371 -3.482 -9.258 -11.87 -11.26 -5.159 -4.135 -11.24 -8.09
3.97 -4.225 -5.978 1.124 0.6292 -4.27 -3.416 2.157 2.742 2.321 -5.483 -8.168 -6.878 1.462 1.798 -6.022 -0.4494
3.975 -1.528 -0.7191 5.663 3.011 -0.3596 1.528 6.292 9.798 7.652 0.809 -1.806 0 7.308 6.652 1.169 6.652
3.98 0.809 4.135 8.09 4.404 4.36 7.056 9.888 14.83 11.01 7.64 5.417 6.878 9.974 8.719 7.281 10.07
3.985 1.438 7.146 7.146 4.36 8.539 11.46 12.18 15.69 11.56 12.4 11.01 11.61 9.372 8 10.52 9.528
3.99 0.3596 7.461 3.191 2.697 10.11 13.35 12.49 12.31 8.985 13.21 13.15 13.41 6.62 5.303 11.06 7.371
3.995 -1.258 5.753 -2.022 -0.04494 8.494 12.31 10.07 6.112 4.514 10.61 11.95 12.38 3.267 2.247 10.34 5.663
4 -2.157 4.09 -5.978 -2.472 5.258 9.618 5.213 -0.4494 0.8598 7.101 9.028 9.888 1.032 0.5393 9.708 4.944
4.005 -1.618 4 -6.607 -2.876 2.876 7.596 -0.2697 -5.034 -0.7308 5.034 6.878 7.48 0.2579 0.1798 9.618 4.674
4.01 -0.6292 4.764 -3.955 -0.9438 2.427 7.416 -4.18 -6.562 -0.9888 4.764 6.792 5.847 0 -0.1798 9.169 4.045
4.015 -1.169 4.225 -0.4045 1.483 3.326 8.045 -5.393 -6.022 -0.6878 4.584 7.136 4.471 -0.2579 -1.079 7.011 2.966
4.02 -4.494 1.258 1.079 2.247 4.18 7.281 -4.539 -5.258 0.3439 3.236 6.191 2.665 -0.08598 -1.798 3.236 2.247
4.025 -9.348 -3.011 -0.4045 0.4045 3.82 4.404 -3.056 -5.124 1.376 0.7191 3.525 0.8598 0.6019 -1.528 0.1798 2.876
4.03 -12.85 -6.742 -3.506 -2.607 1.798 0.6292 -2.022 -5.169 0.7738 -1.438 0.5159 0.172 1.032 -0.8989 -0.3596 4.674
4.035 -13.3 -8.899 -5.528 -4.404 -1.438 -2.697 -1.978 -4.449 -1.29 -2.607 -1.634 0.5159 0.6878 -0.6292 0.9888 6.382
4.04 -11.78 -9.618 -4.809 -3.281 -4.809 -5.169 -2.427 -2.517 -2.665 -2.787 -2.837 0.6878 0.3439 -0.3596 2.337 7.101
4.045 -10.52 -9.753 -1.708 0.04494 -7.056 -6.831 -2.652 0.1798 -1.849 -2.607 -3.267 0.172 0.9458 0.5393 2.697 7.011
4.05 -10.43 -9.933 1.798 3.461 -7.865 -7.596 -2.247 2.472 0 -2.517 -2.837 -0.7738 2.149 1.528 2.337 6.652
4.055 -10.7 -9.843 3.955 4.989 -7.191 -7.551 -1.663 2.921 1.204 -2.337 -2.235 -1.806 2.837 1.798 1.798 5.663
4.06 -9.708 -8.315 4.135 4.36 -5.483 -7.011 -1.618 1.393 1.247 -1.888 -2.235 -2.837 2.235 1.169 1.079 3.416
4.065 -6.831 -5.213 3.236 2.876 -3.82 -6.202 -2.067 -0.6742 0.129 -0.9888 -3.267 -4.127 0.5159 0 -0.5393 0.08989
4.07 -3.146 -2.337 2.292 1.663 -3.73 -5.888 -2.831 -2.022 -2.149 -0.809 -5.589 -5.847 -1.72 -1.708 -3.865 -3.146
4.075 -0.809 -1.888 1.528 1.034 -5.483 -6.921 -3.91 -2.427 -4.514 -2.427 -8.942 -8.34 -3.783 -3.326 -8.809 -5.753
4.08 -0.7191 -3.596 0.6292 0.7191 -7.416 -8.854 -5.258 -2.966 -5.245 -5.483 -12.04 -11.09 -4.471 -3.685 -13.48 -7.191
4.085 -1.438 -4.494 -0.04494 0.8539 -7.101 -9.213 -6.022 -3.865 -4.299 -7.91 -12.55 -12.04 -3.955 -2.787 -14.65 -7.64
4.09 -0.3596 -1.933 0.2697 1.978 -3.73 -5.753 -4.989 -4.36 -3.439 -8.09 -9.286 -9.802 -3.181 -2.067 -11.33 -7.82
4.095 3.056 3.73 2.157 4.225 1.258 0.8989 -1.663 -3.281 -3.267 -6.202 -3.439 -4.987 -2.923 -2.157 -5.933 -8.18
4.1 6.831 9.843 5.079 6.697 5.573 7.551 2.787 -0.4045 -2.665 -3.506 1.806 -0.08598 -2.579 -2.247 -2.247 -8.629
4.105 8.629 13.12 7.775 8.18 7.416 10.92 6.742 3.281 -1.29 -1.169 4.901 3.353 -1.548 -1.978 -1.348 -8.27
4.11 7.82 12.13 9.169 7.865 6.876 10.34 8.584 5.978 -0.6878 0.7191 6.277 5.073 -0.6878 -1.978 -1.528 -7.101
4.115 6.112 8.225 8.854 6.202 5.708 7.506 7.865 6.247 -1.548 2.607 7.308 5.847 -0.8598 -2.876 0 -5.663
4.12 5.213 4.764 7.416 4.315 5.933 5.528 5.978 4.854 -2.192 4.764 8.942 6.62 -1.118 -3.596 4.045 -4.045
4.125 5.753 4.27 5.933 3.326 7.955 6.562 5.124 4.449 -0.8168 6.921 11.26 8.168 0.2579 -2.607 9.348 -1.528
4.13 6.472 6.202 5.169 3.146 9.798 10.25 6.652 7.146 2.708 7.82 12.98 10.32 3.783 0.6292 12.85 2.427
4.135 5.843 7.91 4.764 2.966 9.393 13.48 9.438 12.27 7.308 6.472 12.47 11.35 8.512 5.483 11.96 6.921
4.14 3.056 7.326 3.955 1.933 6.067 12.72 10.79 16.4 11.56 3.416 8.77 9.544 12.38 10.16 7.011 9.708
4.145 -0.5393 4.315 2.292 0 1.124 6.876 8.719 16.45 13.24 0.08989 3.095 4.901 13.24 12.4 1.438 9.438
4.15 -3.236 0 -0.1348 -2.337 -3.82 -2.112 3.416 11.55 10.7 -2.157 -2.407 -1.118 10.06 10.52 -1.528 6.292
4.155 -4.135 -4.629 -3.146 -4.899 -7.551 -11.06 -3.191 3.64 5.245 -3.236 -6.448 -6.706 4.385 5.483 -1.618 2.067
4.16 -4.225 -8.045 -6.112 -7.416 -9.169 -16.67 -8.584 -3.91 0.3439 -3.326 -8.512 -10.15 -0.6878 0.5393 -0.2697 -0.809
4.165 -3.955 -8.944 -8.225 -9.303 -8.629 -16.9 -10.65 -8.225 -2.064 -2.607 -8.254 -10.23 -3.095 -1.978 1.079 -1.079
4.17 -2.876 -7.011 -8.764 -9.888 -6.742 -12.04 -8.989 -8.764 -3.353 -1.348 -5.503 -7.136 -3.611 -2.787 2.697 0.7191
4.175 -0.5393 -3.281 -7.73 -8.899 -4.494 -5.034 -5.213 -7.236 -4.901 0.08989 -1.634 -2.579 -3.955 -3.416 4.674 2.247
4.18 2.427 0.5843 -5.933 -6.742 -2.382 0.2697 -1.888 -5.753 -6.362 1.169 1.806 0.9458 -4.901 -4.494 6.831 1.798
4.185 4.584 3.056 -4.36 -4.27 -0.809 1.978 -0.6292 -5.213 -6.878 1.978 4.127 2.579 -5.675 -5.573 8.719 -0.2697
4.19 4.494 2.966 -3.371 -2.382 0 0.7191 -1.573 -5.169 -6.792 2.607 5.245 2.407 -5.933 -6.202 9.348 -2.427
4.195 2.247 0.4494 -3.056 -1.393 -0.04494 -1.753 -4.09 -5.303 -6.362 3.146 4.729 0.8598 -5.675 -6.022 7.371 -3.865
4.2 -1.079 -2.831 -3.101 -1.034 -0.5393 -4.18 -7.011 -5.573 -5.288 3.236 2.235 -1.892 -4.643 -4.854 2.787 -4.135
4.205 -3.236 -4.629 -3.011 -0.7191 -1.124 -5.843 -8.809 -5.798 -3.74 2.517 -1.978 -4.987 -3.181 -3.326 -2.607 -3.775
4.21 -2.787 -4.045 -2.337 -0.1348 -1.663 -6.382 -8.494 -5.438 -2.579 0.809 -6.448 -7.136 -1.806 -2.247 -6.742 -3.146
4.215 -0.2697 -1.753 -1.034 0.764 -1.753 -5.843 -6.157 -3.955 -1.763 -1.618 -9.63 -7.652 -0.8598 -1.798 -8.899 -2.876
4.22 2.607 0.9438 0.8989 2.112 -0.764 -3.91 -2.787 -1.393 -0.3439 -3.506 -10.15 -6.534 0.172 -0.809 -9.438 -2.966
4.225 4.315 3.371 3.281 3.865 1.618 -0.1798 0.4494 1.483 1.204 -3.056 -7.394 -4.041 1.462 0.809 -8.27 -2.876
4.23 4.674 4.539 5.348 5.483 4.449 4.674 2.607 3.236 1.204 -0.3596 -2.064 -0.6878 1.72 1.978 -5.483 -2.337
4.235 4.225 3.596 5.708 5.798 6.157 8.539 2.921 2.562 -0.5589 3.056 3.439 2.493 0.8598 1.618 -1.888 -1.348
4.24 3.416 0.9888 3.371 3.865 6.022 9.393 1.573 -0.1798 -1.849 5.213 7.05 4.729 0 0.8989 1.258 0
4.245 2.787 -1.483 -0.7191 0.4045 4.719 7.955 0.1348 -2.697 -0.9458 5.573 8.426 6.706 0.4299 1.079 3.416 1.798
4.25 3.146 -1.888 -4.18 -2.697 3.326 6.876 0.6742 -2.607 1.204 4.764 9.028 9.114 1.978 2.157 4.404 3.596
4.255 4.764 0.5843 -4.719 -3.506 2.742 7.955 3.685 0.2697 2.665 3.685 9.114 11.26 2.923 3.056 3.775 4.315
4.26 7.281 5.213 -1.978 -1.573 3.146 10.38 7.775 3.865 2.708 3.326 8.254 11.61 2.407 2.966 1.978 3.146
4.265 9.888 9.978 2.382 1.753 3.82 12 10.88 6.022 1.419 3.685 6.105 9.888 0.9458 1.888 0.2697 0.9888
4.27 11.6 12.4 6.067 4.584 4 11.24 11.96 6.292 -0.2149 4.764 3.525 7.652 -0.2579 0.5393 0.1798 -0.3596
4.275 11.69 11.1 7.551 5.708 3.596 8.36 11.06 6.067 -0.172 6.202 1.892 6.706 0.5159 0.8989 2.157 0.809
4.28 9.528 7.056 6.876 5.393 3.506 5.483 9.438 7.146 3.353 8.18 2.321 7.48 4.213 4.494 5.213 4.944
4.285 5.663 2.966 5.303 4.674 4.315 4.944 8.539 9.843 9.157 10.16 4.901 9.372 9.458 10.16 8.539 10.43
4.29 1.528 0.5843 3.73 3.82 5.393 6.876 8.449 12.04 12.94 10.97 8.168 10.58 12.47 13.84 10.79 14.2
4.295 -1.348 -0.4045 1.663 1.978 5.348 8.674 7.461 10.61 11.65 9.258 9.372 8.942 10.66 12.4 10.61 13.39
4.3 -2.876 -1.213 -1.663 -1.258 3.506 7.236 3.775 4.539 6.405 5.034 6.964 3.783 4.815 6.202 7.551 7.64
4.305 -3.146 -2.337 -5.528 -5.079 0.3146 2.472 -1.888 -3.506 0.129 0.1798 2.235 -2.407 -1.72 -1.258 3.326 0.08989
4.31 -2.517 -3.236 -7.955 -7.236 -2.966 -2.562 -6.831 -9.034 -4.858 -3.146 -1.72 -6.362 -6.362 -6.742 0.3596 -5.663
4.315 -1.708 -3.146 -7.371 -6.427 -5.124 -4.899 -8.539 -9.483 -7.609 -4.404 -3.353 -6.362 -8.34 -8.809 -0.4494 -7.82
4.32 -1.169 -1.483 -4.36 -3.281 -5.483 -3.91 -6.787 -6.112 -7.824 -4.584 -3.267 -4.041 -8.254 -8.27 -0.7191 -7.73
4.325 -0.8989 1.528 -0.8539 0.1798 -4.27 -1.034 -3.326 -2.292 -6.792 -5.213 -3.439 -1.72 -7.652 -6.921 -2.337 -7.82
4.33 -0.3596 4.494 1.258 2.247 -2.607 1.079 -0.5393 -0.5843 -6.534 -7.551 -5.331 -1.376 -7.566 -6.742 -6.652 -9.258
4.335 0.3596 5.124 1.573 2.562 -1.843 0.3596 -0.2697 -1.393 -6.792 -11.24 -9.372 -3.869 -7.394 -7.101 -13.3 -11.6
4.34 0.2697 2.562 0.8989 2.292 -2.427 -3.685 -2.607 -2.742 -5.503 -14.74 -14.44 -8.34 -5.589 -5.753 -19.69 -12.49
4.345 -0.9888 -1.348 0.6292 2.562 -3.82 -8.854 -5.753 -2.472 -1.806 -16.18 -17.71 -11.87 -1.462 -1.798 -21.84 -10.43
4.35 -2.427 -4 1.213 3.236 -4.809 -11.87 -7.64 -0.3146 1.978 -14.65 -16.68 -11.52 2.665 2.517 -17.71 -6.112
4.355 -2.427 -3.775 1.753 3.101 -4.404 -11.01 -7.865 1.573 3.439 -10.61 -11.52 -7.136 4.127 4.135 -9.258 -2.787
4.36 -0.4494 -0.7191 0.9888 1.303 -2.202 -6.966 -7.236 0.809 2.106 -5.573 -4.471 -1.118 2.064 2.067 -0.6292 -2.697
4.365 2.697 3.596 -0.7191 -1.348 1.213 -1.573 -6.427 -2.562 -0.7738 -0.809 1.892 3.783 -1.892 -2.157 5.124 -5.124
4.37 5.213 6.966 -2.157 -3.191 4.36 3.461 -5.034 -6.067 -3.826 2.876 6.277 6.792 -5.073 -5.933 7.551 -6.831
4.375 5.034 7.461 -2.202 -3.146 5.888 6.742 -2.742 -7.146 -5.159 5.034 8.254 7.566 -5.761 -7.011 7.64 -5.663
4.38 1.348 4.899 -1.213 -1.528 5.663 7.416 0.04494 -5.124 -3.482 5.753 8.426 6.706 -3.525 -4.584 6.652 -1.618
4.385 -4.045 0.9888 0 0.3146 4.539 6.157 2.831 -1.528 0 5.573 7.996 5.159 -0.172 -0.3596 5.663 3.056
4.39 -8.18 -2.966 0.764 1.393 2.876 3.91 4.764 1.213 2.149 5.034 7.308 3.353 1.634 2.427 4.494 5.843
4.395 -9.438 -6.876 0.9888 1.258 0.5393 0.764 4.764 1.213 1.419 3.596 5.675 0.5159 0.5159 2.247 2.427 5.303
4.4 -8.809 -10.61 0.809 0.4944 -2.337 -3.326 2.787 -1.079 -0.3869 1.528 2.321 -3.525 -1.634 0.5393 -0.6292 2.787
4.405 -7.551 -12.72 0.7191 -0.1798 -4.809 -7.011 0.4045 -3.236 -0.7738 -0.3596 -1.376 -7.05 -2.149 0 -3.326 0.7191
4.41 -5.933 -11.64 1.169 -0.4944 -5.348 -7.91 -0.1798 -2.472 0.8168 -0.7191 -3.181 -7.652 0.08598 1.618 -3.955 0.5393
4.415 -3.775 -7.191 2.067 -0.5843 -3.191 -5.169 1.348 1.213 3.74 0.7191 -2.235 -5.073 4.213 4.674 -2.787 1.618
4.42 -0.7191 -1.079 2.921 -0.6292 0.6742 -0.7191 3.551 5.528 6.921 3.146 0 -1.978 7.91 7.551 -1.348 2.427
4.425 2.337 3.73 3.281 -0.8539 3.82 2.202 4.36 7.371 8.598 4.584 1.204 -0.9458 9.458 8.719 -0.9888 2.067
4.43 4.225 4.629 2.652 -1.393 3.596 1.303 2.652 5.438 7.136 3.326 0 -2.923 7.566 6.831 -1.978 0.8989
4.435 3.775 1.079 0.6292 -2.562 -0.2697 -3.281 -1.079 0.809 3.181 -0.4494 -3.267 -6.62 3.439 2.697 -3.865 -0.3596
4.44 1.348 -4.09 -2.337 -4.045 -4.989 -8.809 -4.944 -3.461 -0.04299 -4.494 -6.534 -9.544 -0.08598 -0.809 -5.393 -1.169
4.445 -1.169 -6.831 -4.719 -5.034 -7.191 -11.19 -6.472 -4.764 -0.6019 -6.022 -7.48 -9.458 -1.032 -1.798 -5.124 -0.8989
4.45 -1.798 -5.618 -5.079 -4.854 -5.933 -8.989 -5.169 -2.921 0.3869 -4.404 -5.503 -6.792 -0.08598 -0.7191 -2.697 0.1798
4.455 -0.6292 -2.607 -3.64 -3.685 -3.326 -4.764 -2.966 -0.5843 1.161 -1.708 -3.009 -4.213 0.8598 0.4494 0.08989 1.258
4.46 0.4494 -0.8539 -2.157 -2.382 -1.933 -2.472 -2.382 -0.5843 1.161 -0.3596 -2.493 -4.127 0.7738 0.7191 1.258 1.798
4.465 -0.3596 -1.798 -2.247 -1.888 -2.787 -3.685 -3.955 -3.236 0.5159 -1.258 -3.869 -6.019 -0.172 -0.08989 0.4494 1.978
4.47 -3.146 -4.584 -4 -2.337 -4.629 -6.382 -5.978 -6.112 -0.8598 -2.876 -4.815 -7.222 -1.548 -1.708 -1.169 1.888
4.475 -5.933 -6.787 -5.573 -2.876 -5.169 -7.056 -6.112 -6.247 -2.149 -3.416 -3.353 -5.589 -2.407 -2.966 -1.888 1.169
4.48 -6.652 -6.022 -4.764 -2.247 -2.787 -3.955 -3.101 -2.652 -1.72 -1.978 0.4299 -1.462 -2.064 -2.697 -0.4494 -0.2697
4.485 -4.404 -1.978 -1.079 -0.04494 1.483 1.753 2.292 2.831 0.129 0.6292 4.901 3.353 -0.5159 -0.9888 3.056 -1.888
4.49 -0.5393 2.787 3.326 2.247 4.629 6.966 7.551 6.966 1.29 2.607 7.566 6.706 0.5159 0.3596 7.101 -3.506
4.495 2.787 5.528 5.393 3.146 4.764 8.809 10.16 7.551 0.6448 3.056 7.136 7.222 0.4299 0.5393 9.438 -4.944
4.5 4.225 5.888 3.955 2.292 3.056 7.371 9.663 5.483 -0.129 2.697 4.471 5.675 0.08598 0.2697 9.258 -5.573
4.505 4.135 5.258 0.5843 1.124 1.618 4.719 7.326 3.596 0.3869 3.326 2.064 4.041 0.6019 0.8989 8.27 -4.854
4.51 3.685 4.764 -1.843 1.034 1.303 2.787 4.629 3.596 1.548 4.584 1.376 3.611 1.462 1.888 8.36 -2.876
4.515 4.135 4.449 -1.933 2.202 1.528 1.843 2.157 4.764 2.407 5.124 2.321 3.955 1.72 2.427 9.798 0.08989
4.52 5.124 4.27 -0.4944 3.775 1.888 1.169 0.4045 4.989 3.138 3.775 3.783 4.471 1.548 2.697 11.78 3.865
4.525 5.213 3.281 0.3596 4.18 1.663 0.1348 -0.5843 2.921 3.783 1.348 5.073 4.471 1.72 3.146 13.03 8.629
4.53 2.787 0.1798 -0.6292 2.607 0.2697 -1.438 -1.528 -1.124 3.697 -0.809 5.245 3.525 2.493 3.775 12.76 13.3
4.535 -1.618 -4.404 -2.787 0.04494 -1.843 -3.236 -2.607 -5.213 3.009 -2.067 3.697 1.29 3.181 4.315 10.34 16.27
4.54 -5.303 -7.371 -3.865 -1.169 -3.011 -4.36 -3.281 -6.921 2.794 -2.607 0.4299 -1.806 3.353 4.225 6.202 15.91
4.545 -5.663 -6.247 -2.607 -0.1798 -2.697 -4.449 -3.236 -5.663 2.622 -3.416 -3.439 -4.987 2.064 2.517 1.618 11.87
4.55 -2.427 -1.978 -0.3146 1.618 -1.933 -4.135 -2.876 -3.506 0.3869 -5.303 -6.62 -7.824 -1.29 -1.528 -2.607 5.034
4.555 2.607 2.652 0.4944 2.247 -1.438 -3.955 -2.742 -2.472 -3.783 -7.461 -7.996 -9.2 -5.589 -6.652 -6.112 -2.067
4.56 6.472 5.753 -0.8989 1.169 -0.5843 -3.685 -2.427 -2.517 -6.835 -7.73 -6.706 -7.996 -7.566 -9.169 -7.82 -6.202
4.565 6.831 6.112 -3.146 -0.3596 0.5393 -3.011 -1.843 -2.472 -6.319 -4.854 -2.923 -3.869 -5.245 -7.191 -6.921 -5.393
4.57 3.146 3.461 -4.135 -1.079 0.809 -2.427 -1.708 -1.618 -3.611 -0.6292 1.032 1.376 -0.7738 -2.876 -4.494 -1.528
4.575 -1.528 0.04494 -2.742 -0.3146 -0.08989 -1.888 -2.022 -0.1798 -1.247 1.618 3.353 5.503 2.235 0 -3.056 1.888
4.58 -3.236 -0.3146 0.6292 1.798 -0.3596 -0.3146 -1.528 1.438 -0.3009 0.9888 3.611 7.394 2.149 -0.2697 -3.775 2.787
4.585 -0.8989 3.056 4 3.775 0.9438 2.607 0.1348 2.337 -1.075 -1.079 3.267 7.05 -0.4299 -2.787 -5.573 1.528
4.59 3.416 7.011 4.989 3.775 2.831 5.708 1.798 1.708 -3.138 -2.067 3.095 4.987 -3.267 -5.124 -6.831 -0.1798
4.595 6.652 8.629 3.191 1.618 4.315 7.506 2.157 0.1348 -4.514 -0.809 3.353 2.579 -4.041 -4.854 -6.562 -0.4494
4.6 7.91 8.449 0.6292 -0.5843 5.798 7.91 1.573 -0.4494 -2.794 2.787 4.299 2.064 -1.462 -1.258 -4.944 1.618
4.605 6.921 7.506 -0.4045 -1.573 6.966 6.966 0.809 0.4494 1.204 6.652 5.417 3.697 2.751 3.506 -2.427 5.034
4.61 4.674 5.438 0 -1.933 6.022 4.404 -0.3596 1.258 3.568 8.18 5.761 5.417 4.901 5.573 -0.6292 6.921
4.615 2.787 2.472 0.809 -2.652 2.876 0.8539 -1.528 0.5843 2.192 6.292 4.729 5.847 3.267 3.596 -0.08989 6.382
4.62 2.607 0.5393 1.213 -3.685 -0.3146 -1.888 -1.034 -0.764 -0.6448 2.787 3.267 5.417 0 0.2697 0.5393 5.303
4.625 3.416 0.1348 0.9888 -4.315 -2.202 -3.011 1.393 -1.528 -2.106 0.5393 2.493 5.331 -1.978 -1.169 2.787 6.022
4.63 3.146 -0.3146 -0.1348 -4.719 -3.326 -3.191 4 -1.393 -1.892 0.08989 2.321 5.675 -1.72 -0.1798 5.663 8.36
4.635 1.258 -1.528 -1.843 -4.944 -3.73 -2.876 5.348 -0.764 -0.9458 0.3596 1.978 5.847 -0.2579 1.438 6.652 10.25
4.64 -0.5393 -1.843 -3.101 -4.584 -2.112 -1.573 5.348 -0.04494 0.2579 0.3596 1.118 5.417 0.7738 2.247 4.494 9.708
4.645 -1.258 -1.124 -3.416 -3.775 0.8989 0.04494 3.865 -0.3146 0.6878 -0.4494 -0.5159 3.439 0.3439 1.348 0.3596 6.202
4.65 -0.8989 -1.034 -3.326 -3.146 2.831 0.4045 0.2247 -2.787 -1.161 -2.876 -3.869 -1.204 -2.407 -1.348 -4.135 0.3596
4.655 1.169 -1.169 -3.191 -2.382 3.056 -0.764 -4.09 -6.292 -4.514 -6.742 -8.426 -6.706 -6.277 -4.584 -7.461 -5.213
4.66 5.124 1.169 -2.202 -0.2247 3.685 -1.303 -5.753 -7.685 -6.191 -10.16 -11.69 -9.114 -8.512 -6.202 -8.09 -7.551
4.665 8.989 5.618 -0.4494 3.011 5.393 -0.04494 -3.461 -5.798 -5.116 -11.15 -11.78 -6.792 -7.394 -5.483 -5.753 -5.843
4.67 9.348 7.685 0.5393 4.899 5.888 1.618 -0.08989 -2.831 -3.267 -9.798 -9.114 -2.407 -4.471 -3.775 -2.517 -2.697
4.675 5.213 4.539 -0.2697 3.685 3.596 1.978 1.079 -1.393 -2.407 -7.64 -5.761 0.6878 -1.72 -2.427 -0.9888 -1.079
4.68 -0.809 -1.618 -2.157 0.5393 -0.1348 0.8989 -0.3596 -1.798 -1.806 -5.303 -3.439 0.8598 -0.172 -1.528 -1.438 -1.708
4.685 -6.202 -7.416 -3.371 -2.157 -3.596 -0.9888 -3.101 -2.921 -0.9028 -2.966 -2.493 -1.204 0.4299 -0.5393 -2.697 -3.596
4.69 -9.528 -11.01 -3.011 -3.101 -5.888 -3.011 -5.393 -3.551 -0.6019 -0.8989 -2.923 -4.471 0 -0.08989 -3.685 -5.843
4.695 -9.978 -11.28 -0.809 -1.663 -5.573 -3.551 -5.034 -2.292 -0.9458 0.809 -3.525 -6.534 -0.6019 -0.2697 -4.315 -7.101
4.7 -7.461 -7.775 2.921 1.843 -1.573 -1.079 -0.8989 1.438 -0.3439 3.056 -2.665 -5.503 0 0.08989 -4.315 -6.652
4.705 -4.494 -3.191 6.921 5.663 3.865 2.876 4.584 5.888 1.505 5.573 -0.6019 -2.923 1.806 1.438 -4.045 -5.303
4.71 -3.416 -1.663 8.989 7.326 6.202 4.854 6.966 7.64 2.536 6.652 0.172 -2.235 2.923 2.337 -4.584 -5.213
4.715 -3.955 -3.371 8.584 6.427 4.135 3.326 4.989 5.888 1.419 5.303 -1.376 -4.471 1.806 1.438 -6.652 -7.461
4.72 -3.955 -4.449 7.416 4.854 0.9888 0.5393 2.067 3.236 -0.172 2.966 -3.869 -6.792 -0.2579 -0.2697 -8.449 -10.34
4.725 -3.236 -3.191 7.101 4.315 -0.2247 -0.8539 1.663 2.292 -0.6878 2.157 -4.385 -6.277 -1.29 -1.528 -7.551 -11.33
4.73 -3.326 -1.708 7.416 4.539 0.08989 -0.4944 3.64 3.326 -0.2149 3.506 -1.978 -2.665 -0.5159 -1.438 -3.865 -9.438
4.735 -4.944 -1.843 7.461 4.584 0.8989 0.809 6.022 5.079 0.9028 5.573 2.149 2.235 1.376 -0.08989 0.4494 -5.213
4.74 -6.921 -2.427 6.787 4.27 1.753 2.202 6.966 6.517 2.966 6.921 6.019 6.362 3.439 2.067 3.506 -0.1798
4.745 -8.449 -2.562 5.258 3.416 1.618 2.337 5.348 6.472 4.901 6.742 7.48 7.824 4.299 3.865 4.674 3.596
4.75 -9.618 -3.146 2.921 1.663 -0.5393 0.2247 1.169 4.404 4.514 4.674 5.761 5.675 3.095 3.775 4.135 4.584
4.755 -9.798 -4.315 0.3146 -0.5393 -3.685 -2.921 -3.146 1.573 2.064 1.798 2.149 1.806 0.7738 2.247 2.427 3.056
4.76 -8.719 -4.719 -1.079 -1.708 -4.809 -4.539 -4.494 0.3146 0.5589 -0.3596 -0.5159 -0.4299 -0.2579 1.258 0.6292 1.348
4.765 -7.281 -4.27 -1.034 -1.438 -3.281 -3.73 -2.652 1.034 1.505 -0.8989 -0.7738 -0.3439 0.7738 1.978 -0.809 0.7191
4.77 -7.011 -4.494 -0.6742 -0.9888 -1.303 -2.022 -0.7191 1.618 2.579 -0.8989 0 -0.08598 1.634 2.607 -2.607 0.08989
4.775 -7.64 -5.528 -1.303 -1.708 -0.6292 -1.213 -1.124 0.1798 1.204 -1.708 -0.08598 -1.634 0 0.8989 -5.483 -1.888
4.78 -8.09 -5.888 -3.101 -3.685 -0.7191 -1.618 -3.596 -3.011 -2.106 -2.876 -1.72 -4.815 -3.869 -2.697 -8.18 -5.303
4.785 -8.09 -5.753 -5.573 -6.292 -1.303 -3.101 -6.562 -6.562 -5.288 -3.146 -4.213 -7.91 -7.308 -6.112 -8.899 -8.18
4.79 -8.27 -6.607 -8.135 -8.854 -2.921 -5.348 -8.989 -9.034 -6.921 -2.337 -6.191 -9.372 -8.168 -7.371 -7.371 -8.989
4.795 -8.09 -8.045 -9.708 -10.25 -5.079 -7.326 -9.798 -9.213 -6.234 -1.438 -6.964 -8.34 -6.191 -6.112 -5.034 -7.371
4.8 -6.382 -7.506 -9.169 -9.438 -5.933 -7.596 -8.315 -6.742 -3.052 -0.9888 -6.191 -4.987 -2.579 -2.966 -3.236 -4.135
4.805 -3.326 -3.775 -6.427 -6.697 -5.079 -5.843 -5.348 -3.236 0.3009 -0.8989 -4.213 -1.118 0.4299 -0.1798 -2.067 -1.258
4.81 -0.1798 1.124 -2.876 -3.865 -3.685 -3.011 -2.607 -0.9888 0.9028 -0.8989 -1.978 1.29 0.8598 0.3596 -0.9888 -0.2697
4.815 2.157 4.899 -0.1798 -2.292 -2.517 0.1348 -0.8989 -0.764 -1.505 -0.7191 0.08598 2.321 -0.6878 -1.079 0.2697 -0.6292
4.82 3.596 6.697 1.034 -1.663 -0.9888 3.596 0.5393 -1.213 -3.482 0.08989 2.407 3.353 -1.72 -1.888 2.067 -0.2697
4.825 3.865 6.607 1.079 -1.034 0.6742 6.831 2.202 -0.6742 -2.278 1.618 5.331 5.503 -0.4299 -0.3596 4.494 2.067
4.83 2.876 4.719 0.3596 -0.1798 1.393 8.899 3.326 1.213 0.8168 3.236 8.082 8.082 2.149 2.337 7.011 5.213
4.835 1.528 2.382 -0.4494 0.4944 0.5843 9.034 3.146 3.73 3.482 4.045 9.372 9.458 3.955 4.045 8.449 6.831
4.84 1.079 1.438 -0.9438 0.809 -0.8989 7.416 1.663 5.798 4.858 3.955 8.426 8.426 4.213 4.225 8.449 6.112
4.845 1.708 2.337 -0.9438 0.5393 -2.472 4.629 -0.5843 6.427 5.374 3.236 5.761 5.331 4.041 3.685 7.371 4.045
4.85 3.416 3.865 -0.6742 -0.04494 -4.045 1.618 -2.921 5.483 4.858 1.528 2.493 1.548 4.041 3.236 5.843 2.787
4.855 5.753 4.809 -0.2697 -0.4944 -5.169 -0.6742 -4.045 3.64 3.568 -1.079 -0.172 -0.9458 3.955 2.697 3.955 2.966
4.86 8.09 5.124 0.3596 0.08989 -4.989 -1.843 -3.191 2.022 2.493 -3.955 -1.978 -1.548 3.611 1.978 1.798 4.135
4.865 9.079 4.899 1.258 1.618 -3.551 -2.022 -0.8989 0.9888 1.849 -5.573 -2.751 -0.9458 2.493 0.9888 0.1798 4.674
4.87 8.36 4.09 2.112 3.101 -1.888 -1.708 1.213 0.3596 0.5589 -5.483 -3.009 -0.7738 0.4299 -0.7191 -0.8989 3.685
4.875 6.921 3.236 2.607 3.551 -0.7191 -0.9888 2.247 0.04494 -1.29 -4.584 -3.267 -1.72 -1.634 -2.427 -2.067 1.798
4.88 6.472 3.551 2.831 3.011 0.1348 0.1798 2.427 0.3146 -1.763 -3.955 -3.611 -3.353 -2.064 -2.607 -3.326 0.3596
4.885 7.551 5.708 2.876 2.067 1.258 1.888 2.787 1.528 -0.129 -3.775 -3.439 -4.213 -0.172 -0.7191 -4.045 0.2697
4.89 9.528 8.629 2.921 1.258 2.292 3.775 3.955 3.281 1.763 -3.596 -2.064 -2.923 2.064 1.258 -3.056 0.809
4.895 10.7 10.34 2.831 0.6292 2.787 4.989 5.348 4.539 2.021 -2.337 0.3439 -0.2579 2.665 1.348 -0.809 0.6292
4.9 9.528 9.573 2.472 0.3146 2.787 4.629 5.798 4.36 0.9458 0.1798 2.493 1.978 1.204 -0.3596 1.169 -0.4494
4.905 5.663 6.427 2.067 0.4494 2.427 2.787 4.449 2.562 -0.2579 3.506 3.525 1.978 -1.032 -2.337 1.978 -1.618
4.91 0.5393 1.978 1.798 0.9438 1.618 0.5393 1.753 0 -1.591 5.663 3.353 -0.172 -2.837 -3.596 1.258 -1.708
4.915 -3.685 -2.067 1.618 1.169 0.764 -0.8989 -0.9888 -2.562 -3.095 5.573 2.321 -3.267 -3.783 -3.865 -0.1798 -0.9888
4.92 -5.663 -4.18 0.809 0.4045 0.6292 -1.213 -2.742 -4.719 -3.826 3.596 1.118 -5.417 -3.955 -3.326 -1.528 -0.7191
4.925 -5.393 -3.416 -0.9438 -1.663 1.618 -0.6742 -3.101 -6.247 -3.31 1.618 0.7738 -5.331 -3.267 -2.157 -1.438 -1.348
4.93 -3.416 -0.4045 -3.191 -4.225 3.056 0.1798 -2.292 -6.562 -2.321 1.169 1.634 -2.579 -2.235 -0.8989 0.4494 -2.067
4.935 -0.9888 2.742 -4.494 -5.528 3.596 0.5843 -0.8989 -5.258 -1.032 1.618 2.665 0.9458 -0.6878 0.3596 2.607 -1.348
4.94 0.3596 4.315 -3.326 -4.045 2.697 0.08989 0.809 -2.067 1.462 1.708 2.321 3.353 2.064 2.697 3.326 1.348
4.945 0.2697 4.225 0.3146 0.3146 1.124 -0.4944 3.101 2.517 5.288 1.079 0.6878 3.869 5.847 5.933 2.697 5.213
4.95 -0.2697 3.596 4.809 5.618 0.3596 0.4944 5.843 7.011 8.211 0.8989 -0.08598 4.041 8.856 8.539 2.697 7.91
4.955 0.3596 3.91 7.236 8.449 1.753 3.955 7.91 9.169 8.168 2.607 1.548 5.589 8.684 8.36 4.854 7.371
4.96 2.876 5.933 5.663 6.921 5.528 8.719 7.865 7.551 5.503 6.472 5.589 8.512 5.331 5.393 9.258 3.596
4.965 6.562 9.169 0.9888 2.157 10.07 12.85 5.528 3.236 2.021 10.97 10.49 11.87 0.7738 1.528 14.38 -1.079
4.97 9.528 11.51 -3.371 -2.382 12.76 14.65 2.427 -0.8989 -1.161 13.57 14.1 13.84 -2.665 -1.618 17.89 -4.135
4.975 9.978 10.52 -4.764 -3.91 12 13.21 0.04494 -2.876 -3.224 12.22 14.01 12.64 -4.299 -3.416 17.08 -4.944
4.98 7.281 5.663 -2.876 -2.022 8.494 8.944 -1.169 -2.831 -3.267 7.461 9.888 7.566 -4.041 -3.326 11.33 -4.584
4.985 2.787 -0.5843 0 1.213 4.674 3.775 -1.843 -2.157 -2.021 2.247 3.783 0.6878 -3.009 -2.067 3.326 -4.315
4.99 -0.8989 -5.258 1.483 3.101 2.202 0 -2.247 -2.067 -1.505 -0.7191 -0.9458 -4.643 -2.407 -0.9888 -2.517 -4.045
4.995 -2.787 -7.146 0.9888 2.292 0.7191 -1.798 -2.247 -2.607 -2.364 -1.169 -3.009 -6.362 -2.407 -0.6292 -3.955 -3.056
5 -3.775 -7.236 -0.1798 0 -1.079 -2.652 -1.169 -2.562 -2.192 -0.809 -3.009 -5.073 -1.29 0.2697 -1.888 -0.8989
5.005 -5.393 -6.742 -0.1348 -1.393 -3.82 -3.236 1.438 -0.4494 1.118 -1.169 -2.321 -2.407 2.321 2.966 1.169 2.337
5.01 -7.101 -6.337 1.843 -0.2697 -6.292 -3.281 5.169 3.551 6.491 -2.157 -1.376 0.5159 7.308 6.742 3.146 5.573
5.015 -7.73 -6.247 4.135 2.472 -7.011 -2.697 7.685 7.191 10.66 -3.146 -0.5159 2.321 10.49 9.258 2.876 7.011
5.02 -6.292 -6.022 4.36 4.629 -5.258 -2.067 6.787 7.73 11.44 -3.146 -0.2579 2.321 10.06 9.348 0.8989 5.843
5.025 -3.775 -5.258 1.978 4.719 -2.292 -2.112 3.056 4.764 8.641 -2.067 -0.7738 0.9458 6.792 7.371 -1.079 3.326
5.03 -1.708 -4.18 -0.9888 3.146 -0.4494 -2.697 -0.4494 0.8539 3.74 -0.8989 -1.634 -0.4299 2.837 4.404 -1.978 1.438
5.035 -1.708 -3.82 -2.157 1.348 -1.258 -3.551 -1.348 -1.258 -0.3869 -0.7191 -2.923 -1.29 0.6019 1.888 -2.607 1.169
5.04 -3.326 -4.27 -0.8539 0.4045 -3.73 -4.404 0.2697 -0.809 -1.333 -1.708 -4.557 -1.892 0.9458 0.7191 -4.045 1.978
5.045 -4.494 -4.449 1.483 0.3596 -5.393 -4.809 2.292 0.8989 0.4729 -2.697 -5.761 -2.064 2.751 0.6292 -6.022 2.966
5.05 -2.966 -3.461 2.742 0.4045 -4.944 -4.539 2.472 1.888 1.462 -2.697 -5.503 -1.204 3.353 0.08989 -6.742 3.236
5.055 0.6292 -2.067 1.708 -0.04494 -3.281 -4.18 0.4944 1.034 -0.3869 -1.888 -4.213 0.2579 1.548 -1.618 -5.573 2.247
5.06 3.416 -1.438 -0.6742 -0.8539 -2.157 -4.36 -1.708 -0.6742 -2.966 -1.169 -3.009 1.376 -0.8598 -3.146 -3.865 0.4494
5.065 3.326 -1.573 -2.337 -0.809 -2.337 -4.584 -1.528 -0.9888 -2.923 -0.9888 -2.235 1.892 -1.29 -2.517 -2.427 -0.9888
5.07 0.8989 -1.753 -1.393 0.7191 -3.101 -3.73 1.888 1.483 -0.2579 -0.7191 -1.204 2.235 0.5159 -0.2697 -1.618 -1.348
5.075 -1.348 -1.708 1.798 2.787 -3.416 -1.798 6.202 5.124 2.064 0.08989 -0.08598 2.149 2.321 1.348 -0.9888 -1.079
5.08 -1.798 -1.708 5.034 3.82 -2.831 -0.4494 7.596 6.472 1.634 1.258 0.172 1.032 1.548 0.4494 -0.08989 -1.438
5.085 -0.6292 -2.112 6.292 2.966 -2.067 -1.124 4.764 3.775 -1.935 2.157 -0.6878 -1.032 -1.72 -2.427 1.528 -2.517
5.09 0.5393 -3.101 4.944 1.034 -2.247 -3.371 -0.2697 -1.663 -6.749 2.067 -2.407 -3.181 -5.503 -5.753 3.146 -3.775
5.095 0.5393 -4.629 1.933 -0.4944 -3.596 -5.573 -4.09 -6.517 -9.329 0.6292 -4.213 -4.815 -7.222 -7.011 3.416 -4.494
5.1 -0.3596 -5.708 -1.438 -0.809 -4.854 -6.247 -4.674 -8.09 -6.964 -1.618 -5.331 -5.503 -5.331 -4.944 1.618 -4.045
5.105 -0.7191 -4.944 -3.865 -0.1798 -4.494 -4.764 -2.472 -5.843 -1.032 -3.146 -4.815 -4.815 -0.7738 -0.6292 -0.3596 -2.697
5.11 0.4494 -2.427 -4.674 0.08989 -2.427 -1.843 0.3596 -1.843 3.439 -3.056 -2.235 -2.579 2.923 2.876 -0.5393 -1.169
5.115 2.876 0.2697 -4.27 -0.8539 0 0.6292 1.663 0.809 3.31 -2.067 0.9458 0.2579 3.353 3.326 1.258 -0.809
5.12 4.584 1.708 -3.416 -2.787 1.618 1.303 0.6742 0.6292 0.4299 -1.618 2.579 1.892 1.29 1.438 3.056 -2.157
5.125 4.404 1.798 -2.697 -4 2.382 0.5393 -1.393 -1.303 -1.505 -2.697 1.72 1.548 -0.7738 -0.2697 2.876 -4.494
5.13 2.966 1.258 -2.157 -3.281 2.517 -0.2697 -2.876 -2.876 -1.548 -4.674 -0.8598 -0.4299 -1.806 -1.348 0.5393 -6.742
5.135 1.348 0.4045 -1.483 -0.764 2.202 -0.6292 -3.236 -2.787 -1.333 -6.652 -4.127 -3.267 -2.665 -2.427 -2.966 -8.36
5.14 0 -0.6292 -0.7191 1.843 1.483 -1.079 -3.326 -1.888 -2.493 -7.371 -6.792 -6.534 -4.385 -4.404 -5.843 -9.258
5.145 -1.169 -1.393 0.08989 3.236 0.4045 -2.112 -3.82 -1.528 -5.073 -6.202 -7.91 -8.856 -6.792 -6.652 -6.742 -9.258
5.15 -2.157 -1.528 0.809 2.787 -0.7191 -3.146 -4.719 -2.247 -8.082 -3.865 -6.706 -9.114 -8.942 -8.449 -5.393 -7.91
5.155 -2.607 -0.8989 0.6292 0.9438 -1.663 -3.416 -5.888 -3.73 -9.544 -2.067 -4.127 -7.48 -9.544 -8.899 -3.326 -5.663
5.16 -1.978 0.2247 -1.079 -1.528 -1.798 -3.011 -7.281 -5.213 -7.695 -2.067 -1.978 -5.417 -7.91 -7.461 -1.978 -3.056
5.165 -0.4494 1.618 -4.225 -4.27 -1.169 -2.427 -8.764 -6.202 -3.611 -3.506 -1.032 -3.869 -4.643 -4.494 -1.438 -0.7191
5.17 0.9888 2.247 -7.64 -7.056 -0.7191 -2.247 -9.933 -6.742 -0.7308 -4.854 -0.5159 -2.751 -1.72 -1.888 -0.7191 0.9888
5.175 1.169 0.9888 -10.11 -9.618 -0.9888 -2.652 -10.38 -7.191 -0.8598 -4.854 0.2579 -1.72 -0.5159 -0.809 -0.08989 1.978
5.18 -0.4494 -1.933 -10.79 -10.97 -1.438 -3.371 -10.02 -7.64 -2.021 -3.056 1.72 -0.7738 -0.5159 -0.4494 -0.2697 2.067
5.185 -3.146 -4.944 -9.528 -10.07 -0.9888 -3.371 -8.809 -7.146 -1.548 -0.3596 3.439 0 -0.172 0.08989 -1.528 1.618
5.19 -4.764 -6.337 -6.876 -6.966 0.5393 -1.933 -6.831 -5.034 0.2579 1.618 4.815 0.7738 0.4299 0.6292 -3.506 0.6292
5.195 -4.225 -5.663 -3.82 -3.056 2.337 0.3596 -4.494 -1.798 1.419 1.888 4.987 0.7738 0.6878 0.1798 -5.663 -0.809
5.2 -1.888 -3.146 -1.348 -0.3596 3.596 2.292 -2.202 0.9888 1.032 0.5393 3.611 0 0.2579 -0.809 -7.551 -2.247
5.205 1.079 0.6292 0.4494 0.5843 4.135 3.236 0.2697 2.652 0 -0.809 2.149 -0.6019 0.08598 -0.9888 -8.18 -2.247
5.21 3.775 4.899 2.337 0.8989 4.225 3.685 3.416 3.596 -0.6019 -0.5393 2.235 0.7738 0.9458 0.2697 -6.831 0.3596
5.215 5.843 8.18 4.764 2.157 4.09 4.09 6.562 4.809 0.3869 1.348 3.869 4.127 2.579 2.607 -4.045 4.764
5.22 7.011 9.618 7.551 5.034 3.73 4.135 8.225 6.517 3.396 3.416 5.159 7.308 4.213 4.674 -1.528 8.629
5.225 7.101 9.438 9.663 8.225 3.101 3.596 7.416 7.865 6.663 4.584 4.815 8.254 4.471 5.573 -0.08989 9.888
5.23 6.202 8.36 9.933 9.528 2.067 2.831 4.449 7.461 6.878 4.315 3.009 6.534 2.407 4.135 0 8.27
5.235 4.674 6.876 7.685 7.596 0.8539 2.382 0.5393 4.494 2.966 3.236 0.8598 3.353 -1.462 1.079 -0.9888 5.034
5.24 3.236 5.573 3.596 3.416 0.3146 2.337 -2.652 -0.1348 -1.978 2.157 -0.5159 0.5159 -4.815 -1.438 -2.517 2.157
5.245 2.337 4.764 -0.5393 -0.08989 0.764 2.472 -3.91 -3.775 -4.127 1.708 -0.7738 -0.4299 -5.245 -1.618 -3.146 1.258
5.25 2.427 4.225 -2.607 -0.5843 1.303 2.382 -3.011 -3.955 -2.751 1.438 -0.2579 0.4299 -3.009 -0.08989 -2.517 1.798
5.255 2.876 3.281 -1.843 1.933 0.764 1.528 -0.809 -0.4944 0.129 0.5393 -0.4299 1.634 -0.2579 1.258 -1.528 1.798
5.26 2.787 2.022 0.6292 5.258 -0.5393 -0.04494 1.213 4.27 2.579 -1.079 -1.978 0.9458 0.8598 1.438 -1.708 0
5.265 1.888 1.438 2.921 6.966 -1.213 -1.303 2.697 7.461 3.138 -2.607 -4.127 -1.376 0.172 0.4494 -2.966 -3.056
5.27 0.809 1.933 3.775 6.157 0 -0.5393 4 7.82 1.247 -2.607 -4.815 -3.181 -1.634 -1.169 -3.775 -5.034
5.275 0.3596 2.831 3.146 3.91 2.831 2.472 5.438 5.888 -1.978 -1.169 -3.267 -2.751 -3.439 -2.966 -3.056 -4.854
5.28 0.809 3.191 1.888 2.202 6.067 6.427 6.697 3.506 -3.783 0.809 -0.2579 -0.08598 -3.783 -3.775 -0.9888 -2.876
5.285 1.348 2.831 1.213 2.157 8.09 9.528 7.461 2.562 -2.665 2.517 2.837 3.353 -2.149 -2.876 1.348 -0.7191
5.29 1.348 1.978 1.528 3.146 7.91 10.7 7.596 3.596 -0.129 3.326 5.245 6.277 0.08598 -0.9888 2.876 0.4494
5.295 0.2697 0.6742 2.292 3.685 5.663 9.753 7.011 5.438 1.634 3.146 5.933 7.222 1.548 0.7191 2.517 0.08989
5.3 -1.888 -0.8989 2.337 2.652 2.652 6.831 5.573 6.247 2.45 2.247 4.471 5.675 1.892 2.067 0.2697 -0.7191
5.305 -4.225 -2.247 1.258 0.6292 0 3.056 3.73 5.213 2.923 1.258 1.806 2.665 2.149 3.146 -1.888 -0.7191
5.31 -5.483 -2.787 -0.2247 -1.079 -1.978 0 2.067 2.831 3.009 0.7191 -0.4299 0.5159 2.407 3.865 -1.978 0.8989
5.315 -4.674 -2.382 -1.348 -1.483 -3.326 -1.303 0.764 0.04494 2.536 0.9888 -0.8598 0.08598 2.579 3.775 0.3596 3.416
5.32 -2.517 -1.079 -1.708 -0.6742 -3.596 -1.169 -0.3146 -2.292 2.45 1.978 0.4299 0.9458 2.579 3.506 3.955 5.303
5.325 -0.2697 0.5843 -1.348 0.5393 -2.427 -0.2247 -1.213 -3.551 3.31 3.506 2.751 2.321 2.837 3.685 7.191 6.202
5.33 0.7191 1.618 -0.7191 1.213 -0.2697 0.6292 -1.393 -3.461 4.127 5.034 5.073 3.525 3.353 3.955 9.258 6.742
5.335 0.2697 0.7191 -0.2247 0.8539 1.483 0.8539 -0.8539 -2.157 4.17 5.393 5.933 3.869 4.127 3.955 9.618 7.461
5.34 -0.9888 -1.663 -0.08989 -0.2247 2.067 0.2697 0 -0.3596 3.955 4.315 4.987 3.009 4.987 3.955 8.09 8.09
5.345 -2.067 -3.551 -0.1348 -1.348 1.708 -0.2697 0.5843 1.348 4.127 2.876 3.525 1.806 6.105 4.315 6.202 8.27
5.35 -1.978 -3.191 -0.1348 -1.798 0.9888 0.1348 0.764 2.517 3.783 2.427 3.095 1.548 6.362 4.494 5.303 7.551
5.355 -0.809 -0.9438 -0.08989 -1.483 0.4494 1.348 0.08989 2.517 2.278 3.326 3.783 2.407 5.073 3.506 5.303 5.393
5.36 0 1.213 -0.4944 -0.9888 0.08989 1.798 -1.393 0.9888 0.7738 4.225 3.869 3.009 2.923 1.798 4.944 2.247
5.365 -0.4494 1.888 -1.438 -0.8989 -0.2247 0.6742 -2.966 -1.258 0.4729 3.506 2.064 2.493 1.462 0.5393 3.326 -0.4494
5.37 -1.618 0.809 -2.382 -1.528 -1.034 -1.303 -3.506 -3.011 0.8598 0.7191 -1.118 0.9458 1.032 0.1798 0.7191 -1.978
5.375 -2.157 -1.258 -2.742 -2.876 -2.022 -2.831 -2.831 -3.416 0.7738 -3.326 -4.385 -0.9458 0.8598 0.2697 -1.888 -2.427
5.38 -1.618 -3.011 -2.382 -4.315 -2.202 -3.416 -1.798 -2.831 0.2149 -6.562 -6.105 -2.923 0.2579 0.2697 -3.596 -2.876
5.385 -0.2697 -3.551 -1.573 -5.079 -1.034 -3.371 -1.483 -2.067 -0.3869 -7.101 -5.847 -4.729 -0.8598 -0.08989 -3.326 -3.685
5.39 0.6292 -3.236 -0.8539 -4.854 0.6292 -3.596 -2.247 -2.067 -1.591 -5.124 -4.299 -5.847 -2.407 -1.348 -1.169 -4.584
5.395 0.6292 -3.191 -0.8989 -4.135 1.303 -4.809 -3.685 -3.371 -3.224 -2.697 -3.095 -6.706 -3.869 -3.236 1.079 -4.854
5.4 -0.1798 -3.82 -2.067 -3.82 0.08989 -7.146 -5.169 -5.843 -3.955 -1.798 -3.955 -7.566 -4.385 -4.404 1.708 -3.955
5.405 -1.079 -4.315 -4.09 -4.404 -2.382 -9.393 -6.067 -8.404 -3.095 -2.517 -6.019 -7.996 -3.525 -4.135 0.9888 -1.528
5.41 -1.079 -4.09 -6.022 -5.663 -4.944 -10.07 -6.157 -9.753 -2.064 -3.596 -7.394 -6.964 -2.235 -3.056 0.9888 1.708
5.415 -0.1798 -3.506 -7.011 -6.787 -6.562 -8.899 -5.753 -9.169 -2.192 -3.506 -6.706 -4.471 -1.806 -2.697 2.517 4.135
5.42 0.7191 -3.101 -6.562 -6.787 -6.652 -6.831 -5.079 -6.697 -2.923 -2.157 -4.471 -1.978 -2.149 -2.966 4.854 4.494
