    T[sec] Fp2 Fp1  F3  F4  C3  C4  P3  P4  O1  O2  F7  F8  T3  T4  T5  T6
41 237.1 237.1 237.1 237.1 237.1 237.1 237.1 237.1 237.1 237.1 237.1 237.1 237.1 237.1 237.1 237.1
0 11 5.905 49.9 11.93 51.98 45.96 45.96 31.96 1.968 -11.11 25.93 -1.042 41.91 0 17.95 -3.01
0.005 0.9262 -7.063 39.94 7.989 47.93 33.92 45.96 22 -3.01 -23.04 23.97 -5.094 39.94 -1.042 19.91 -3.01
0.01 -11.11 -21.07 25.93 3.936 33.92 19.91 31.96 9.957 -15.05 -35.08 15.98 -5.094 31.96 -3.01 19.91 -3.01
0.015 -19.1 -31.03 11.93 -3.01 11.93 5.905 11.93 -2.084 -19.1 -43.07 7.989 -9.031 17.95 -9.031 13.89 -7.063
0.02 -25.01 -37.05 0 -17.02 -3.01 -3.01 -3.01 -7.063 -15.05 -41.1 0.9262 -17.02 1.968 -19.1 7.989 -13.08
0.025 -27.09 -39.02 -5.094 -27.09 -19.1 -13.08 -17.02 -15.05 -7.063 -35.08 -13.08 -21.07 -11.11 -29.06 0 -21.07
0.03 -27.09 -37.05 -11.11 -29.06 -25.01 -17.02 -21.07 -19.1 -3.01 -27.09 -29.06 -23.04 -27.09 -37.05 -3.01 -25.01
0.035 -25.01 -26.05 -15.05 -23.04 -25.01 -17.02 -18.06 -21.07 -3.01 -19.1 -43.07 -21.07 -40.06 -35.08 -13.08 -23.04
0.04 -23.04 -16.09 -17.02 -15.05 -18.06 -13.08 -14.01 -20.03 -7.063 -15.05 -52.1 -15.05 -46.08 -27.09 -23.04 -17.02
0.045 -23.04 -5.094 -19.1 -13.08 -15.05 -13.08 -13.08 -23.04 -13.08 -9.031 -51.06 -11.11 -47.01 -17.02 -29.06 -5.094
0.05 -15.05 1.968 -21.07 -15.05 -16.09 -15.05 -16.09 -22.11 -15.05 0.9262 -36.01 -9.031 -38.09 -9.031 -28.02 2.894
0.055 -5.094 1.968 -20.03 -21.07 -16.09 -17.02 -20.03 -22.11 -11.11 3.936 -14.01 -9.031 -26.05 -8.105 -18.06 12.97
0.06 -1.042 -3.01 -11.11 -25.01 -19.1 -21.07 -17.02 -21.07 -1.042 7.989 1.968 -9.031 -11.11 -15.05 -1.042 15.98
0.065 12.97 -7.063 -2.084 -28.02 -16.09 -22.11 -11.11 -14.01 0.9262 4.979 20.96 -10.07 1.968 -18.06 12.97 14.94
0.07 18.99 -13.08 0.9262 -28.02 -11.11 -22.11 -3.01 -5.094 0.9262 -2.084 33 -12.04 9.957 -20.03 20.96 4.979
0.075 14.94 -19.1 3.936 -27.09 -5.094 -19.1 1.968 -3.01 -5.094 -17.02 33.92 -17.02 13.89 -23.04 22 -3.01
0.08 2.894 -28.02 2.894 -24.08 -2.084 -16.09 12.97 0.9262 -10.07 -22.11 33.92 -20.03 16.9 -18.06 22 -11.11
0.085 -1.042 -38.09 0.9262 -20.03 4.979 -10.07 18.99 -1.042 -10.07 -22.11 31.96 -20.03 20.96 -14.01 19.91 -13.08
0.09 -11.11 -49.09 0.9262 -15.05 7.989 -7.063 19.91 -2.084 -7.063 -15.05 31.96 -17.02 22 -9.031 22 -13.08
0.095 -7.063 -44.11 -2.084 -7.063 9.957 -1.042 16.9 -2.084 -2.084 -3.01 33.92 -5.094 22.92 -3.01 26.98 -2.084
0.1 0.9262 -25.01 2.894 -1.042 4.979 0 7.989 -1.042 1.968 0 33 0 17.95 2.894 27.9 4.979
0.105 6.947 -2.084 7.989 1.968 -3.01 -2.084 -1.042 0 0.9262 7.989 27.9 11.93 5.905 13.89 19.91 17.95
0.11 12.97 22 13.89 14.94 -11.11 6.947 -10.07 6.947 0.9262 18.99 19.91 22.92 0.9262 29.99 7.989 33
0.115 12.97 33 19.91 26.98 -16.09 20.96 -9.031 19.91 11 29.99 5.905 25.93 -10.07 39.94 -1.042 42.95
0.12 8.915 25.93 19.91 38.9 -10.07 34.97 -4.052 33 17.95 42.95 -3.01 26.98 -19.1 44.92 -2.084 47.93
0.125 0.9262 11 19.91 46.89 -2.084 48.97 0 49.9 24.89 49.9 -17.02 25.93 -22.11 45.96 1.968 44.92
0.13 2.894 -2.084 15.98 46.89 1.968 52.91 8.915 58.93 20.96 52.91 -23.04 24.89 -25.01 44 1.968 36.93
0.135 -3.01 -2.084 5.905 44 5.905 47.93 9.957 55.92 7.989 49.9 -27.09 19.91 -25.01 33.92 3.936 25.93
0.14 -9.031 5.905 -1.042 33.92 2.894 40.99 7.989 46.89 0.9262 44 -24.08 15.98 -17.02 24.89 5.905 22.92
0.145 -13.08 8.915 -1.042 25.93 -1.042 31.96 6.947 31.96 1.968 41.91 -11.11 11.93 -10.07 13.89 11 22.92
0.15 -17.02 0 -1.042 15.98 -7.063 17.95 7.989 13.89 7.989 37.98 -1.042 1.968 -3.01 3.936 17.95 22
0.155 -11.11 -8.105 0.9262 11 -6.021 8.915 12.97 2.894 20.96 36.93 9.957 -1.042 4.979 -1.042 27.9 25.93
0.16 -3.01 -20.03 12.97 2.894 -3.01 2.894 18.99 -2.084 28.94 33 23.97 1.968 11 1.968 33.92 25.93
0.165 0.9262 -21.07 22 1.968 -2.084 -2.084 19.91 -2.084 25.93 23.97 31.96 -1.042 15.98 -2.084 29.99 22
0.17 8.915 -9.031 28.94 6.947 1.968 -1.042 15.98 3.936 15.98 22.92 28.94 1.968 17.95 2.894 24.89 22.92
0.175 6.947 0 26.98 8.915 2.894 6.947 11.93 12.97 5.905 28.94 20.96 0.9262 13.89 11 16.9 24.89
0.18 -1.042 1.968 15.98 13.89 0 15.98 5.905 23.97 7.989 47.93 3.936 7.989 1.968 19.91 11.93 33.92
0.185 -5.094 2.894 8.915 17.95 0.9262 25.93 11 38.9 19.91 69.93 -4.052 15.98 -4.052 30.91 14.94 46.89
0.19 -9.031 2.894 7.989 25.93 0.9262 29.99 16.9 48.97 33.92 83.94 -12.04 25.93 -14.01 39.94 14.94 56.96
0.195 -7.063 9.957 19.91 35.89 0 31.96 19.91 51.98 39.94 87.99 -15.05 31.96 -21.07 44 13.89 59.97
0.2 2.894 28.94 33.92 44 -1.042 31.96 16.9 52.91 29.99 75.95 -14.01 31.96 -26.05 44 7.989 61.94
0.205 8.915 48.97 41.91 49.9 -2.084 29.99 6.947 45.96 15.98 61.94 -13.08 33.92 -26.05 41.91 1.968 57.89
0.21 14.94 57.89 41.91 51.98 0 31.96 0.9262 41.91 3.936 57.89 -15.05 33.92 -23.04 35.89 1.968 53.95
0.215 18.99 55.92 33.92 51.98 3.936 35.89 0.9262 45.96 5.905 59.97 -19.1 33.92 -19.1 37.98 5.905 57.89
0.22 20.96 39.94 23.97 49.9 11.93 41.91 5.905 53.95 17.95 67.96 -23.04 37.98 -15.05 44 15.98 67.96
0.225 16.9 17.95 19.91 45.96 22 47.93 25.93 63.91 31.96 71.9 -23.04 41.91 -11.11 51.98 27.9 77.92
0.23 8.915 3.936 23.97 44 29.99 53.95 45.96 67.96 41.91 67.96 -17.02 44 -5.094 55.92 37.98 83.94
0.235 -1.042 0 33.92 41.91 33.92 55.92 61.94 63.91 45.96 57.89 -5.094 41.91 0 55.92 47.93 77.92
0.24 -5.094 5.905 44 37.98 35.89 53.95 65.99 55.92 44 51.98 1.968 37.98 11.93 51.98 57.89 65.99
0.245 -9.031 22 49.9 35.89 33.92 45.96 65.99 44 44 53.95 11.93 33.92 25.93 47.93 65.99 51.98
0.25 -5.094 33.92 51.98 29.99 29.99 35.89 63.91 35.89 47.93 57.89 19.91 31.96 37.98 45.96 69.93 44
0.255 2.894 41.91 47.93 19.91 25.93 23.97 63.91 35.89 55.92 61.94 25.93 29.99 44 44 69.93 44
0.26 11 37.98 41.91 5.905 25.93 17.95 69.93 39.94 61.94 57.89 29.99 25.93 45.96 39.94 63.91 45.96
0.265 12.97 25.93 37.98 -3.01 34.97 15.98 77.92 45.96 61.94 49.9 31.96 22 41.91 35.89 57.89 47.93
0.27 6.947 11.93 37.98 -13.08 44.92 19.91 81.97 51.98 59.97 41.91 31.96 19.91 35.89 29.99 53.95 44
0.275 0.9262 5.905 41.91 -13.08 53.95 25.93 81.97 55.92 55.92 35.89 31.96 22 29.99 25.93 49.9 39.94
0.28 0.9262 7.989 49.9 -1.042 55 33 73.98 51.98 45.96 33.92 28.94 26.98 22 25.93 44 35.89
0.285 8.915 17.95 55.92 13.89 42.95 30.91 57.89 41.91 33.92 33 24.89 33 11.93 27.9 33.92 33
0.29 18.99 27.9 57.89 27.9 23.97 25.93 37.98 23.97 15.98 22 19.91 31.96 1.968 25.93 19.91 25.93
0.295 24.89 31.96 51.98 27.9 9.957 16.9 22 9.957 0.9262 6.947 14.94 24.89 -1.042 22 5.905 18.99
0.3 18.99 31.96 44 15.98 5.905 11.93 15.98 0 -13.08 -2.084 11 12.97 -5.094 16.9 0 2.894
0.305 8.915 25.93 37.98 -2.084 9.957 0 13.89 -2.084 -19.1 -11.11 5.905 1.968 -3.01 7.989 -2.084 -5.094
0.31 -1.042 17.95 39.94 -9.031 24.89 -2.084 22 0 -15.05 -14.01 4.979 0.9262 -1.042 0.9262 0.9262 -16.09
0.315 0.9262 11.93 44 -13.08 34.97 0.9262 23.97 1.968 -7.063 -10.07 7.989 0.9262 0.9262 1.968 -1.042 -19.1
0.32 2.894 7.989 47.93 -1.042 33.92 -2.084 22 0 0.9262 -7.063 9.957 0 3.936 0.9262 -1.042 -19.1
0.325 11 3.936 47.93 9.957 25.93 4.979 17.95 -2.084 0 -5.094 15.98 4.979 8.915 1.968 0 -9.031
0.33 11 2.894 39.94 19.91 12.97 9.957 9.957 -1.042 0 -1.042 18.99 0.9262 6.947 0.9262 1.968 -4.052
0.335 0.9262 0 23.97 17.95 -1.042 7.989 1.968 -5.094 0.9262 -1.042 13.89 -3.01 5.905 -5.094 1.968 -3.01
0.34 -13.08 -2.084 6.947 4.979 -17.02 0 0.9262 -6.021 -1.042 1.968 3.936 -14.01 3.936 -13.08 5.905 -7.063
0.345 -31.03 -10.07 -6.021 -10.07 -31.03 -11.11 -3.01 -10.07 -5.094 1.968 -1.042 -21.07 0.9262 -20.03 4.979 -16.09
0.35 -47.01 -19.1 -19.1 -29.06 -35.08 -31.03 -5.094 -15.05 -9.031 -1.042 -9.031 -27.09 0.9262 -29.06 0 -23.04
0.355 -47.01 -25.01 -19.1 -32.07 -26.05 -42.03 -3.01 -17.02 -11.11 -3.01 -7.063 -25.01 0.9262 -29.06 0.9262 -26.05
0.36 -37.05 -23.04 -9.031 -20.03 -11.11 -43.07 -2.084 -20.03 -15.05 -7.063 1.968 -16.09 6.947 -22.11 6.947 -18.06
0.365 -17.02 -12.04 1.968 -2.084 1.968 -36.01 3.936 -17.02 -11.11 -5.094 5.905 -7.063 12.97 -9.031 16.9 -7.063
0.37 -7.063 -1.042 5.905 11 1.968 -21.07 3.936 -16.09 -9.031 -3.01 14.94 1.968 14.94 -1.042 18.99 1.968
0.375 -3.01 -2.084 7.989 18.99 -2.084 -10.07 -2.084 -15.05 -7.063 1.968 17.95 3.936 11 5.905 14.94 2.894
0.38 -7.063 -2.084 0 13.89 -15.05 -7.063 -9.031 -19.1 -5.094 5.905 11.93 3.936 3.936 7.989 1.968 0
0.385 -7.063 0 0 2.894 -27.09 -9.031 -19.1 -16.09 -7.063 8.915 11.93 1.968 -2.084 6.947 -4.052 0
0.39 -5.094 0 1.968 1.968 -23.04 -11.11 -25.01 -16.09 -13.08 7.989 9.957 0 1.968 1.968 -13.08 -5.094
0.395 -1.042 0 3.936 -1.042 -11.11 -9.031 -23.04 -11.11 -21.07 -2.084 9.957 -7.063 0.9262 1.968 -17.02 -17.02
0.4 0.9262 8.915 15.98 1.968 0.9262 -7.063 -21.07 -9.031 -29.06 -7.063 12.97 -6.021 1.968 1.968 -20.03 -22.11
0.405 6.947 11.93 23.97 9.957 11.93 -2.084 -19.1 -7.063 -33.11 -17.02 9.957 -2.084 1.968 -1.042 -24.08 -27.09
0.41 4.979 11.93 27.9 13.89 13.89 -1.042 -21.07 -9.031 -33.11 -27.09 5.905 -2.084 -1.042 0.9262 -27.09 -29.06
0.415 2.894 7.989 25.93 11.93 8.915 0.9262 -21.07 -11.11 -31.03 -30.1 3.936 5.905 1.968 0.9262 -24.08 -25.01
0.42 -1.042 5.905 19.91 7.989 4.979 -1.042 -19.1 -17.02 -27.09 -30.1 0.9262 11.93 2.894 6.947 -16.09 -18.06
0.425 0.9262 7.989 22 5.905 0 -1.042 -11.11 -19.1 -19.1 -25.01 1.968 13.89 7.989 13.89 -3.01 -13.08
0.43 -1.042 15.98 27.9 7.989 3.936 1.968 -3.01 -17.02 -11.11 -16.09 4.979 14.94 11.93 18.99 1.968 -8.105
0.435 4.979 25.93 37.98 11.93 13.89 1.968 3.936 -15.05 -3.01 -4.052 8.915 14.94 13.89 17.95 5.905 -8.105
0.44 8.915 29.99 47.93 15.98 22 -1.042 9.957 -11.11 1.968 1.968 11.93 15.98 15.98 15.98 7.989 -9.031
0.445 16.9 33.92 53.95 19.91 34.97 -4.052 15.98 -5.094 9.957 8.915 20.96 16.9 22 9.957 7.989 -10.07
0.45 20.96 29.99 57.89 19.91 38.9 -12.04 13.89 0.9262 11.93 11.93 24.89 16.9 25.93 11.93 5.905 -7.063
0.455 18.99 25.93 51.98 13.89 31.96 -13.08 7.989 3.936 5.905 9.957 23.97 11.93 23.97 17.95 1.968 -1.042
0.46 11 19.91 41.91 5.905 18.99 -7.063 -2.084 9.957 0.9262 3.936 19.91 3.936 15.98 19.91 -1.042 1.968
0.465 2.894 15.98 27.9 0 2.894 0.9262 -9.031 11.93 -5.094 0 15.98 -2.084 5.905 17.95 -7.063 3.936
0.47 -1.042 13.89 19.91 0 -5.094 3.936 -13.08 13.89 -5.094 0 11.93 0.9262 0.9262 9.957 -7.063 3.936
0.475 -3.01 13.89 15.98 5.905 -5.094 11.93 -9.031 13.89 -1.042 3.936 9.957 -2.084 -2.084 1.968 -1.042 0
0.48 -1.042 17.95 22 15.98 3.936 11.93 0.9262 13.89 -2.084 5.905 9.957 3.936 3.936 -2.084 3.936 0
0.485 0.9262 23.97 29.99 27.9 17.95 9.957 3.936 11.93 -1.042 5.905 9.957 9.957 13.89 1.968 7.989 0
0.49 -1.042 27.9 33.92 33.92 23.97 1.968 9.957 7.989 -11.11 1.968 9.957 15.98 19.91 9.957 5.905 3.936
0.495 -1.042 31.96 33.92 35.89 15.98 -3.01 5.905 1.968 -21.07 0.9262 11.93 19.91 19.91 17.95 0 3.936
0.5 2.894 29.99 31.96 31.96 0 -9.031 1.968 -1.042 -23.04 -3.01 17.95 23.97 17.95 19.91 0.9262 0
0.505 6.947 25.93 25.93 25.93 -11.11 -13.08 0.9262 -11.11 -19.1 -7.063 25.93 23.97 15.98 13.89 0 -3.01
0.51 12.97 19.91 23.97 19.91 -17.02 -11.11 0.9262 -17.02 -13.08 -11.11 31.96 22 17.95 3.936 7.989 -13.08
0.515 18.99 11 23.97 13.89 -11.11 -5.094 -2.084 -18.06 -7.063 -13.08 33.92 13.89 25.93 0.9262 15.98 -21.07
0.52 18.99 0 25.93 7.989 -2.084 0.9262 3.936 -17.02 -5.094 -15.05 37.98 3.936 35.89 -5.094 17.95 -25.01
0.525 14.94 -4.052 31.96 0.9262 9.957 0.9262 8.915 -14.01 -5.094 -16.09 42.95 -3.01 44.92 -8.105 15.98 -28.02
0.53 8.915 -10.07 36.93 -2.084 13.89 -1.042 12.97 -18.06 -3.01 -14.01 46.89 -10.07 46.89 -16.09 11.93 -32.07
0.535 6.947 -11.11 35.89 -13.08 9.957 -7.063 9.957 -25.01 -5.094 -17.02 49.9 -21.07 45.96 -31.03 9.957 -43.07
0.54 6.947 -8.105 33 -24.08 0.9262 -20.03 6.947 -36.01 -6.021 -16.09 48.97 -26.05 42.95 -46.08 7.989 -52.1
0.545 6.947 -5.094 24.89 -32.07 -8.105 -36.01 -1.042 -45.04 -12.04 -20.03 38.9 -30.1 34.97 -60.09 3.936 -58.01
0.55 4.979 -5.094 13.89 -37.05 -19.1 -45.04 -3.01 -47.01 -23.04 -25.01 25.93 -29.06 23.97 -67.04 -2.084 -55.11
0.555 4.979 -5.094 6.947 -27.09 -24.08 -39.02 -5.094 -35.08 -24.08 -21.07 13.89 -20.03 15.98 -53.03 -8.105 -39.02
0.56 0.9262 -4.052 7.989 -11.11 -22.11 -25.01 -9.031 -16.09 -20.03 -17.02 11.93 -7.063 11.93 -31.03 -20.03 -13.08
0.565 8.915 -5.094 11.93 1.968 -19.1 -3.01 -9.031 0.9262 -11.11 -7.063 13.89 0 9.957 -3.01 -27.09 5.905
0.57 16.9 1.968 22 20.96 -9.031 12.97 -12.04 11.93 -1.042 -1.042 22.92 7.989 12.97 12.97 -24.08 24.89
0.575 24.89 0.9262 30.91 26.98 -5.094 18.99 -13.08 14.94 -1.042 5.905 26.98 12.97 14.94 15.98 -20.03 23.97
0.58 26.98 3.936 33.92 22 -3.01 11.93 -19.1 7.989 -9.031 5.905 23.97 7.989 13.89 3.936 -11.11 11.93
0.585 18.99 6.947 31.96 11 0 0.9262 -18.06 2.894 -10.07 3.936 20.96 3.936 14.94 -5.094 -1.042 0
0.59 12.97 4.979 22.92 1.968 0 -6.021 -10.07 -1.042 -5.094 0.9262 17.95 2.894 19.91 -17.02 2.894 -5.094
0.595 6.947 1.968 17.95 -2.084 9.957 -11.11 0.9262 0.9262 0.9262 1.968 13.89 1.968 23.97 -19.1 7.989 -7.063
0.6 8.915 2.894 17.95 3.936 18.99 -3.01 7.989 0.9262 4.979 4.979 17.95 2.894 33 -7.063 6.947 0.9262
0.605 12.97 1.968 20.96 16.9 23.97 1.968 18.99 6.947 8.915 5.905 19.91 5.905 35.89 1.968 -1.042 3.936
0.61 12.97 4.979 26.98 25.93 25.93 22 22.92 11 1.968 8.915 22 4.979 28.94 13.89 -8.105 11
0.615 6.947 3.936 28.94 34.97 27.9 33.92 20.96 16.9 -2.084 7.989 17.95 5.905 19.91 22 -20.03 11.93
0.62 0.9262 0.9262 27.9 35.89 26.98 45.96 15.98 24.89 -4.052 8.915 11.93 8.915 8.915 25.93 -28.02 9.957
0.625 -1.042 0 31.96 41.91 27.9 47.93 15.98 31.96 0.9262 9.957 13.89 15.98 7.989 27.9 -29.06 7.989
0.63 6.947 12.97 42.95 53.95 33.92 46.89 16.9 40.99 9.957 16.9 19.91 20.96 15.98 29.99 -20.03 11.93
0.635 28.94 30.91 53.95 62.98 40.99 40.99 16.9 38.9 16.9 23.97 28.94 22 30.91 29.99 -9.031 15.98
0.64 52.91 49.9 55.92 69.93 35.89 33.92 11.93 29.99 15.98 25.93 31.96 22 33.92 29.99 -2.084 13.89
0.645 56.96 60.9 50.94 70.97 27.9 28.94 9.957 18.99 9.957 23.97 24.89 20.96 26.98 29.99 2.894 13.89
0.65 42.95 51.98 27.9 60.9 19.91 26.98 -1.042 9.957 1.968 22.92 8.915 19.91 11 26.98 0.9262 12.97
0.655 12.97 25.93 1.968 45.96 13.89 31.96 0.9262 3.936 0.9262 22 -7.063 22 -1.042 27.9 0.9262 13.89
0.66 -9.031 -1.042 -3.01 37.98 18.99 37.98 0 11 2.894 27.9 -13.08 29.99 -7.063 31.96 0 22
0.665 -11.11 -13.08 1.968 37.98 30.91 47.93 11.93 23.97 11 35.89 -7.063 36.93 -1.042 39.94 2.894 35.89
0.67 -1.042 -9.031 17.95 41.91 45.96 53.95 23.97 35.89 22 39.94 1.968 37.98 5.905 39.94 15.98 47.93
0.675 16.9 1.968 38.9 46.89 52.91 52.91 30.91 49.9 26.98 42.95 18.99 36.93 16.9 36.93 25.93 52.91
0.68 26.98 11 42.95 42.95 46.89 46.89 26.98 50.94 24.89 34.97 22.92 28.94 18.99 26.98 27.9 50.94
0.685 12.97 5.905 23.97 23.97 33.92 33.92 15.98 45.96 17.95 22 11.93 19.91 9.957 15.98 17.95 41.91
0.69 -3.01 0 0 6.947 19.91 26.98 2.894 42.95 11.93 11 -1.042 18.99 0.9262 14.94 5.905 36.93
0.695 -25.01 -8.105 -23.04 -1.042 11.93 26.98 1.968 36.93 9.957 4.979 -8.105 22 -2.084 18.99 0.9262 33
0.7 -25.01 0.9262 -29.06 1.968 15.98 29.99 -2.084 33.92 11.93 3.936 -3.01 33.92 -1.042 29.99 0.9262 35.89
0.705 -7.063 16.9 -17.02 17.95 27.9 37.98 7.989 34.97 19.91 5.905 5.905 39.94 3.936 37.98 1.968 39.94
0.71 12.97 33.92 -1.042 29.99 33.92 41.91 17.95 31.96 25.93 9.957 15.98 39.94 13.89 37.98 7.989 41.91
0.715 22.92 31.96 3.936 31.96 29.99 37.98 17.95 25.93 29.99 11.93 13.89 33.92 15.98 31.96 7.989 33.92
0.72 12.97 9.957 -2.084 23.97 15.98 25.93 7.989 13.89 23.97 5.905 -2.084 23.97 7.989 23.97 0 19.91
0.725 -5.094 -11.11 -11.11 11.93 -2.084 11.93 -3.01 3.936 11.93 -2.084 -21.07 17.95 -5.094 17.95 -9.031 5.905
0.73 -23.04 -23.04 -25.01 3.936 -5.094 5.905 -9.031 1.968 0 -5.094 -43.07 19.91 -21.07 22 -21.07 -2.084
0.735 -25.01 -15.05 -31.03 7.989 -3.01 7.989 -5.094 9.957 -3.01 -5.094 -51.06 23.97 -33.11 27.9 -27.09 0
0.74 -15.05 -2.084 -29.06 11.93 3.936 11.93 5.905 25.93 -1.042 0.9262 -47.01 25.93 -31.03 35.89 -23.04 5.905
0.745 -3.01 9.957 -25.01 13.89 15.98 15.98 23.97 39.94 0 5.905 -35.08 25.93 -23.04 37.98 -17.02 13.89
0.75 -1.042 5.905 -27.09 5.905 22 13.89 33.92 44 1.968 13.89 -21.07 19.91 -13.08 35.89 -17.02 17.95
0.755 -13.08 -5.094 -33.11 -1.042 15.98 9.957 29.99 35.89 1.968 13.89 -13.08 13.89 -7.063 31.96 -21.07 17.95
0.76 -31.03 -21.07 -41.1 -13.08 5.905 9.957 13.89 22 1.968 12.97 -7.063 7.989 -5.094 27.9 -27.09 17.95
0.765 -43.07 -25.01 -49.09 -19.1 -1.042 11.93 0.9262 7.989 1.968 7.989 -7.063 0 -7.063 22 -27.09 17.95
0.77 -45.04 -23.04 -57.08 -21.07 -13.08 13.89 -11.11 1.968 9.957 8.915 -5.094 -5.094 -7.063 13.89 -16.09 18.99
0.775 -37.05 -19.1 -61.02 -19.1 -14.01 13.89 -11.11 4.979 22 12.97 -2.084 -16.09 -3.01 3.936 1.968 14.94
0.78 -29.06 -27.09 -63.1 -21.07 -9.031 1.968 -3.01 5.905 35.89 17.95 0.9262 -25.01 -2.084 -1.042 13.89 5.905
0.785 -27.09 -35.08 -61.02 -25.01 0 -9.031 3.936 6.947 44 22.92 0.9262 -26.05 5.905 -4.052 28.94 1.968
0.79 -31.03 -41.1 -55.11 -31.03 8.915 -23.04 11.93 0.9262 46.89 23.97 4.979 -20.03 9.957 -6.021 33 -4.052
0.795 -31.03 -37.05 -39.02 -31.03 19.91 -31.03 17.95 0.9262 39.94 17.95 7.989 -7.063 11.93 0.9262 29.99 0.9262
0.8 -27.09 -23.04 -23.04 -27.09 24.89 -31.03 20.96 0.9262 33 13.89 8.915 4.979 11 4.979 24.89 9.957
0.805 -11.11 -9.031 -9.031 -17.02 20.96 -27.09 18.99 4.979 22.92 14.94 11.93 15.98 14.94 14.94 22 17.95
0.81 -1.042 -1.042 -5.094 -7.063 7.989 -17.02 9.957 11.93 11.93 7.989 5.905 17.95 11.93 19.91 9.957 15.98
0.815 -1.042 1.968 -11.11 -1.042 -5.094 -11.11 1.968 13.89 0 1.968 -2.084 22 11 23.97 0.9262 2.894
0.82 -1.042 4.979 -27.09 -2.084 -23.04 -5.094 -18.06 3.936 -18.06 -7.063 -8.105 26.98 0.9262 23.97 -16.09 -9.031
0.825 -11.11 17.95 -43.07 0 -37.05 -5.094 -35.08 -5.094 -37.05 -21.07 -25.01 33.92 -9.031 23.97 -39.02 -19.1
0.83 -9.031 44.92 -56.04 2.894 -45.04 -11.11 -47.01 -17.02 -51.06 -35.08 -31.03 41.91 -21.07 26.98 -57.08 -17.02
0.835 -3.01 66.92 -64.03 0.9262 -52.1 -23.04 -52.1 -30.1 -60.09 -43.07 -32.07 46.89 -35.08 22 -67.04 -10.07
0.84 2.894 75.95 -65.07 0 -57.08 -37.05 -55.11 -39.02 -57.08 -47.01 -27.09 41.91 -41.1 13.89 -75.02 -5.094
0.845 14.94 66.92 -55.11 1.968 -57.08 -51.06 -54.07 -46.08 -51.06 -48.05 -14.01 33 -40.06 0.9262 -71.09 -6.021
0.85 12.97 41.91 -43.07 -6.021 -59.05 -61.02 -52.1 -48.05 -47.01 -46.08 -10.07 19.91 -33.11 -11.11 -69 -19.1
0.855 0.9262 11 -34.04 -14.01 -55.11 -67.04 -52.1 -50.02 -46.08 -41.1 -13.08 7.989 -25.01 -17.02 -66.11 -28.02
0.86 -11.11 -1.042 -27.09 -20.03 -47.01 -63.1 -54.07 -46.08 -49.09 -40.06 -24.08 7.989 -23.04 -17.02 -63.1 -33.11
0.865 -23.04 -6.021 -25.01 -20.03 -37.05 -53.03 -56.04 -36.01 -53.03 -34.04 -34.04 12.97 -22.11 -4.052 -59.05 -24.08
0.87 -31.03 0.9262 -29.06 -19.1 -31.03 -41.1 -57.08 -27.09 -57.08 -27.09 -43.07 19.91 -23.04 5.905 -55.11 -11.11
0.875 -31.03 2.894 -32.07 -12.04 -30.1 -29.06 -54.07 -16.09 -48.05 -19.1 -46.08 24.89 -23.04 15.98 -43.07 1.968
0.88 -31.03 4.979 -40.06 -10.07 -35.08 -23.04 -49.09 -11.11 -33.11 -9.031 -49.09 23.97 -23.04 18.99 -29.06 1.968
0.885 -39.02 -2.084 -51.06 -15.05 -51.06 -21.07 -43.07 -17.02 -15.05 -1.042 -51.06 19.91 -25.01 5.905 -15.05 -1.042
0.89 -45.04 -8.105 -61.02 -23.04 -65.07 -31.03 -32.07 -25.01 0 -1.042 -48.05 14.94 -24.08 -7.063 0 -11.11
0.895 -49.09 -18.06 -65.07 -27.09 -75.02 -41.1 -24.08 -35.08 0.9262 -1.042 -41.1 7.989 -18.06 -19.1 0.9262 -22.11
0.9 -43.07 -21.07 -59.05 -25.01 -71.09 -51.06 -19.1 -47.01 0.9262 -11.11 -23.04 7.989 -9.031 -27.09 -1.042 -27.09
0.905 -25.01 -9.031 -35.08 -11.11 -56.04 -49.09 -12.04 -46.08 -6.021 -12.04 0.9262 15.98 2.894 -20.03 -3.01 -23.04
0.91 -3.01 5.905 -7.063 5.905 -28.02 -37.05 -10.07 -34.04 -12.04 -9.031 8.915 20.96 16.9 -6.021 -12.04 -13.08
0.915 11 23.97 15.98 23.97 0.9262 -19.1 -7.063 -11.11 -17.02 -1.042 13.89 25.93 22 1.968 -23.04 -3.01
0.92 14.94 37.98 25.93 31.96 16.9 -2.084 -7.063 6.947 -22.11 7.989 0.9262 33 15.98 16.9 -34.04 0.9262
0.925 8.915 37.98 19.91 33.92 24.89 15.98 -9.031 22.92 -27.09 12.97 -10.07 36.93 1.968 24.89 -48.05 6.947
0.93 -1.042 31.96 3.936 29.99 17.95 25.93 -11.11 23.97 -29.06 7.989 -25.01 33.92 -9.031 25.93 -55.11 5.905
0.935 -9.031 13.89 -11.11 22 2.894 25.93 -13.08 11 -25.01 0 -30.1 30.91 -21.07 19.91 -50.02 1.968
0.94 -19.1 0.9262 -23.04 11.93 -15.05 15.98 -11.11 -7.063 -13.08 -18.06 -29.06 15.98 -23.04 5.905 -30.1 -14.01
0.945 -31.03 -19.1 -29.06 -2.084 -37.05 0.9262 -7.063 -33.11 0.9262 -31.03 -23.04 0 -17.02 -9.031 -3.01 -33.11
0.95 -41.1 -35.08 -27.09 -13.08 -49.09 -23.04 -5.094 -53.03 5.905 -36.01 -19.1 -13.08 -9.031 -31.03 15.98 -49.09
0.955 -49.09 -45.04 -23.04 -25.01 -51.06 -45.04 -7.063 -65.07 1.968 -39.02 -21.07 -25.01 -3.01 -51.06 23.97 -57.08
0.96 -53.03 -49.09 -21.07 -35.08 -47.01 -59.05 -19.1 -69 -9.031 -41.1 -27.09 -31.03 -1.042 -63.1 13.89 -55.11
0.965 -51.06 -45.04 -25.01 -39.02 -41.1 -63.1 -39.02 -65.07 -33.11 -43.07 -29.06 -25.01 -3.01 -63.1 -1.042 -45.04
0.97 -47.01 -41.1 -35.08 -41.1 -41.1 -59.05 -57.08 -57.08 -49.09 -45.04 -31.03 -15.05 -7.063 -55.11 -21.07 -29.06
0.975 -45.04 -37.05 -51.06 -43.07 -43.07 -51.06 -67.04 -41.1 -49.09 -41.1 -27.09 -3.01 -9.031 -41.1 -29.06 -13.08
0.98 -47.01 -37.05 -65.07 -45.04 -45.04 -39.02 -57.08 -21.07 -31.03 -29.06 -21.07 0 -5.094 -23.04 -23.04 -3.01
0.985 -47.01 -37.05 -65.07 -39.02 -35.08 -23.04 -29.06 0 -7.063 -9.031 -11.11 5.905 3.936 -3.01 -9.031 3.936
0.99 -35.08 -29.06 -45.04 -19.1 -9.031 -3.01 5.905 22 7.989 5.905 0 9.957 22 9.957 3.936 13.89
0.995 -13.08 -13.08 -11.11 5.905 23.97 15.98 44 35.89 19.91 17.95 15.98 13.89 37.98 22 17.95 23.97
1 11 1.968 19.91 27.9 53.95 35.89 65.99 36.93 22 17.95 25.93 19.91 47.93 23.97 25.93 29.99
1.005 28.94 18.99 37.98 31.96 59.97 41.91 65.99 26.98 17.95 12.97 23.97 22 39.94 18.99 23.97 25.93
1.01 30.91 22 29.99 15.98 39.94 31.96 49.9 7.989 11.93 3.936 5.905 19.91 19.91 3.936 15.98 13.89
1.015 16.9 12.97 0.9262 -6.021 0.9262 11.93 24.89 0 5.905 -1.042 -10.07 16.9 -2.084 -4.052 4.979 0.9262
1.02 0.9262 -1.042 -26.05 -24.08 -30.1 1.968 1.968 -4.052 0.9262 1.968 -32.07 6.947 -24.08 -12.04 -2.084 -6.021
1.025 -7.063 -11.11 -45.04 -29.06 -47.01 -5.094 -19.1 -5.094 -3.01 -2.084 -41.1 0 -37.05 -11.11 -11.11 -7.063
1.03 -7.063 -16.09 -44.11 -20.03 -44.11 1.968 -32.07 0.9262 -8.105 1.968 -42.03 -2.084 -38.09 -4.052 -12.04 -1.042
1.035 -3.01 -15.05 -36.01 -14.01 -26.05 4.979 -40.06 -1.042 -10.07 1.968 -32.07 -8.105 -30.1 0.9262 -8.105 11
1.04 -5.094 -23.04 -31.03 -25.01 -11.11 5.905 -37.05 -7.063 -3.01 0.9262 -25.01 -15.05 -23.04 -7.063 0.9262 13.89
1.045 -11.11 -31.03 -29.06 -41.1 -1.042 0.9262 -23.04 -12.04 4.979 -2.084 -11.11 -19.1 -11.11 -15.05 9.957 7.989
1.05 -15.05 -36.01 -29.06 -57.08 -2.084 -3.01 -1.042 -10.07 19.91 -1.042 -2.084 -17.02 -2.084 -24.08 22 -2.084
1.055 -9.031 -37.05 -17.02 -57.08 11.93 -9.031 23.97 -3.01 27.9 1.968 13.89 -13.08 15.98 -27.09 35.89 -7.063
1.06 6.947 -25.01 6.947 -30.1 34.97 -1.042 50.94 8.915 31.96 1.968 33 0 34.97 -23.04 50.94 -14.01
1.065 33 -9.031 38.9 2.894 57.89 14.94 69.93 22 28.94 -1.042 44 6.947 51.98 -10.07 58.93 -19.1
1.07 46.89 5.905 57.89 31.96 71.9 35.89 61.94 25.93 15.98 -11.11 41.91 15.98 49.9 -5.094 57.89 -27.09
1.075 48.97 24.89 58.93 42.95 68.89 45.96 40.99 18.99 3.936 -21.07 27.9 20.96 35.89 -2.084 48.97 -23.04
1.08 36.93 35.89 39.94 31.96 48.97 40.99 12.97 0.9262 0 -29.06 8.915 15.98 15.98 -4.052 30.91 -15.05
1.085 18.99 37.98 5.905 9.957 17.95 22 -7.063 -11.11 -7.063 -31.03 -3.01 9.957 0.9262 -9.031 7.989 -3.01
1.09 6.947 28.94 -13.08 -2.084 -2.084 0.9262 -12.04 -22.11 -6.021 -26.05 -12.04 2.894 -7.063 -12.04 1.968 9.957
1.095 -1.042 11 -22.11 -12.04 -12.04 -6.021 -8.105 -23.04 -7.063 -21.07 -15.05 1.968 -11.11 -18.06 -5.094 13.89
1.1 -1.042 -9.031 -19.1 -9.031 -3.01 -5.094 1.968 -17.02 -6.021 -11.11 -21.07 -4.052 -14.01 -20.03 -3.01 11
1.105 -5.094 -30.1 -10.07 0 8.915 0.9262 11 -7.063 -7.063 -9.031 -25.01 -9.031 -23.04 -20.03 -3.01 -2.084
1.11 -9.031 -38.09 -3.01 0.9262 26.98 14.94 14.94 0.9262 -8.105 -4.052 -34.04 -16.09 -35.08 -20.03 -7.063 -3.01
1.115 -9.031 -31.03 -2.084 1.968 33.92 25.93 11.93 13.89 -7.063 -5.094 -45.04 -21.07 -47.01 -17.02 -19.1 -3.01
1.12 0.9262 -15.05 1.968 0.9262 28.94 24.89 8.915 24.89 -4.052 -3.01 -48.05 -25.01 -49.09 -10.07 -28.02 5.905
1.125 0.9262 1.968 -2.084 -6.021 11 19.91 4.979 24.89 0.9262 0.9262 -45.04 -22.11 -49.09 -8.105 -32.07 19.91
1.13 4.979 -2.084 -17.02 -17.02 -9.031 3.936 -2.084 15.98 -2.084 0 -45.04 -21.07 -43.07 -9.031 -31.03 23.97
1.135 0.9262 -7.063 -34.04 -22.11 -33.11 -2.084 -9.031 0 1.968 0 -39.02 -20.03 -37.05 -16.09 -24.08 19.91
1.14 -17.02 -23.04 -50.02 -26.05 -54.07 -15.05 -26.05 -20.03 -3.01 1.968 -36.01 -20.03 -42.03 -23.04 -18.06 4.979
1.145 -33.11 -41.1 -57.08 -29.06 -63.1 -25.01 -43.07 -41.1 -7.063 -3.01 -31.03 -23.04 -47.01 -29.06 -17.02 -5.094
1.15 -33.11 -48.05 -45.04 -25.01 -57.08 -25.01 -47.01 -48.05 -3.01 -4.052 -21.07 -17.02 -41.1 -26.05 -11.11 -5.094
1.155 -15.05 -49.09 -17.02 -21.07 -31.03 -22.11 -35.08 -42.03 0.9262 -1.042 -3.01 -9.031 -27.09 -21.07 -3.01 -2.084
1.16 6.947 -35.08 9.957 -19.1 -5.094 -13.08 -19.1 -23.04 7.989 -2.084 7.989 -3.01 -3.01 -11.11 0 7.989
1.165 24.89 -15.05 34.97 -10.07 14.94 -1.042 1.968 -3.01 12.97 5.905 20.96 1.968 16.9 -5.094 12.97 8.915
1.17 26.98 -2.084 38.9 -2.084 20.96 12.97 11 7.989 11 6.947 18.99 1.968 22.92 -6.021 14.94 1.968
1.175 16.9 1.968 25.93 1.968 11.93 19.91 7.989 13.89 1.968 1.968 5.905 0.9262 13.89 -5.094 5.905 -17.02
1.18 2.894 11 11 14.94 -4.052 22.92 0.9262 14.94 0 0.9262 -4.052 -1.042 1.968 -2.084 -4.052 -26.05
1.185 0.9262 18.99 6.947 33 -18.06 22 0 16.9 -3.01 2.894 -8.105 8.915 -12.04 4.979 -14.01 -24.08
1.19 14.94 23.97 17.95 47.93 -17.02 27.9 0.9262 15.98 -2.084 5.905 -1.042 19.91 -13.08 13.89 -13.08 -11.11
1.195 30.91 28.94 37.98 51.98 -3.01 35.89 7.989 20.96 7.989 16.9 11.93 29.99 0.9262 22.92 0 0
1.2 34.97 23.97 51.98 39.94 13.89 39.94 19.91 20.96 17.95 22 25.93 27.9 11.93 17.95 23.97 7.989
1.205 18.99 9.957 45.96 11.93 23.97 29.99 27.9 15.98 25.93 23.97 27.9 11.93 22 1.968 39.94 7.989
1.21 -3.01 -5.094 19.91 -17.02 17.95 7.989 27.9 11.93 27.9 19.91 15.98 -1.042 17.95 -9.031 44 0
1.215 -27.09 -23.04 -9.031 -41.1 -2.084 -17.02 22 5.905 27.9 13.89 0 -15.05 5.905 -21.07 35.89 -2.084
1.22 -41.1 -33.11 -39.02 -53.03 -23.04 -43.07 11.93 1.968 23.97 11.93 -13.08 -23.04 -5.094 -21.07 22 0
1.225 -43.07 -35.08 -61.02 -53.03 -47.01 -55.11 3.936 -2.084 17.95 11.93 -23.04 -23.04 -15.05 -17.02 11.93 5.905
1.23 -43.07 -35.08 -71.09 -53.03 -61.02 -51.06 -1.042 -1.042 11.93 15.98 -29.06 -21.07 -21.07 -15.05 5.905 11.93
1.235 -47.01 -41.1 -73.06 -59.05 -67.04 -39.02 -9.031 -3.01 9.957 17.95 -31.03 -21.07 -23.04 -15.05 5.905 13.89
1.24 -53.03 -53.03 -69 -73.06 -65.07 -31.03 -17.02 -5.094 11.93 13.89 -27.09 -23.04 -23.04 -19.1 5.905 9.957
1.245 -53.03 -59.05 -55.11 -83.01 -61.02 -33.11 -21.07 -5.094 13.89 5.905 -21.07 -23.04 -23.04 -23.04 3.936 3.936
1.25 -37.05 -47.01 -33.11 -75.02 -49.09 -43.07 -23.04 -7.063 13.89 0.9262 -11.11 -19.1 -21.07 -23.04 3.936 -3.01
1.255 -9.031 -19.1 -5.094 -51.06 -33.11 -49.09 -19.1 -9.031 11.93 -5.094 0.9262 -13.08 -13.08 -21.07 7.989 -13.08
1.26 14.94 5.905 17.95 -15.05 -10.07 -43.07 -11.11 -9.031 5.905 -4.052 11 -4.052 -1.042 -15.05 15.98 -20.03
1.265 26.98 22 37.98 13.89 2.894 -22.11 -3.01 -7.063 1.968 -1.042 20.96 0 7.989 -11.11 23.97 -22.11
1.27 20.96 13.89 39.94 31.96 15.98 1.968 1.968 0 0 9.957 22 -2.084 17.95 -5.094 27.9 -17.02
1.275 0.9262 0.9262 29.99 33.92 22.92 28.94 7.989 11 0.9262 14.94 20.96 0.9262 22 1.968 22.92 -10.07
1.28 -7.063 -15.05 15.98 26.98 18.99 42.95 11.93 18.99 -5.094 8.915 14.94 2.894 15.98 0.9262 4.979 -13.08
1.285 -7.063 -11.11 7.989 17.95 3.936 39.94 5.905 13.89 -17.02 -1.042 7.989 1.968 5.905 1.968 -11.11 -25.01
1.29 4.979 0 11.93 16.9 0.9262 28.94 -2.084 8.915 -24.08 -15.05 5.905 1.968 0.9262 2.894 -24.08 -41.1
1.295 22.92 17.95 27.9 18.99 0.9262 19.91 -1.042 0.9262 -28.02 -29.06 5.905 1.968 0.9262 2.894 -24.08 -45.04
1.3 34.97 23.97 51.98 27.9 17.95 17.95 0 1.968 -23.04 -29.06 15.98 1.968 13.89 7.989 -9.031 -33.11
1.305 33 18.99 73.98 42.95 52.91 31.96 19.91 12.97 -8.105 -18.06 30.91 6.947 30.91 17.95 11 -12.04
1.31 22.92 8.915 81.97 56.96 85.91 50.94 41.91 23.97 2.894 -9.031 41.91 8.915 44.92 23.97 33.92 0.9262
1.315 12.97 7.989 69.93 63.91 97.95 57.89 57.89 23.97 7.989 -9.031 33.92 7.989 45.96 22 39.94 0.9262
1.32 0.9262 16.9 37.98 59.97 85.91 51.98 57.89 18.99 7.989 -12.04 18.99 2.894 33.92 12.97 34.97 -11.11
1.325 -1.042 22.92 0 42.95 47.93 26.98 44 6.947 3.936 -14.01 1.968 -2.084 13.89 0 24.89 -23.04
1.33 -11.11 17.95 -25.01 11.93 7.989 0 25.93 0 0 -11.11 -13.08 -1.042 0.9262 -7.063 13.89 -19.1
1.335 -11.11 0.9262 -33.11 -13.08 -5.094 -11.11 13.89 4.979 3.936 -1.042 -8.105 -2.084 -2.084 -7.063 12.97 -4.052
1.34 -7.063 -18.06 -14.01 -30.1 -3.01 -8.105 9.957 13.89 9.957 11 0.9262 1.968 -1.042 0.9262 20.96 7.989
1.345 0.9262 -30.1 11 -25.01 6.947 0.9262 11.93 33 17.95 28.94 23.97 6.947 8.915 11 23.97 18.99
1.35 12.97 -24.08 33 -6.021 25.93 24.89 13.89 44 15.98 42.95 34.97 14.94 14.94 27.9 22.92 17.95
1.355 18.99 -4.052 31.96 13.89 31.96 44 9.957 46.89 9.957 49.9 26.98 22.92 6.947 39.94 11 8.915
1.36 11 7.989 7.989 19.91 19.91 53.95 1.968 39.94 1.968 47.93 3.936 22 0.9262 39.94 0.9262 3.936
1.365 -5.094 14.94 -21.07 11 3.936 50.94 -5.094 30.91 -3.01 40.99 -12.04 15.98 -13.08 35.89 -10.07 9.957
1.37 -33.11 2.894 -51.06 -15.05 -7.063 37.98 -19.1 16.9 -15.05 22.92 -30.1 0.9262 -19.1 16.9 -16.09 11.93
1.375 -53.03 -15.05 -67.04 -51.06 -23.04 9.957 -33.11 0 -31.03 0 -35.08 -9.031 -25.01 -3.01 -21.07 7.989
1.38 -53.03 -30.1 -61.02 -74.1 -27.09 -16.09 -49.09 -9.031 -46.08 -11.11 -25.01 -16.09 -20.03 -25.01 -23.04 -1.042
1.385 -37.05 -32.07 -49.09 -82.09 -36.01 -43.07 -63.1 -28.02 -58.01 -28.02 -16.09 -18.06 -22.11 -39.02 -32.07 -20.03
1.39 -15.05 -25.01 -41.1 -73.06 -45.04 -65.07 -79.08 -51.06 -67.04 -41.1 -7.063 -13.08 -29.06 -43.07 -41.1 -35.08
1.395 0.9262 -13.08 -39.02 -54.07 -53.03 -73.06 -83.01 -68.08 -66.11 -51.06 -5.094 -7.063 -34.04 -38.09 -44.11 -45.04
1.4 -1.042 -5.094 -45.04 -36.01 -55.11 -72.01 -79.08 -80 -60.09 -57.08 -3.01 -5.094 -36.01 -30.1 -38.09 -47.01
1.405 -5.094 -1.042 -45.04 -21.07 -51.06 -61.02 -59.05 -85.1 -49.09 -65.07 -5.094 -9.031 -31.03 -27.09 -25.01 -41.1
1.41 -15.05 1.968 -37.05 -6.021 -34.04 -40.06 -29.06 -74.1 -33.11 -66.11 -2.084 -10.07 -17.02 -20.03 -4.052 -35.08
1.415 -15.05 9.957 -19.1 -2.084 -12.04 -18.06 -1.042 -58.01 -19.1 -60.09 0 -12.04 -3.01 -16.09 4.979 -30.1
1.42 -9.031 15.98 -1.042 -2.084 3.936 -1.042 11.93 -37.05 -13.08 -49.09 -1.042 -11.11 0 -11.11 7.989 -27.09
1.425 -3.01 7.989 1.968 -5.094 16.9 4.979 17.95 -17.02 -13.08 -34.04 -4.052 -10.07 0 -11.11 -2.084 -24.08
1.43 -5.094 -15.05 -2.084 -23.04 22.92 5.905 11.93 -1.042 -17.02 -22.11 -8.105 -16.09 -1.042 -15.05 -11.11 -26.05
1.435 -19.1 -47.01 -9.031 -35.08 15.98 1.968 0 3.936 -21.07 -15.05 -15.05 -29.06 -11.11 -25.01 -21.07 -29.06
1.44 -35.08 -65.07 -17.02 -37.05 3.936 0.9262 -5.094 7.989 -21.07 -7.063 -19.1 -35.08 -15.05 -35.08 -17.02 -27.09
1.445 -41.1 -53.03 -19.1 -19.1 -1.042 -3.01 -9.031 9.957 -15.05 -1.042 -19.1 -27.09 -13.08 -31.03 -3.01 -21.07
1.45 -33.11 -11.11 -13.08 5.905 -7.063 0.9262 -7.063 11.93 -5.094 -2.084 -15.05 -7.063 -9.031 -13.08 7.989 -11.11
1.455 -11.11 33.92 -3.01 33.92 -9.031 5.905 -1.042 13.89 -2.084 -2.084 -9.031 11.93 -5.094 5.905 17.95 -3.01
1.46 4.979 65.99 -2.084 47.93 -5.094 15.98 -2.084 17.95 5.905 -2.084 -3.01 29.99 -1.042 25.93 19.91 0.9262
1.465 14.94 61.94 0 39.94 0.9262 23.97 0 22 11.93 -2.084 -2.084 29.99 -2.084 33.92 13.89 0
1.47 11 27.9 0 17.95 3.936 27.9 -2.084 23.97 13.89 3.936 5.905 15.98 1.968 25.93 5.905 3.936
1.475 0.9262 -9.031 0 -1.042 9.957 23.97 -1.042 17.95 7.989 11.93 7.989 -2.084 5.905 9.957 -2.084 9.957
1.48 -9.031 -39.02 0 -13.08 11.93 11.93 -11.11 5.905 -1.042 19.91 5.905 -7.063 7.989 -1.042 -5.094 17.95
1.485 -9.031 -39.02 -2.084 -11.11 3.936 0.9262 -23.04 -9.031 -19.1 23.97 -2.084 -5.094 1.968 -7.063 -19.1 23.97
1.49 0.9262 -13.08 0.9262 0.9262 -2.084 -17.02 -35.08 -27.09 -35.08 23.97 -5.094 3.936 -3.01 -5.094 -35.08 22
1.495 11 13.89 -2.084 9.957 -12.04 -27.09 -39.02 -35.08 -39.02 19.91 -9.031 15.98 -9.031 -2.084 -45.04 15.98
1.5 22.92 37.98 5.905 22 -15.05 -25.01 -33.11 -35.08 -31.03 17.95 -1.042 23.97 -7.063 3.936 -45.04 5.905
1.505 26.98 45.96 19.91 25.93 -4.052 -13.08 -19.1 -21.07 -17.02 11.93 3.936 19.91 0.9262 9.957 -31.03 0.9262
1.51 24.89 44.92 35.89 27.9 8.915 0 0.9262 -8.105 -5.094 4.979 15.98 13.89 9.957 7.989 -15.05 -10.07
1.515 24.89 35.89 45.96 29.99 29.99 15.98 11.93 0.9262 -3.01 -9.031 19.91 5.905 17.95 5.905 -1.042 -29.06
1.52 24.89 38.9 49.9 27.9 47.93 22 19.91 0 -9.031 -32.07 15.98 1.968 22 0.9262 0 -48.05
1.525 33 46.89 47.93 27.9 55.92 19.91 23.97 -2.084 -13.08 -52.1 7.989 0 19.91 0 0.9262 -64.03
1.53 38.9 51.98 39.94 22 53.95 15.98 23.97 -3.01 -9.031 -63.1 3.936 -2.084 13.89 -7.063 -7.063 -69
1.535 34.97 46.89 35.89 15.98 52.91 13.89 25.93 -1.042 0.9262 -56.04 1.968 -4.052 12.97 -10.07 -7.063 -62.06
1.54 20.96 22.92 27.9 9.957 44.92 13.89 28.94 5.905 5.905 -37.05 1.968 -14.01 12.97 -16.09 0 -46.08
1.545 -1.042 -1.042 19.91 5.905 39.94 15.98 27.9 9.957 11.93 -23.04 0 -23.04 9.957 -15.05 5.905 -29.06
1.55 -11.11 -25.01 13.89 9.957 31.96 15.98 26.98 11.93 12.97 -13.08 -3.01 -24.08 8.915 -7.063 14.94 -13.08
1.555 -21.07 -29.06 5.905 15.98 24.89 14.94 20.96 11 6.947 -10.07 -10.07 -18.06 2.894 1.968 14.94 -3.01
1.56 -17.02 -15.05 1.968 22 9.957 7.989 9.957 7.989 3.936 -11.11 -15.05 -5.094 0.9262 9.957 9.957 5.905
1.565 -3.01 6.947 -2.084 17.95 -1.042 6.947 2.894 11.93 6.947 -7.063 -12.04 1.968 -3.01 20.96 2.894 22
1.57 -3.01 19.91 -7.063 1.968 -19.1 2.894 -1.042 11 11 0 -12.04 0 -9.031 23.97 1.968 30.91
1.575 -7.063 13.89 -21.07 -21.07 -35.08 -3.01 -17.02 1.968 9.957 0 -19.1 -5.094 -15.05 11.93 -3.01 25.93
1.58 -19.1 -4.052 -37.05 -47.01 -43.07 -19.1 -33.11 -9.031 1.968 2.894 -29.06 -23.04 -18.06 -4.052 -3.01 9.957
1.585 -27.09 -38.09 -44.11 -62.06 -42.03 -39.02 -44.11 -28.02 0 0.9262 -32.07 -38.09 -17.02 -26.05 -9.031 -8.105
1.59 -29.06 -58.01 -42.03 -62.06 -32.07 -54.07 -46.08 -41.1 -5.094 0 -31.03 -44.11 -15.05 -41.1 -11.11 -20.03
1.595 -17.02 -58.01 -28.02 -44.11 -10.07 -61.02 -38.09 -40.06 -6.021 -1.042 -22.11 -42.03 -11.11 -44.11 -11.11 -20.03
1.6 -5.094 -42.03 -13.08 -23.04 1.968 -53.03 -21.07 -25.01 -5.094 2.894 -11.11 -33.11 -10.07 -40.06 -7.063 -11.11
1.605 -3.01 -23.04 -3.01 -3.01 7.989 -33.11 -11.11 -3.01 -3.01 3.936 -5.094 -27.09 -9.031 -29.06 -5.094 -7.063
1.61 -11.11 -13.08 -3.01 5.905 0 -12.04 -1.042 8.915 -8.105 2.894 -8.105 -27.09 -13.08 -21.07 -3.01 -12.04
1.615 -23.04 -16.09 -15.05 5.905 -9.031 1.968 -4.052 15.98 -16.09 0 -20.03 -35.08 -19.1 -22.11 -4.052 -27.09
1.62 -39.02 -29.06 -25.01 3.936 -21.07 3.936 -7.063 11.93 -21.07 0.9262 -33.11 -43.07 -27.09 -23.04 -9.031 -39.02
1.625 -43.07 -41.1 -25.01 0 -24.08 8.915 -2.084 12.97 -14.01 4.979 -34.04 -42.03 -22.11 -19.1 -6.021 -35.08
1.63 -35.08 -47.01 -21.07 -2.084 -13.08 7.989 4.979 17.95 1.968 17.95 -27.09 -36.01 -10.07 -15.05 -1.042 -17.02
1.635 -27.09 -49.09 -13.08 0 1.968 7.989 22 27.9 9.957 27.9 -13.08 -27.09 0 -13.08 9.957 -1.042
1.64 -19.1 -48.05 -5.094 3.936 16.9 1.968 34.97 37.98 19.91 35.89 -7.063 -20.03 8.915 -14.01 16.9 11
1.645 -19.1 -44.11 -1.042 5.905 16.9 0.9262 33.92 38.9 17.95 33 -9.031 -18.06 4.979 -14.01 11 14.94
1.65 -23.04 -41.1 -3.01 7.989 5.905 -5.094 25.93 33.92 9.957 29.99 -17.02 -21.07 -3.01 -13.08 1.968 13.89
1.655 -21.07 -28.02 -3.01 9.957 -1.042 -3.01 13.89 34.97 1.968 34.97 -23.04 -19.1 -15.05 -2.084 -5.094 18.99
1.66 -13.08 -10.07 -2.084 17.95 -9.031 3.936 1.968 42.95 1.968 48.97 -23.04 -9.031 -19.1 12.97 -7.063 30.91
1.665 -3.01 1.968 7.989 29.99 -7.063 27.9 3.936 57.89 9.957 65.99 -17.02 0 -11.11 35.89 -1.042 44
1.67 4.979 12.97 17.95 41.91 2.894 55.92 7.989 76.99 19.91 80.93 -5.094 11.93 0 47.93 5.905 56.96
1.675 12.97 7.989 25.93 53.95 14.94 69.93 13.89 81.97 22 77.92 0 19.91 11.93 47.93 13.89 55.92
1.68 12.97 -2.084 29.99 57.89 15.98 67.96 9.957 65.99 17.95 65.99 3.936 17.95 13.89 29.99 9.957 53.95
1.685 11 -5.094 27.9 53.95 8.915 41.91 -2.084 31.96 3.936 45.96 1.968 9.957 9.957 1.968 0 44
1.69 11 -3.01 25.93 41.91 -1.042 5.905 -11.11 -7.063 -3.01 29.99 1.968 1.968 3.936 -21.07 -5.094 29.99
1.695 12.97 1.968 23.97 29.99 -5.094 -25.01 -21.07 -41.1 -9.031 22 1.968 0.9262 1.968 -41.1 -11.11 13.89
1.7 16.9 9.957 23.97 19.91 0.9262 -45.04 -17.02 -57.08 -5.094 19.91 7.989 -1.042 7.989 -45.04 -7.063 -2.084
1.705 16.9 9.957 23.97 13.89 9.957 -43.07 -1.042 -45.04 -2.084 25.93 15.98 -2.084 19.91 -37.05 0 -7.063
1.71 14.94 0 25.93 13.89 25.93 -21.07 15.98 -17.02 9.957 31.96 22 5.905 29.99 -19.1 13.89 -9.031
1.715 12.97 -5.094 25.93 15.98 35.89 3.936 35.89 11.93 15.98 33.92 25.93 13.89 35.89 0.9262 23.97 -1.042
1.72 14.94 -7.063 27.9 19.91 37.98 27.9 45.96 37.98 15.98 29.99 23.97 19.91 35.89 13.89 27.9 7.989
1.725 18.99 -1.042 27.9 22 35.89 44 44 47.93 11.93 19.91 15.98 19.91 29.99 23.97 23.97 15.98
1.73 20.96 1.968 23.97 22 31.96 44 31.96 41.91 3.936 9.957 7.989 13.89 19.91 23.97 15.98 15.98
1.735 14.94 5.905 15.98 17.95 27.9 35.89 17.95 27.9 -2.084 1.968 0 3.936 9.957 15.98 3.936 7.989
1.74 4.979 1.968 3.936 11.93 25.93 19.91 9.957 13.89 0.9262 -2.084 0.9262 -1.042 3.936 3.936 0.9262 0
1.745 -3.01 -1.042 -1.042 3.936 19.91 1.968 9.957 1.968 0 0.9262 0.9262 -7.063 1.968 -7.063 -1.042 0.9262
1.75 -9.031 -13.08 -11.11 -1.042 14.94 -11.11 13.89 -1.042 1.968 -3.01 0 -9.031 7.989 -19.1 -2.084 0
1.755 -9.031 -19.1 -15.05 -9.031 2.894 -24.08 15.98 -7.063 3.936 -7.063 5.905 -6.021 15.98 -25.01 3.936 7.989
1.76 -3.01 -25.01 -17.02 -15.05 -3.01 -27.09 11.93 -3.01 3.936 -9.031 7.989 -1.042 22 -21.07 7.989 13.89
1.765 -5.094 -25.01 -15.05 -15.05 -8.105 -14.01 1.968 0 1.968 -7.063 3.936 0.9262 17.95 -9.031 5.905 14.94
1.77 -9.031 -21.07 -14.01 -14.01 -14.01 0 -8.105 13.89 0.9262 -1.042 0.9262 6.947 11.93 0 3.936 12.97
1.775 -17.02 -9.031 -11.11 -5.094 -17.02 7.989 -23.04 23.97 -3.01 3.936 -7.063 7.989 -2.084 7.989 0.9262 9.957
1.78 -15.05 1.968 -8.105 -1.042 -22.11 8.915 -32.07 19.91 -6.021 2.894 -13.08 8.915 -4.052 7.989 -2.084 11
1.785 -7.063 15.98 -2.084 11 -27.09 0 -38.09 -1.042 -10.07 -2.084 -7.063 6.947 -6.021 -2.084 -6.021 11
1.79 4.979 17.95 -1.042 17.95 -29.06 -25.01 -37.05 -29.06 -9.031 -17.02 0 3.936 -2.084 -11.11 -9.031 3.936
1.795 18.99 6.947 -2.084 16.9 -25.01 -47.01 -28.02 -58.01 -6.021 -26.05 11.93 -2.084 11 -23.04 -6.021 1.968
1.8 20.96 -8.105 -6.021 12.97 -18.06 -59.05 -16.09 -76.07 0 -26.05 17.95 0 18.99 -29.06 0 -11.11
1.805 8.915 -25.01 -9.031 5.905 -9.031 -59.05 -1.042 -71.09 -2.084 -19.1 11.93 -3.01 19.91 -29.06 1.968 -17.02
1.81 -7.063 -26.05 -11.11 0 -3.01 -47.01 7.989 -48.05 1.968 -11.11 -2.084 -1.042 15.98 -25.01 7.989 -14.01
1.815 -25.01 -14.01 -8.105 -1.042 -2.084 -36.01 12.97 -19.1 0 -6.021 -13.08 1.968 5.905 -15.05 3.936 -9.031
1.82 -31.03 -2.084 -5.094 0 -11.11 -27.09 9.957 -2.084 -2.084 -7.063 -15.05 0 3.936 -9.031 1.968 -5.094
1.825 -17.02 11 0.9262 5.905 -16.09 -15.05 7.989 15.98 0.9262 -3.01 -4.052 0 4.979 1.968 2.894 -3.01
1.83 2.894 11.93 1.968 6.947 -18.06 -5.094 4.979 23.97 7.989 -1.042 11 -2.084 13.89 5.905 11.93 -5.094
1.835 16.9 0.9262 1.968 7.989 -12.04 1.968 5.905 22.92 20.96 -2.084 33.92 -2.084 25.93 11.93 25.93 -7.063
1.84 30.91 -3.01 9.957 16.9 0 1.968 11 23.97 33.92 7.989 46.89 -7.063 35.89 11.93 39.94 -9.031
1.845 36.93 0 22 33.92 12.97 3.936 25.93 25.93 48.97 19.91 52.91 -5.094 42.95 12.97 48.97 -7.063
1.85 40.99 9.957 31.96 51.98 27.9 5.905 35.89 27.9 59.97 29.99 47.93 -2.084 44 11.93 51.98 -2.084
1.855 50.94 33 42.95 70.97 38.9 12.97 48.97 35.89 67.96 40.99 41.91 14.94 44 19.91 49.9 9.957
1.86 55 46.89 39.94 75.95 41.91 19.91 55.92 40.99 69.93 49.9 37.98 31.96 45.96 27.9 44 24.89
1.865 50.94 45.96 29.99 65.99 35.89 22 55.92 44 61.94 55.92 31.96 35.89 41.91 35.89 33.92 37.98
1.87 36.93 28.94 16.9 48.97 26.98 23.97 42.95 44.92 46.89 50.94 23.97 30.91 34.97 35.89 26.98 44
1.875 12.97 8.915 2.894 26.98 7.989 22 18.99 34.97 22.92 34.97 15.98 17.95 24.89 27.9 8.915 41.91
1.88 -1.042 -2.084 -3.01 9.957 -1.042 17.95 -7.063 15.98 -2.084 15.98 7.989 3.936 13.89 15.98 -7.063 23.97
1.885 -5.094 1.968 -4.052 0.9262 -11.11 11 -30.1 0 -16.09 -1.042 7.989 0 6.947 1.968 -22.11 4.979
1.89 0.9262 15.98 -2.084 -2.084 -12.04 4.979 -40.06 -29.06 -28.02 -8.105 11.93 -4.052 6.947 -5.094 -28.02 -8.105
1.895 18.99 25.93 -1.042 -9.031 -7.063 -5.094 -31.03 -49.09 -31.03 -19.1 22 -3.01 11.93 -13.08 -21.07 -17.02
1.9 26.98 27.9 -4.052 -16.09 1.968 -18.06 -14.01 -59.05 -31.03 -26.05 25.93 0 19.91 -19.1 -9.031 -20.03
1.905 22.92 13.89 -9.031 -21.07 0.9262 -28.02 -2.084 -61.02 -29.06 -37.05 23.97 -1.042 19.91 -25.01 -5.094 -20.03
1.91 6.947 1.968 -9.031 -19.1 0 -35.08 5.905 -53.03 -29.06 -45.04 15.98 0 11.93 -25.01 -11.11 -21.07
1.915 -5.094 -1.042 -5.094 -5.094 1.968 -30.1 5.905 -41.1 -31.03 -51.06 1.968 2.894 0 -19.1 -27.09 -23.04
1.92 -3.01 3.936 -2.084 3.936 -2.084 -21.07 1.968 -21.07 -29.06 -47.01 -3.01 1.968 -5.094 -11.11 -41.1 -21.07
1.925 0.9262 13.89 3.936 11.93 -7.063 -9.031 0 -1.042 -23.04 -35.08 -11.11 1.968 -9.031 -1.042 -45.04 -13.08
1.93 6.947 17.95 0 7.989 -9.031 -3.01 1.968 7.989 -15.05 -19.1 -11.11 -2.084 -7.063 -2.084 -37.05 -3.01
1.935 2.894 5.905 -9.031 -1.042 -17.02 -3.01 1.968 17.95 -7.063 -7.063 -11.11 -1.042 -3.01 -3.01 -25.01 -2.084
1.94 -7.063 -7.063 -29.06 -15.05 -29.06 -9.031 0 17.95 -7.063 -1.042 -9.031 -7.063 -1.042 -13.08 -21.07 -1.042
1.945 -21.07 -19.1 -41.1 -21.07 -39.02 -17.02 -3.01 9.957 -11.11 -3.01 -7.063 -5.094 -1.042 -21.07 -23.04 -7.063
1.95 -19.1 -11.11 -35.08 -11.11 -41.1 -17.02 -9.031 -2.084 -19.1 -9.031 0.9262 -2.084 -1.042 -21.07 -27.09 -9.031
1.955 -1.042 7.989 -13.08 1.968 -35.08 -13.08 -9.031 -9.031 -21.07 -13.08 7.989 9.957 0 -13.08 -27.09 -5.094
1.96 26.98 31.96 5.905 17.95 -19.1 -5.094 -1.042 -13.08 -19.1 -15.05 22 19.91 11.93 0.9262 -17.02 -1.042
1.965 42.95 44 17.95 23.97 -5.094 -2.084 1.968 -13.08 -11.11 -9.031 29.99 22 23.97 7.989 -3.01 -1.042
1.97 38.9 33.92 13.89 15.98 0 1.968 5.905 -5.094 -3.01 -1.042 29.99 17.95 27.9 9.957 0 -7.063
1.975 18.99 11.93 0.9262 5.905 1.968 1.968 -2.084 0 0.9262 0 17.95 9.957 22 7.989 -1.042 -15.05
1.98 0.9262 0 -11.11 1.968 -2.084 1.968 -13.08 3.936 -3.01 0 3.936 5.905 7.989 1.968 -17.02 -19.1
1.985 -1.042 4.979 -11.11 11.93 -3.01 0 -29.06 0 -11.11 -1.042 -1.042 7.989 -1.042 1.968 -35.08 -17.02
1.99 2.894 22 0 29.99 -9.031 0.9262 -39.02 -13.08 -17.02 -11.11 -1.042 11.93 -9.031 1.968 -43.07 -13.08
1.995 16.9 40.99 16.9 44.92 -12.04 -5.094 -42.03 -38.09 -23.04 -20.03 0.9262 14.94 -10.07 2.894 -40.06 -14.01
2 20.96 42.95 22.92 46.89 -14.01 -13.08 -42.03 -64.03 -27.09 -26.05 6.947 11 -8.105 1.968 -30.1 -20.03
2.005 8.915 23.97 9.957 31.96 -21.07 -21.07 -39.02 -81.05 -33.11 -31.03 3.936 3.936 -9.031 -11.11 -23.04 -27.09
2.01 -5.094 0 -8.105 8.915 -24.08 -29.06 -32.07 -74.1 -36.01 -32.07 0 1.968 -10.07 -18.06 -20.03 -28.02
2.015 -27.09 -25.01 -30.1 -10.07 -28.02 -25.01 -26.05 -52.1 -38.09 -28.02 -14.01 -2.084 -12.04 -22.11 -22.11 -24.08
2.02 -41.1 -41.1 -43.07 -27.09 -27.09 -15.05 -15.05 -19.1 -35.08 -27.09 -23.04 -3.01 -13.08 -19.1 -27.09 -17.02
2.025 -39.02 -41.1 -43.07 -28.02 -21.07 0.9262 1.968 9.957 -24.08 -23.04 -27.09 0.9262 -9.031 -11.11 -29.06 -9.031
2.03 -33.11 -30.1 -33.11 -17.02 -13.08 22.92 13.89 33.92 -8.105 -21.07 -29.06 -1.042 -7.063 -5.094 -23.04 -13.08
2.035 -23.04 -19.1 -27.09 -3.01 -1.042 37.98 25.93 45.96 0 -19.1 -27.09 -5.094 -5.094 -3.01 -17.02 -21.07
2.04 -11.11 -7.063 -12.04 5.905 2.894 40.99 30.91 44.92 11.93 -16.09 -20.03 -6.021 -4.052 -6.021 -10.07 -26.05
2.045 -1.042 -1.042 1.968 12.97 11.93 30.91 29.99 29.99 15.98 -11.11 -13.08 -4.052 0 -19.1 -5.094 -23.04
2.05 6.947 1.968 11.93 9.957 19.91 13.89 25.93 9.957 19.91 -13.08 -3.01 -1.042 1.968 -31.03 0.9262 -15.05
2.055 16.9 6.947 26.98 3.936 23.97 1.968 23.97 -5.094 26.98 -9.031 0 1.968 11 -38.09 0 -3.01
2.06 24.89 5.905 27.9 -2.084 22 -13.08 16.9 -19.1 22 -8.105 1.968 0 14.94 -38.09 3.936 -1.042
2.065 22.92 3.936 9.957 -13.08 9.957 -19.1 7.989 -23.04 15.98 -5.094 -3.01 0 9.957 -29.06 -1.042 0
2.07 8.915 1.968 -7.063 -20.03 -2.084 -13.08 1.968 -13.08 4.979 -2.084 -19.1 -1.042 -2.084 -15.05 -15.05 3.936
2.075 -1.042 -8.105 -28.02 -20.03 -15.05 -1.042 -8.105 -1.042 -5.094 0.9262 -30.1 -2.084 -11.11 1.968 -26.05 11
2.08 -13.08 -18.06 -35.08 -11.11 -16.09 16.9 -10.07 11.93 -13.08 0.9262 -33.11 0 -17.02 11 -33.11 19.91
2.085 -13.08 -16.09 -24.08 -1.042 0.9262 34.97 -4.052 18.99 -11.11 0 -20.03 1.968 -11.11 16.9 -26.05 28.94
2.09 2.894 -6.021 -1.042 18.99 22.92 48.97 2.894 11.93 -6.021 -1.042 -5.094 8.915 -2.084 13.89 -15.05 29.99
2.095 18.99 7.989 22 35.89 45.96 51.98 11.93 -2.084 -1.042 -2.084 5.905 11.93 9.957 9.957 -5.094 15.98
2.1 36.93 25.93 37.98 42.95 49.9 41.91 11 -13.08 -3.01 -2.084 13.89 13.89 16.9 0.9262 -3.01 1.968
2.105 44.92 34.97 33 35.89 27.9 25.93 1.968 -29.06 -8.105 -7.063 7.989 12.97 8.915 -6.021 -11.11 -15.05
2.11 36.93 27.9 15.98 15.98 -3.01 5.905 -19.1 -29.06 -11.11 -11.11 1.968 7.989 -2.084 -15.05 -17.02 -23.04
2.115 20.96 7.989 -1.042 0 -37.05 1.968 -29.06 -17.02 -9.031 -7.063 0 6.947 -4.052 -19.1 -17.02 -15.05
2.12 4.979 -1.042 -8.105 -17.02 -46.08 0 -28.02 0.9262 1.968 0 2.894 6.947 -4.052 -24.08 -4.052 1.968
2.125 -1.042 -11.11 -9.031 -19.1 -31.03 5.905 -11.11 25.93 7.989 3.936 5.905 5.905 0 -23.04 5.905 13.89
2.13 2.894 -8.105 1.968 -7.063 -2.084 18.99 7.989 47.93 16.9 13.89 7.989 7.989 13.89 -21.07 13.89 19.91
2.135 8.915 -2.084 7.989 0 27.9 22.92 31.96 55.92 16.9 22 5.905 5.905 23.97 -15.05 11.93 17.95
2.14 18.99 9.957 15.98 0.9262 45.96 19.91 41.91 53.95 15.98 25.93 3.936 1.968 23.97 -11.11 3.936 7.989
2.145 24.89 19.91 20.96 1.968 47.93 13.89 46.89 44.92 16.9 24.89 4.979 4.979 22.92 -4.052 1.968 4.979
2.15 26.98 18.99 22.92 0 36.93 5.905 42.95 30.91 20.96 18.99 8.915 8.915 14.94 0 1.968 2.894
2.155 30.91 11.93 22 -1.042 29.99 7.989 37.98 15.98 22 5.905 11.93 9.957 11.93 0.9262 5.905 3.936
2.16 30.91 4.979 24.89 0 24.89 5.905 33 6.947 23.97 -2.084 12.97 6.947 11 0 16.9 6.947
2.165 28.94 0 20.96 1.968 22.92 7.989 22.92 -1.042 23.97 -6.021 6.947 2.894 8.915 -8.105 24.89 8.915
2.17 14.94 -13.08 11.93 0.9262 19.91 3.936 13.89 0.9262 22 -7.063 -1.042 -1.042 3.936 -17.02 23.97 7.989
2.175 -1.042 -20.03 -2.084 -3.01 11.93 0 5.905 0 19.91 0.9262 -13.08 -3.01 0.9262 -19.1 15.98 13.89
2.18 -11.11 -23.04 -13.08 -7.063 1.968 0.9262 0 7.989 17.95 3.936 -25.01 -1.042 -9.031 -17.02 5.905 22
2.185 -19.1 -19.1 -27.09 -11.11 -3.01 -1.042 0.9262 13.89 13.89 3.936 -31.03 0 -17.02 -11.11 -2.084 27.9
2.19 -15.05 -5.094 -31.03 -13.08 -7.063 0.9262 -1.042 11.93 7.989 -2.084 -33.11 9.957 -21.07 -5.094 -3.01 27.9
2.195 -3.01 7.989 -25.01 -9.031 -5.094 -2.084 -3.01 3.936 1.968 -7.063 -29.06 15.98 -21.07 -3.01 -5.094 23.97
2.2 11 23.97 -9.031 -3.01 0.9262 1.968 -3.01 -1.042 -2.084 -9.031 -23.04 17.95 -19.1 -5.094 -5.094 13.89
2.205 22.92 31.96 3.936 0 3.936 3.936 -1.042 -9.031 0.9262 -5.094 -13.08 17.95 -15.05 -9.031 -7.063 5.905
2.21 30.91 25.93 17.95 1.968 11.93 5.905 -2.084 -11.11 0 -2.084 -7.063 15.98 -13.08 -17.02 -9.031 1.968
2.215 26.98 11.93 19.91 -2.084 13.89 3.936 0 -7.063 3.936 5.905 -7.063 9.957 -17.02 -25.01 -9.031 -2.084
2.22 14.94 -3.01 11.93 -11.11 9.957 0.9262 1.968 -1.042 3.936 3.936 -15.05 3.936 -21.07 -37.05 -9.031 -1.042
2.225 -1.042 -19.1 -1.042 -31.03 3.936 -9.031 -2.084 -2.084 -2.084 0.9262 -27.09 -1.042 -27.09 -47.01 -9.031 -5.094
2.23 -13.08 -25.01 -17.02 -49.09 -2.084 -21.07 -1.042 -2.084 -5.094 -7.063 -35.08 -7.063 -29.06 -51.06 -7.063 -9.031
2.235 -21.07 -23.04 -25.01 -55.11 0.9262 -25.01 -5.094 -2.084 -7.063 -11.11 -37.05 -7.063 -23.04 -47.01 0.9262 -7.063
2.24 -19.1 -15.05 -23.04 -49.09 -1.042 -19.1 -3.01 1.968 -5.094 -4.052 -29.06 0 -13.08 -35.08 5.905 0.9262
2.245 -11.11 -7.063 -13.08 -35.08 0.9262 -9.031 0.9262 5.905 1.968 2.894 -14.01 0.9262 -1.042 -19.1 17.95 16.9
2.25 0.9262 0.9262 -5.094 -27.09 0.9262 0.9262 3.936 11.93 11.93 17.95 -5.094 5.905 1.968 -3.01 23.97 31.96
2.255 0.9262 1.968 -1.042 -27.09 -4.052 4.979 1.968 13.89 17.95 30.91 1.968 11 0 0.9262 19.91 40.99
2.26 0.9262 3.936 -2.084 -27.09 -8.105 2.894 -2.084 13.89 15.98 36.93 -1.042 11 0.9262 8.915 11.93 40.99
2.265 0.9262 7.989 1.968 -27.09 -9.031 0 -5.094 11.93 9.957 35.89 -2.084 9.957 -7.063 7.989 1.968 33.92
2.27 2.894 9.957 5.905 -21.07 -2.084 -1.042 -5.094 12.97 3.936 29.99 0.9262 9.957 -7.063 11 0.9262 27.9
2.275 8.915 9.957 11.93 -9.031 0.9262 2.894 -3.01 14.94 1.968 25.93 0.9262 11.93 -5.094 8.915 -2.084 23.97
2.28 12.97 1.968 9.957 -1.042 7.989 7.989 0 15.98 7.989 23.97 0 11.93 -1.042 5.905 5.905 23.97
2.285 12.97 1.968 0.9262 -1.042 7.989 8.915 9.957 20.96 18.99 26.98 -2.084 18.99 0 3.936 9.957 26.98
2.29 6.947 1.968 -8.105 -4.052 -2.084 5.905 14.94 16.9 24.89 30.91 -5.094 25.93 -4.052 0 7.989 30.91
2.295 0.9262 3.936 -21.07 -13.08 -7.063 -3.01 9.957 5.905 22 31.96 -9.031 27.9 -9.031 -2.084 3.936 35.89
2.3 2.894 18.99 -20.03 -14.01 -16.09 -10.07 2.894 0 14.94 28.94 -5.094 33 -8.105 4.979 -1.042 42.95
2.305 -1.042 31.96 -8.105 -8.105 -15.05 -14.01 1.968 -3.01 4.979 23.97 0 36.93 -1.042 9.957 1.968 47.93
2.31 6.947 31.96 5.905 -2.084 -3.01 -5.094 -1.042 -2.084 0.9262 19.91 1.968 31.96 1.968 17.95 -2.084 49.9
2.315 18.99 30.91 27.9 13.89 11 6.947 0 9.957 1.968 22.92 11.93 27.9 12.97 22 1.968 47.93
2.32 26.98 22 40.99 25.93 24.89 19.91 5.905 28.94 -1.042 24.89 17.95 22.92 16.9 26.98 1.968 40.99
2.325 33 17.95 44 38.9 33 33 12.97 42.95 3.936 24.89 19.91 22.92 17.95 26.98 0.9262 29.99
2.33 30.91 15.98 38.9 44 28.94 33.92 15.98 50.94 11 24.89 19.91 22.92 12.97 28.94 -1.042 24.89
2.335 26.98 18.99 29.99 49.9 20.96 36.93 15.98 49.9 12.97 20.96 19.91 23.97 8.915 29.99 -1.042 22
2.34 22.92 25.93 27.9 57.89 13.89 37.98 13.89 47.93 11.93 13.89 11.93 25.93 5.905 27.9 -1.042 22
2.345 22.92 33.92 34.97 64.95 13.89 38.9 14.94 44 12.97 9.957 11 24.89 7.989 29.99 0.9262 25.93
2.35 28.94 36.93 42.95 68.89 22.92 42.95 16.9 39.94 11 8.915 9.957 20.96 8.915 26.98 6.947 24.89
2.355 33 39.94 49.9 61.94 27.9 41.91 13.89 31.96 9.957 5.905 5.905 15.98 5.905 23.97 11.93 19.91
2.36 33 38.9 50.94 48.97 31.96 39.94 12.97 28.94 8.915 8.915 3.936 17.95 6.947 19.91 11.93 20.96
2.365 26.98 34.97 40.99 29.99 27.9 28.94 9.957 24.89 6.947 11 3.936 16.9 4.979 15.98 9.957 18.99
2.37 16.9 23.97 23.97 13.89 13.89 17.95 7.989 22 5.905 17.95 1.968 19.91 5.905 7.989 11.93 19.91
2.375 6.947 15.98 13.89 3.936 2.894 6.947 11.93 18.99 9.957 23.97 4.979 19.91 11.93 4.979 15.98 23.97
2.38 4.979 11.93 13.89 5.905 -1.042 0.9262 17.95 16.9 15.98 27.9 8.915 23.97 17.95 0.9262 19.91 23.97
2.385 8.915 9.957 23.97 11.93 -2.084 0.9262 19.91 11.93 22 29.99 13.89 23.97 25.93 1.968 29.99 25.93
2.39 18.99 13.89 33.92 17.95 4.979 1.968 23.97 11.93 27.9 30.91 20.96 24.89 31.96 8.915 39.94 30.91
2.395 22.92 17.95 41.91 13.89 11 0.9262 25.93 11.93 31.96 34.97 20.96 22.92 35.89 12.97 45.96 38.9
2.4 18.99 23.97 41.91 0 15.98 7.989 29.99 17.95 33.92 45.96 17.95 15.98 35.89 15.98 47.93 41.91
2.405 8.915 25.93 35.89 -13.08 19.91 13.89 37.98 29.99 35.89 62.98 14.94 12.97 33.92 19.91 49.9 42.95
2.41 -1.042 19.91 27.9 -25.01 19.91 17.95 47.93 45.96 35.89 78.96 9.957 12.97 31.96 22 47.93 40.99
2.415 0.9262 11.93 23.97 -25.01 19.91 17.95 55.92 59.97 37.98 87.99 9.957 13.89 29.99 23.97 44 39.94
2.42 0.9262 7.989 23.97 -13.08 13.89 13.89 55.92 63.91 37.98 89.96 11.93 19.91 25.93 27.9 35.89 39.94
2.425 12.97 9.957 27.9 1.968 11.93 9.957 49.9 59.97 35.89 79.89 13.89 29.99 22 31.96 29.99 45.96
2.43 22.92 17.95 33.92 22 7.989 5.905 37.98 45.96 29.99 63.91 13.89 37.98 19.91 33.92 22 47.93
2.435 28.94 27.9 39.94 37.98 5.905 7.989 23.97 29.99 23.97 47.93 11.93 39.94 17.95 33.92 11.93 44
2.44 26.98 35.89 44 44 0 9.957 9.957 17.95 17.95 33.92 5.905 37.98 11.93 29.99 1.968 31.96
2.445 22.92 37.98 39.94 39.94 -1.042 13.89 0.9262 11.93 11.93 25.93 1.968 27.9 5.905 23.97 -1.042 15.98
2.45 14.94 31.96 31.96 31.96 -9.031 13.89 -9.031 7.989 11.93 19.91 0 19.91 0 17.95 -3.01 3.936
2.455 6.947 23.97 19.91 19.91 -15.05 11.93 -11.11 7.989 17.95 15.98 1.968 11.93 -2.084 15.98 0.9262 0
2.46 0.9262 19.91 9.957 13.89 -15.05 7.989 -5.094 7.989 25.93 11.93 7.989 11.93 3.936 17.95 9.957 5.905
2.465 -1.042 19.91 9.957 13.89 -9.031 3.936 5.905 5.905 31.96 7.989 15.98 15.98 15.98 22 25.93 17.95
2.47 0.9262 25.93 17.95 17.95 -1.042 1.968 22 3.936 35.89 5.905 22 22 25.93 23.97 35.89 25.93
2.475 4.979 31.96 25.93 27.9 0.9262 3.936 31.96 4.979 33.92 3.936 22 23.97 31.96 19.91 37.98 25.93
2.48 11 31.96 29.99 35.89 3.936 9.957 31.96 1.968 29.99 3.936 17.95 19.91 27.9 13.89 33.92 13.89
2.485 14.94 28.94 27.9 37.98 -1.042 11.93 26.98 0.9262 27.9 2.894 14.94 11 20.96 4.979 26.98 0.9262
2.49 14.94 20.96 22 33.92 1.968 9.957 20.96 0.9262 27.9 4.979 12.97 -1.042 12.97 1.968 22.92 -4.052
2.495 16.9 17.95 22 27.9 0 0 17.95 0 27.9 7.989 15.98 -7.063 11.93 -1.042 22 -3.01
2.5 16.9 18.99 24.89 24.89 6.947 -6.021 22.92 -1.042 23.97 12.97 20.96 -6.021 18.99 1.968 26.98 -1.042
2.505 16.9 22.92 26.98 22.92 9.957 -18.06 24.89 1.968 13.89 12.97 18.99 -6.021 20.96 2.894 26.98 6.947
2.51 12.97 22 23.97 22 -2.084 -21.07 17.95 -7.063 -2.084 7.989 9.957 -5.094 13.89 3.936 17.95 7.989
2.515 4.979 19.91 8.915 22.92 -13.08 -18.06 0 -13.08 -14.01 1.968 1.968 -3.01 0 3.936 5.905 0
2.52 -1.042 7.989 0 18.99 -30.1 -10.07 -21.07 -18.06 -26.05 0.9262 -9.031 -9.031 -9.031 0 -3.01 -7.063
2.525 -7.063 1.968 -9.031 11.93 -39.02 -5.094 -41.1 -21.07 -29.06 0.9262 -17.02 -11.11 -21.07 -2.084 -15.05 -17.02
2.53 -1.042 4.979 1.968 7.989 -33.11 -1.042 -48.05 -17.02 -28.02 2.894 -12.04 -10.07 -16.09 -1.042 -14.01 -10.07
2.535 0.9262 11.93 15.98 3.936 -21.07 -5.094 -44.11 -18.06 -24.08 9.957 -2.084 -10.07 -10.07 0 -12.04 0
2.54 4.979 11.93 25.93 0 -9.031 -13.08 -35.08 -19.1 -25.01 7.989 -2.084 -9.031 -3.01 -1.042 -9.031 1.968
2.545 0.9262 0.9262 18.99 -2.084 -8.105 -18.06 -26.05 -18.06 -23.04 7.989 0 -10.07 -4.052 -9.031 -10.07 1.968
2.55 -23.04 -18.06 1.968 -13.08 -16.09 -23.04 -16.09 -16.09 -24.08 -1.042 -7.063 -18.06 -15.05 -18.06 -13.08 -17.02
2.555 -43.07 -43.07 -25.01 -27.09 -25.01 -23.04 -11.11 -15.05 -19.1 -3.01 -15.05 -23.04 -19.1 -25.01 -13.08 -41.1
2.56 -43.07 -51.06 -29.06 -30.1 -21.07 -17.02 0 -4.052 -8.105 -4.052 -8.105 -19.1 -12.04 -18.06 -1.042 -50.02
2.565 -23.04 -34.04 -9.031 -20.03 -7.063 -8.105 9.957 1.968 1.968 0.9262 3.936 -9.031 3.936 -2.084 13.89 -40.06
2.57 4.979 -6.021 16.9 -1.042 9.957 0 23.97 9.957 4.979 4.979 22.92 1.968 31.96 7.989 37.98 -16.09
2.575 28.94 18.99 39.94 11 23.97 11 23.97 11.93 6.947 3.936 33.92 3.936 41.91 14.94 44 1.968
2.58 24.89 25.93 37.98 16.9 22 13.89 19.91 6.947 2.894 2.894 24.89 1.968 34.97 12.97 39.94 2.894
2.585 4.979 13.89 5.905 1.968 -2.084 9.957 3.936 0 0.9262 -5.094 1.968 -3.01 11.93 3.936 23.97 0.9262
2.59 -17.02 0 -23.04 -9.031 -28.02 0.9262 0 -2.084 0 -12.04 -17.02 -10.07 -9.031 -2.084 7.989 -9.031
2.595 -23.04 -12.04 -46.08 -26.05 -56.04 -18.06 -4.052 -10.07 1.968 -17.02 -26.05 -12.04 -22.11 -7.063 0.9262 -12.04
2.6 -13.08 -13.08 -41.1 -27.09 -71.09 -37.05 -5.094 -15.05 -2.084 -15.05 -23.04 -11.11 -19.1 -5.094 3.936 -3.01
2.605 2.894 0.9262 -13.08 -11.11 -69 -41.1 -6.021 -16.09 0 -7.063 -8.105 -6.021 -8.105 1.968 11 2.894
2.61 11 2.894 9.957 1.968 -53.03 -29.06 -10.07 -15.05 -8.105 0 -1.042 -4.052 0 2.894 14.94 6.947
2.615 -1.042 -2.084 19.91 11.93 -35.08 -13.08 -21.07 -15.05 -21.07 0.9262 -2.084 -9.031 -3.01 0 5.905 -1.042
2.62 -17.02 -5.094 16.9 12.97 -20.03 -1.042 -29.06 -12.04 -26.05 -1.042 -3.01 -11.11 -11.11 0.9262 -1.042 -15.05
2.625 -33.11 -9.031 2.894 2.894 -15.05 0.9262 -31.03 -11.11 -24.08 -1.042 -11.11 -11.11 -17.02 -1.042 -11.11 -25.01
2.63 -27.09 -7.063 -3.01 -5.094 -19.1 -5.094 -27.09 -9.031 -15.05 -1.042 -15.05 -9.031 -17.02 -3.01 -11.11 -21.07
2.635 -3.01 1.968 0 -10.07 -25.01 -16.09 -16.09 -5.094 -1.042 2.894 -4.052 0 -6.021 1.968 1.968 -6.021
2.64 12.97 0.9262 4.979 -8.105 -28.02 -22.11 -4.052 -4.052 1.968 8.915 0.9262 -1.042 4.979 0.9262 12.97 4.979
2.645 18.99 -1.042 11.93 -2.084 -25.01 -19.1 1.968 -1.042 5.905 9.957 5.905 0 13.89 1.968 23.97 11.93
2.65 4.979 -12.04 15.98 7.989 -20.03 -5.094 11 0 1.968 8.915 8.915 0.9262 20.96 0.9262 28.94 8.915
2.655 -9.031 -18.06 13.89 13.89 -12.04 5.905 8.915 0 0.9262 -1.042 2.894 1.968 16.9 1.968 20.96 0
2.66 -17.02 -15.05 11.93 13.89 -13.08 13.89 -2.084 -3.01 -5.094 -5.094 1.968 -2.084 9.957 0.9262 7.989 -9.031
2.665 -9.031 -2.084 15.98 9.957 -8.105 11.93 -9.031 -6.021 -11.11 -13.08 7.989 0 5.905 -2.084 -2.084 -9.031
2.67 4.979 13.89 25.93 3.936 -5.094 3.936 -15.05 -11.11 -13.08 -17.02 19.91 5.905 7.989 1.968 -2.084 -5.094
2.675 22.92 17.95 37.98 0 -2.084 -3.01 -11.11 -13.08 -13.08 -15.05 27.9 9.957 13.89 3.936 7.989 -2.084
2.68 22.92 5.905 39.94 -1.042 5.905 -9.031 0.9262 -9.031 -7.063 -9.031 29.99 9.957 22 1.968 19.91 -2.084
2.685 11 -7.063 29.99 -5.094 11.93 -9.031 13.89 -1.042 -2.084 0.9262 22 3.936 23.97 0 27.9 -1.042
2.69 -1.042 -23.04 11.93 -11.11 7.989 -5.094 25.93 3.936 9.957 7.989 7.989 0 19.91 0 25.93 -5.094
2.695 -9.031 -25.01 -3.01 -13.08 -3.01 -1.042 25.93 9.957 15.98 15.98 0 0 9.957 3.936 15.98 -5.094
2.7 -3.01 -17.02 -11.11 -11.11 -21.07 0.9262 11.93 7.989 11.93 17.95 0 1.968 0 7.989 3.936 -1.042
2.705 4.979 -7.063 -1.042 -9.031 -35.08 -3.01 -3.01 -2.084 0 9.957 7.989 5.905 -2.084 9.957 -2.084 0
2.71 14.94 0.9262 13.89 -5.094 -35.08 -9.031 -17.02 -13.08 -9.031 -2.084 17.95 9.957 1.968 5.905 1.968 3.936
2.715 12.97 0.9262 33.92 -3.01 -23.04 -19.1 -23.04 -25.01 -17.02 -9.031 23.97 9.957 11.93 -2.084 13.89 1.968
2.72 0.9262 0.9262 44 -3.01 -9.031 -27.09 -15.05 -31.03 -15.05 -13.08 23.97 9.957 19.91 -3.01 27.9 -2.084
2.725 -5.094 -2.084 41.91 -1.042 -2.084 -31.03 -3.01 -27.09 -5.094 -11.11 17.95 11.93 25.93 -3.01 35.89 0.9262
2.73 -11.11 1.968 29.99 -2.084 0.9262 -28.02 0 -17.02 0 -7.063 13.89 15.98 23.97 -2.084 37.98 -2.084
2.735 -9.031 5.905 17.95 3.936 -5.094 -20.03 3.936 -3.01 1.968 -7.063 9.957 17.95 15.98 9.957 29.99 1.968
2.74 -3.01 0 11.93 9.957 -11.11 -9.031 -2.084 1.968 0.9262 -11.11 9.957 17.95 7.989 19.91 15.98 5.905
2.745 -1.042 -3.01 14.94 11 -8.105 -1.042 -1.042 7.989 -7.063 -17.02 11.93 12.97 0 19.91 3.936 0
2.75 0.9262 -10.07 20.96 6.947 1.968 4.979 -5.094 3.936 -11.11 -25.01 11.93 8.915 -2.084 11.93 -1.042 -7.063
2.755 -1.042 -9.031 29.99 1.968 9.957 3.936 -5.094 0 -9.031 -27.09 11.93 1.968 -2.084 1.968 -3.01 -21.07
2.76 -1.042 0.9262 38.9 2.894 22.92 1.968 0 -5.094 -3.01 -24.08 17.95 0.9262 1.968 -1.042 -2.084 -29.06
2.765 6.947 18.99 42.95 4.979 20.96 -5.094 -1.042 -14.01 3.936 -22.11 22 0.9262 7.989 -5.094 12.97 -31.03
2.77 8.915 27.9 35.89 5.905 5.905 -15.05 3.936 -21.07 7.989 -23.04 22 0.9262 9.957 -5.094 22 -23.04
2.775 -1.042 24.89 22.92 5.905 -7.063 -19.1 4.979 -22.11 9.957 -24.08 14.94 -5.094 8.915 -3.01 28.94 -14.01
2.78 -11.11 7.989 7.989 0.9262 -33.11 -18.06 4.979 -22.11 6.947 -28.02 2.894 -9.031 4.979 -7.063 24.89 -8.105
2.785 -25.01 -15.05 -5.094 -9.031 -49.09 -19.1 -2.084 -19.1 0 -27.09 -5.094 -11.11 0.9262 -9.031 15.98 -7.063
2.79 -31.03 -31.03 -9.031 -14.01 -54.07 -21.07 0.9262 -12.04 -1.042 -23.04 -6.021 -6.021 -4.052 -6.021 11 -4.052
2.795 -25.01 -34.04 -2.084 -15.05 -53.03 -22.11 -7.063 -7.063 0.9262 -19.1 0.9262 -1.042 -6.021 -2.084 7.989 -3.01
2.8 -11.11 -25.01 1.968 -5.094 -43.07 -25.01 -15.05 -5.094 3.936 -11.11 1.968 -2.084 -5.094 0 7.989 0.9262
2.805 2.894 -7.063 12.97 4.979 -31.03 -22.11 -14.01 0.9262 3.936 -4.052 11 0.9262 0 9.957 11.93 4.979
2.81 2.894 5.905 14.94 17.95 -16.09 -12.04 -15.05 0 0.9262 -1.042 9.957 0.9262 -2.084 11 11 12.97
2.815 -1.042 18.99 11.93 25.93 -9.031 0.9262 -11.11 -2.084 0 -1.042 9.957 1.968 -1.042 7.989 6.947 11.93
2.82 -9.031 17.95 6.947 27.9 -6.021 -1.042 -11.11 -6.021 0 -7.063 1.968 2.894 0.9262 0.9262 0.9262 4.979
2.825 -19.1 5.905 2.894 20.96 -15.05 1.968 -8.105 -9.031 -1.042 -10.07 0.9262 4.979 -2.084 0.9262 0 -1.042
2.83 -27.09 -9.031 -1.042 7.989 -29.06 -11.11 -13.08 -15.05 0.9262 -15.05 -2.084 1.968 -7.063 -1.042 0.9262 -1.042
2.835 -25.01 -26.05 -6.021 0.9262 -45.04 -22.11 -19.1 -11.11 1.968 -15.05 0.9262 0.9262 -10.07 1.968 1.968 1.968
2.84 -23.04 -39.02 -11.11 -6.021 -56.04 -27.09 -23.04 -10.07 0 -13.08 -6.021 -4.052 -12.04 2.894 1.968 6.947
2.845 -17.02 -35.08 -13.08 -5.094 -57.08 -23.04 -31.03 -9.031 -7.063 -11.11 -7.063 -5.094 -11.11 11.93 -3.01 13.89
2.85 -11.11 -17.02 -3.01 3.936 -43.07 -6.021 -30.1 -6.021 -10.07 -10.07 -4.052 0.9262 -6.021 17.95 -6.021 14.94
2.855 -9.031 1.968 2.894 22 -21.07 1.968 -22.11 -8.105 -11.11 -14.01 0.9262 3.936 0 19.91 -8.105 6.947
2.86 -7.063 15.98 9.957 33.92 -1.042 11.93 -13.08 -17.02 -9.031 -29.06 9.957 7.989 0 15.98 -9.031 -5.094
2.865 -9.031 28.94 12.97 36.93 2.894 11.93 -8.105 -28.02 -7.063 -42.03 13.89 11 1.968 9.957 -6.021 -23.04
2.87 -9.031 30.91 12.97 28.94 4.979 4.979 -4.052 -43.07 -7.063 -54.07 13.89 11 0 1.968 -3.01 -35.08
2.875 -3.01 25.93 9.957 17.95 -2.084 -5.094 -7.063 -47.01 -11.11 -61.02 9.957 11.93 0 -2.084 0.9262 -37.05
2.88 4.979 22.92 12.97 11 0 -12.04 -11.11 -43.07 -13.08 -53.03 11.93 12.97 1.968 0 1.968 -31.03
2.885 14.94 23.97 18.99 11 -1.042 -12.04 -5.094 -29.06 -11.11 -39.02 15.98 20.96 5.905 7.989 7.989 -19.1
2.89 22.92 27.9 25.93 15.98 9.957 -5.094 1.968 -9.031 -7.063 -15.05 23.97 25.93 13.89 19.91 15.98 -5.094
2.895 22.92 31.96 27.9 23.97 27.9 6.947 19.91 3.936 -1.042 0 27.9 27.9 23.97 29.99 23.97 1.968
2.9 18.99 31.96 25.93 35.89 39.94 24.89 35.89 22 -2.084 9.957 27.9 27.9 27.9 39.94 29.99 11.93
2.905 14.94 33.92 25.93 44 45.96 45.96 44 31.96 -2.084 9.957 23.97 27.9 27.9 45.96 31.96 15.98
2.91 18.99 35.89 25.93 49.9 41.91 59.97 45.96 35.89 0.9262 5.905 19.91 33.92 23.97 49.9 29.99 15.98
2.915 24.89 37.98 29.99 53.95 31.96 67.96 39.94 35.89 -1.042 0 17.95 39.94 17.95 53.95 23.97 15.98
2.92 28.94 41.91 33.92 53.95 19.91 65.99 27.9 33.92 -5.094 -2.084 17.95 45.96 13.89 55.92 9.957 13.89
2.925 26.98 39.94 33.92 45.96 9.957 53.95 13.89 27.9 -9.031 0 13.89 45.96 7.989 51.98 0.9262 17.95
2.93 18.99 31.96 27.9 29.99 1.968 39.94 -2.084 22 -11.11 5.905 5.905 39.94 3.936 44 -7.063 23.97
2.935 8.915 19.91 23.97 13.89 0 23.97 -7.063 13.89 -11.11 9.957 1.968 29.99 3.936 31.96 -5.094 33.92
2.94 4.979 9.957 22 3.936 0 11.93 -11.11 5.905 -5.094 11.93 1.968 17.95 3.936 23.97 1.968 37.98
2.945 6.947 5.905 22 0 3.936 3.936 -7.063 0 -2.084 9.957 11.93 7.989 7.989 17.95 19.91 35.89
2.95 12.97 3.936 19.91 1.968 7.989 0 -1.042 -1.042 5.905 5.905 22 0 11.93 13.89 33.92 22
2.955 14.94 1.968 13.89 7.989 7.989 -1.042 1.968 -7.063 9.957 3.936 29.99 -1.042 13.89 9.957 37.98 0
2.96 12.97 1.968 7.989 9.957 5.905 -5.094 7.989 -12.04 13.89 3.936 27.9 -7.063 15.98 3.936 33.92 -13.08
2.965 12.97 1.968 5.905 9.957 4.979 -11.11 13.89 -14.01 19.91 6.947 22 -9.031 15.98 -2.084 25.93 -21.07
2.97 12.97 9.957 9.957 7.989 7.989 -11.11 19.91 -5.094 25.93 9.957 13.89 -5.094 15.98 0.9262 22 -15.05
2.975 16.9 20.96 17.95 7.989 22.92 -3.01 28.94 6.947 33.92 16.9 11 2.894 15.98 4.979 22.92 1.968
2.98 22.92 30.91 29.99 12.97 38.9 9.957 34.97 28.94 40.99 20.96 11 14.94 18.99 18.99 20.96 14.94
2.985 22.92 29.99 35.89 17.95 49.9 29.99 39.94 44 39.94 19.91 9.957 22 15.98 29.99 15.98 25.93
2.99 16.9 18.99 33.92 22.92 52.91 46.89 40.99 49.9 33 20.96 8.915 18.99 14.94 34.97 11 24.89
2.995 8.915 3.936 28.94 26.98 47.93 50.94 38.9 39.94 22.92 15.98 6.947 12.97 12.97 28.94 6.947 14.94
3 8.915 -1.042 22 23.97 33.92 37.98 35.89 22 13.89 5.905 1.968 1.968 9.957 11.93 5.905 1.968
3.005 12.97 1.968 20.96 22.92 17.95 18.99 35.89 8.915 8.915 -2.084 5.905 -2.084 8.915 0 13.89 1.968
3.01 14.94 15.98 16.9 17.95 6.947 0.9262 31.96 0.9262 2.894 -4.052 5.905 0 9.957 -5.094 15.98 0.9262
3.015 12.97 23.97 11.93 7.989 -3.01 -9.031 25.93 -2.084 0.9262 -11.11 5.905 1.968 3.936 -3.01 11.93 -2.084
3.02 4.979 22.92 6.947 0.9262 -13.08 -7.063 12.97 0.9262 -9.031 -13.08 0.9262 2.894 0.9262 -1.042 0.9262 2.894
3.025 -1.042 7.989 0 -8.105 -20.03 -5.094 0 2.894 -21.07 -14.01 -2.084 -2.084 -6.021 3.936 -10.07 0
3.03 -13.08 0.9262 0.9262 -15.05 -25.01 0.9262 -9.031 1.968 -33.11 -15.05 -15.05 -3.01 -11.11 3.936 -23.04 -3.01
3.035 -11.11 -3.01 -2.084 -9.031 -18.06 0.9262 -13.08 0 -35.08 -12.04 -24.08 -5.094 -13.08 5.905 -28.02 -7.063
3.04 -3.01 3.936 8.915 1.968 -12.04 -2.084 -16.09 0.9262 -38.09 -12.04 -26.05 -1.042 -12.04 8.915 -29.06 -8.105
3.045 -1.042 15.98 13.89 5.905 -7.063 0.9262 -19.1 -3.01 -35.08 -9.031 -25.01 1.968 -11.11 11.93 -25.01 -3.01
3.05 6.947 20.96 15.98 7.989 -11.11 -2.084 -24.08 -7.063 -27.09 -8.105 -15.05 1.968 -8.105 12.97 -18.06 -1.042
3.055 4.979 9.957 8.915 2.894 -16.09 -13.08 -29.06 -17.02 -23.04 -6.021 -10.07 -1.042 -7.063 7.989 -15.05 0.9262
3.06 -1.042 -4.052 1.968 -4.052 -24.08 -27.09 -30.1 -28.02 -19.1 -8.105 -8.105 -9.031 -8.105 0 -16.09 0.9262
3.065 -1.042 -15.05 -2.084 -16.09 -26.05 -39.02 -27.09 -31.03 -15.05 -12.04 -2.084 -20.03 -5.094 -15.05 -23.04 -6.021
3.07 -1.042 -14.01 -2.084 -21.07 -21.07 -46.08 -14.01 -31.03 -11.11 -14.01 1.968 -21.07 -4.052 -22.11 -28.02 -4.052
3.075 2.894 -2.084 11.93 -13.08 -9.031 -41.1 -5.094 -23.04 -7.063 -15.05 3.936 -9.031 -1.042 -15.05 -29.06 -2.084
3.08 12.97 19.91 34.97 0.9262 2.894 -21.07 -1.042 -7.063 0.9262 -8.105 11 3.936 -1.042 1.968 -23.04 12.97
3.085 20.96 33.92 49.9 17.95 12.97 0.9262 5.905 7.989 17.95 0.9262 16.9 11.93 1.968 19.91 -8.105 23.97
3.09 24.89 35.89 55.92 27.9 19.91 25.93 9.957 23.97 25.93 11.93 15.98 13.89 7.989 29.99 -2.084 19.91
3.095 26.98 25.93 55.92 26.98 26.98 41.91 17.95 30.91 29.99 20.96 16.9 7.989 16.9 29.99 11 5.905
3.1 24.89 16.9 46.89 19.91 31.96 41.91 20.96 24.89 19.91 19.91 16.9 0.9262 25.93 16.9 18.99 -8.105
3.105 26.98 15.98 39.94 9.957 33.92 23.97 22 9.957 7.989 9.957 17.95 0 35.89 0 19.91 -25.01
3.11 28.94 23.97 40.99 5.905 34.97 4.979 19.91 1.968 -2.084 -1.042 23.97 7.989 44 -9.031 22 -25.01
3.115 34.97 33.92 42.95 0.9262 29.99 -4.052 17.95 -6.021 -8.105 -5.094 27.9 15.98 42.95 -9.031 22 -17.02
3.12 34.97 35.89 45.96 0 22 -11.11 9.957 -3.01 -5.094 -2.084 25.93 19.91 35.89 -5.094 17.95 -5.094
3.125 33 31.96 50.94 2.894 15.98 -4.052 11 7.989 0.9262 13.89 24.89 18.99 30.91 2.894 20.96 -1.042
3.13 28.94 20.96 53.95 11 11 6.947 14.94 25.93 11 28.94 22.92 16.9 26.98 16.9 24.89 0.9262
3.135 28.94 15.98 57.89 22 15.98 25.93 19.91 33.92 17.95 37.98 23.97 15.98 27.9 25.93 25.93 -2.084
3.14 34.97 18.99 59.97 33 24.89 39.94 24.89 30.91 22.92 34.97 26.98 18.99 30.91 30.91 30.91 0.9262
3.145 40.99 26.98 59.97 37.98 30.91 44 24.89 11 23.97 22.92 28.94 20.96 31.96 24.89 33 2.894
3.15 42.95 27.9 59.97 33.92 35.89 37.98 23.97 -15.05 23.97 7.989 29.99 13.89 31.96 7.989 37.98 0
3.155 38.9 19.91 55.92 15.98 36.93 22 25.93 -38.09 27.9 2.894 27.9 1.968 31.96 -9.031 45.96 0
3.16 26.98 3.936 51.98 -1.042 33.92 0 33.92 -46.08 31.96 7.989 22 -9.031 33.92 -29.06 53.95 -2.084
3.165 14.94 -7.063 44 -21.07 31.96 -11.11 45.96 -37.05 39.94 19.91 15.98 -21.07 33.92 -39.02 59.97 1.968
3.17 8.915 -17.02 31.96 -31.03 25.93 -19.1 53.95 -9.031 44 31.96 5.905 -25.01 31.96 -37.05 55.92 9.957
3.175 8.915 -15.05 13.89 -31.03 13.89 -15.05 47.93 13.89 41.91 39.94 -1.042 -21.07 22 -29.06 39.94 23.97
3.18 12.97 -1.042 -1.042 -29.06 0.9262 -5.094 25.93 33.92 27.9 37.98 -15.05 -11.11 3.936 -21.07 13.89 31.96
3.185 12.97 5.905 -17.02 -29.06 -23.04 0 -3.01 37.98 7.989 29.99 -27.09 -5.094 -11.11 -17.02 -3.01 29.99
3.19 8.915 9.957 -23.04 -33.11 -41.1 1.968 -33.11 27.9 -9.031 19.91 -31.03 -3.01 -25.01 -19.1 -17.02 17.95
3.195 0.9262 0 -19.1 -37.05 -47.01 0 -49.09 13.89 -19.1 13.89 -27.09 -3.01 -27.09 -21.07 -17.02 3.936
3.2 0.9262 -9.031 -7.063 -35.08 -37.05 -2.084 -43.07 5.905 -13.08 15.98 -13.08 -5.094 -17.02 -23.04 -3.01 0.9262
3.205 0.9262 -17.02 3.936 -23.04 -17.02 0 -19.1 9.957 -2.084 23.97 -2.084 -1.042 -1.042 -15.05 11.93 0
3.21 14.94 -9.031 17.95 -3.01 1.968 9.957 5.905 22 13.89 31.96 5.905 1.968 5.905 -5.094 29.99 11.93
3.215 30.91 7.989 27.9 13.89 15.98 22 23.97 37.98 22 39.94 5.905 11.93 11.93 3.936 37.98 25.93
3.22 42.95 33.92 31.96 29.99 17.95 35.89 27.9 49.9 17.95 39.94 0 17.95 7.989 13.89 37.98 31.96
3.225 46.89 41.91 35.89 35.89 11.93 46.89 20.96 51.98 9.957 36.93 -5.094 22 0.9262 17.95 33.92 27.9
3.23 40.99 33.92 39.94 29.99 7.989 47.93 11.93 45.96 5.905 31.96 -7.063 17.95 0.9262 15.98 29.99 13.89
3.235 30.91 9.957 44.92 15.98 7.989 42.95 8.915 33.92 9.957 26.98 0.9262 11.93 2.894 7.989 33 0.9262
3.24 20.96 -4.052 46.89 1.968 14.94 28.94 14.94 15.98 15.98 26.98 5.905 2.894 12.97 0 34.97 -11.11
3.245 16.9 -15.05 44 -1.042 23.97 7.989 22 0 17.95 22 17.95 -2.084 25.93 -7.063 35.89 -19.1
3.25 16.9 -6.021 38.9 -4.052 28.94 -4.052 26.98 -9.031 7.989 18.99 19.91 -2.084 34.97 -13.08 34.97 -19.1
3.255 22.92 4.979 28.94 -4.052 24.89 -13.08 22.92 -12.04 -3.01 12.97 11.93 -4.052 31.96 -15.05 22.92 -17.02
3.26 26.98 15.98 13.89 -7.063 13.89 -17.02 9.957 -5.094 -17.02 9.957 -2.084 -5.094 19.91 -11.11 11.93 -15.05
3.265 28.94 18.99 1.968 -12.04 2.894 -3.01 0 6.947 -23.04 17.95 -9.031 -4.052 5.905 -9.031 0.9262 -17.02
3.27 26.98 13.89 -9.031 -22.11 1.968 6.947 -3.01 22.92 -15.05 25.93 -17.02 -13.08 -2.084 -11.11 -1.042 -21.07
3.275 16.9 -2.084 -19.1 -35.08 0.9262 15.98 -9.031 29.99 -7.063 27.9 -21.07 -25.01 -13.08 -19.1 -11.11 -23.04
3.28 6.947 -15.05 -24.08 -39.02 0 15.98 -9.031 28.94 -5.094 25.93 -17.02 -33.11 -19.1 -33.11 -18.06 -25.01
3.285 0.9262 -30.1 -19.1 -37.05 4.979 4.979 -10.07 17.95 -7.063 14.94 -18.06 -32.07 -26.05 -45.04 -28.02 -17.02
3.29 -3.01 -43.07 -15.05 -27.09 9.957 -3.01 -11.11 3.936 -13.08 1.968 -21.07 -27.09 -33.11 -45.04 -37.05 -9.031
3.295 -9.031 -47.01 -4.052 -9.031 11.93 -3.01 -8.105 0 -16.09 5.905 -26.05 -15.05 -43.07 -32.07 -42.03 -5.094
3.3 -13.08 -40.06 -1.042 3.936 18.99 -1.042 -6.021 4.979 -7.063 15.98 -33.11 -9.031 -48.05 -14.01 -39.02 -2.084
3.305 -17.02 -21.07 0 19.91 25.93 14.94 -2.084 18.99 -2.084 31.96 -38.09 -2.084 -50.02 0 -32.07 -2.084
3.31 -23.04 -6.021 0 17.95 28.94 26.98 -1.042 26.98 15.98 41.91 -41.1 -7.063 -48.05 0.9262 -15.05 -2.084
3.315 -25.01 0.9262 -12.04 11.93 29.99 29.99 6.947 29.99 24.89 41.91 -40.06 -7.063 -41.1 -1.042 -2.084 -5.094
3.32 -29.06 -1.042 -29.06 1.968 23.97 25.93 9.957 22 25.93 31.96 -35.08 -5.094 -37.05 -2.084 1.968 -5.094
3.325 -29.06 -12.04 -35.08 0 12.97 18.99 16.9 15.98 25.93 26.98 -26.05 1.968 -28.02 -2.084 12.97 -1.042
3.33 -27.09 -31.03 -32.07 3.936 3.936 17.95 22 14.94 23.97 27.9 -13.08 3.936 -21.07 7.989 20.96 0
3.335 -23.04 -41.1 -15.05 13.89 7.989 19.91 23.97 17.95 25.93 33.92 -1.042 7.989 -11.11 19.91 27.9 7.989
3.34 -13.08 -39.02 5.905 24.89 22 30.91 25.93 26.98 29.99 39.94 7.989 9.957 1.968 29.99 37.98 13.89
3.345 -7.063 -24.08 23.97 34.97 36.93 41.91 29.99 38.9 29.99 39.94 11.93 4.979 9.957 31.96 44.92 15.98
3.35 -7.063 -7.063 25.93 31.96 44 47.93 27.9 44 29.99 33.92 11.93 1.968 15.98 29.99 45.96 11.93
3.355 -9.031 0.9262 16.9 22.92 40.99 51.98 28.94 50.94 29.99 24.89 7.989 2.894 15.98 25.93 46.89 9.957
3.36 -15.05 4.979 0 11 26.98 48.97 30.91 57.89 31.96 24.89 1.968 2.894 6.947 19.91 46.89 13.89
3.365 -19.1 -2.084 -15.05 -2.084 13.89 41.91 35.89 67.96 37.98 35.89 0 7.989 0 23.97 47.93 22
3.37 -11.11 0 -14.01 0.9262 11 40.99 44.92 75.95 41.91 56.96 -2.084 12.97 1.968 29.99 48.97 33.92
3.375 0.9262 1.968 0 5.905 22 42.95 50.94 79.89 44 72.94 0.9262 17.95 0 37.98 46.89 41.91
3.38 12.97 13.89 15.98 25.93 37.98 45.96 49.9 75.95 37.98 77.92 -7.063 25.93 -3.01 44 31.96 45.96
3.385 26.98 29.99 29.99 45.96 47.93 48.97 40.99 63.91 27.9 70.97 -13.08 31.96 -10.07 45.96 13.89 44
3.39 30.91 33.92 31.96 59.97 41.91 49.9 25.93 49.9 13.89 53.95 -19.1 35.89 -23.04 45.96 -2.084 35.89
3.395 28.94 29.99 22 61.94 22 47.93 11.93 35.89 3.936 37.98 -17.02 35.89 -31.03 44 -7.063 29.99
3.4 18.99 15.98 7.989 51.98 0 39.94 1.968 25.93 0 29.99 -11.11 29.99 -33.11 37.98 -7.063 19.91
3.405 6.947 1.968 -1.042 35.89 -9.031 27.9 -2.084 19.91 0 27.9 -5.094 19.91 -29.06 29.99 -5.094 9.957
3.41 -1.042 -1.042 -7.063 19.91 -11.11 15.98 -1.042 11.93 1.968 27.9 -1.042 9.957 -19.1 19.91 -3.01 0
3.415 -15.05 -1.042 -5.094 7.989 -3.01 7.989 -3.01 3.936 0 23.97 -3.01 1.968 -11.11 9.957 -7.063 -3.01
3.42 -25.01 -2.084 0.9262 3.936 0 1.968 -7.063 -1.042 -1.042 11.93 -3.01 -1.042 -7.063 0 -15.05 -7.063
3.425 -31.03 1.968 1.968 5.905 5.905 0 -9.031 -11.11 -5.094 0.9262 -3.01 -5.094 -7.063 -1.042 -21.07 -9.031
3.43 -33.11 1.968 5.905 9.957 5.905 1.968 -9.031 -17.02 -7.063 -13.08 -1.042 -7.063 -7.063 -5.094 -19.1 -5.094
3.435 -33.11 0.9262 5.905 13.89 5.905 3.936 -5.094 -21.07 -7.063 -19.1 -2.084 -5.094 -5.094 -5.094 -7.063 -1.042
3.44 -31.03 -5.094 1.968 19.91 7.989 9.957 -2.084 -17.02 -1.042 -15.05 1.968 0.9262 0.9262 0.9262 3.936 0
3.445 -25.01 -15.05 -2.084 23.97 9.957 17.95 7.989 -7.063 -2.084 -5.094 3.936 1.968 3.936 3.936 17.95 9.957
3.45 -21.07 -21.07 0 25.93 11.93 25.93 15.98 0.9262 1.968 0 1.968 3.936 11.93 11 27.9 17.95
3.455 -15.05 -20.03 9.957 27.9 14.94 31.96 19.91 12.97 1.968 5.905 1.968 6.947 13.89 14.94 27.9 22.92
3.46 -7.063 -15.05 22 29.99 15.98 31.96 17.95 17.95 -2.084 3.936 0 3.936 7.989 9.957 22 17.95
3.465 -1.042 0 29.99 26.98 11 22 11 14.94 -1.042 0.9262 -2.084 4.979 -1.042 2.894 13.89 6.947
3.47 0.9262 6.947 26.98 18.99 2.894 7.989 -1.042 2.894 -7.063 -2.084 -12.04 4.979 -8.105 -4.052 7.989 -2.084
3.475 -3.01 11.93 13.89 5.905 -1.042 -5.094 -5.094 -7.063 -11.11 -5.094 -23.04 1.968 -17.02 -13.08 5.905 -13.08
3.48 -7.063 9.957 0.9262 1.968 0 -16.09 -6.021 -15.05 -12.04 0 -32.07 2.894 -16.09 -13.08 8.915 -16.09
3.485 -13.08 1.968 0 -1.042 0 -14.01 0.9262 -21.07 -12.04 -1.042 -28.02 0 -10.07 -11.11 6.947 -13.08
3.49 -19.1 -3.01 1.968 11.93 9.957 -3.01 -2.084 -19.1 -19.1 0 -19.1 -2.084 -3.01 -3.01 0 -7.063
3.495 -13.08 -5.094 18.99 33.92 17.95 8.915 -5.094 -14.01 -30.1 0.9262 -2.084 0.9262 0 -1.042 -10.07 0.9262
3.5 -7.063 1.968 31.96 47.93 18.99 18.99 -25.01 -12.04 -46.08 -9.031 3.936 -1.042 -3.01 4.979 -30.1 2.894
3.505 -1.042 3.936 29.99 47.93 5.905 19.91 -55.11 -15.05 -61.02 -19.1 1.968 -2.084 -15.05 5.905 -49.09 5.905
3.51 2.894 9.957 13.89 33 -5.094 9.957 -78.04 -16.09 -63.1 -20.03 -1.042 1.968 -25.01 7.989 -57.08 9.957
3.515 0.9262 8.915 1.968 8.915 -17.02 0.9262 -87.07 -15.05 -53.03 -15.05 -10.07 -2.084 -30.1 11 -53.03 12.97
3.52 -13.08 -2.084 -13.08 -5.094 -17.02 -7.063 -69 -15.05 -33.11 -1.042 -15.05 0 -31.03 17.95 -43.07 13.89
3.525 -27.09 -10.07 -13.08 -2.084 -4.052 0 -35.08 -2.084 -14.01 9.957 -13.08 7.989 -23.04 23.97 -26.05 16.9
3.53 -31.03 -18.06 1.968 11 4.979 13.89 -1.042 6.947 1.968 16.9 -1.042 13.89 -18.06 31.96 -11.11 18.99
3.535 -25.01 -15.05 13.89 35.89 15.98 29.99 17.95 19.91 1.968 11.93 1.968 17.95 -13.08 33.92 -7.063 15.98
3.54 -7.063 -1.042 30.91 51.98 23.97 41.91 33 33 1.968 4.979 7.989 20.96 -6.021 33 -5.094 18.99
3.545 2.894 9.957 35.89 53.95 23.97 41.91 39.94 41.91 1.968 0 3.936 19.91 1.968 33 -3.01 16.9
3.55 8.915 15.98 34.97 35.89 23.97 37.98 44.92 53.95 4.979 1.968 1.968 19.91 7.989 37.98 0 18.99
3.555 0.9262 11.93 22 7.989 27.9 29.99 53.95 57.89 13.89 15.98 -7.063 11.93 16.9 42.95 1.968 18.99
3.56 -7.063 0.9262 8.915 -21.07 29.99 23.97 60.9 56.96 23.97 28.94 -13.08 4.979 22.92 40.99 11.93 20.96
3.565 -17.02 -21.07 -3.01 -51.06 29.99 13.89 67.96 47.93 31.96 33.92 -11.11 -3.01 23.97 27.9 17.95 17.95
3.57 -19.1 -36.01 -12.04 -64.03 26.98 1.968 67.96 26.98 35.89 30.91 -5.094 -17.02 24.89 3.936 25.93 11
3.575 -15.05 -46.08 -23.04 -68.08 14.94 -22.11 57.89 0 30.91 17.95 -5.094 -27.09 17.95 -19.1 26.98 -1.042
3.58 -9.031 -47.01 -29.06 -57.08 -1.042 -55.11 31.96 -37.05 23.97 1.968 -9.031 -31.03 7.989 -43.07 22 -15.05
3.585 -9.031 -40.06 -38.09 -40.06 -35.08 -75.02 -1.042 -65.07 15.98 -1.042 -18.06 -27.09 -4.052 -54.07 13.89 -30.1
3.59 -17.02 -35.08 -49.09 -26.05 -79.08 -85.1 -48.05 -80 3.936 -4.052 -35.08 -19.1 -31.03 -57.08 1.968 -43.07
3.595 -31.03 -25.01 -61.02 -19.1 -129.1 -81.05 -99.11 -83.01 -5.094 -3.01 -53.03 -15.05 -61.02 -47.01 -27.09 -49.09
3.6 -39.02 -10.07 -69 -15.05 -164.1 -64.03 -141 -70.05 -14.01 0.9262 -57.08 -14.01 -85.1 -34.04 -60.09 -46.08
3.605 -39.02 0.9262 -72.01 -11.11 -175.1 -44.11 -161 -48.05 -22.11 0 -54.07 -13.08 -98.06 -16.09 -86.02 -33.11
3.61 -31.03 5.905 -67.04 -9.031 -157.1 -27.09 -161 -29.06 -41.1 0.9262 -43.07 -7.063 -95.05 -3.01 -107.1 -15.05
3.615 -21.07 11.93 -50.02 0 -111 -10.07 -142.1 -15.05 -60.09 0 -24.08 1.968 -72.01 9.957 -110.1 1.968
3.62 -13.08 13.89 -30.1 4.979 -56.04 1.968 -116 -1.042 -84.06 -2.084 -6.021 11 -44.11 22 -108 14.94
3.625 -9.031 15.98 -7.063 13.89 -7.063 1.968 -91 0.9262 -101.1 -3.01 0 19.91 -15.05 27.9 -99.11 17.95
3.63 -1.042 22.92 8.915 24.89 28.94 5.905 -66.11 0.9262 -105 -6.021 14.94 28.94 6.947 33 -81.05 18.99
3.635 0.9262 28.94 23.97 36.93 56.96 7.989 -40.06 2.894 -91 -14.01 26.98 24.89 28.94 33 -55.11 16.9
3.64 6.947 31.96 31.96 44 69.93 7.989 -13.08 1.968 -67.04 -19.1 31.96 19.91 41.91 31.96 -19.1 19.91
3.645 11 22.92 33.92 44 76.99 5.905 15.98 0.9262 -37.05 -25.01 37.98 14.94 51.98 30.91 13.89 24.89
3.65 8.915 1.968 33.92 33.92 73.98 0 49.9 -1.042 -9.031 -27.09 39.94 5.905 63.91 26.98 49.9 23.97
3.655 -1.042 -15.05 33.92 11.93 69.93 -1.042 79.89 0 11.93 -25.01 41.91 0.9262 71.9 17.95 75.95 13.89
3.66 -9.031 -35.08 35.89 -11.11 67.96 -5.094 104 1.968 35.89 -19.1 41.91 -17.02 81.97 1.968 89.96 -1.042
3.665 -21.07 -45.04 37.98 -39.02 71.9 -7.063 118 5.905 53.95 -13.08 41.91 -39.02 85.91 -13.08 93.9 -21.07
3.67 -27.09 -47.01 41.91 -57.08 77.92 -9.031 127.9 5.905 65.99 -7.063 39.94 -63.1 85.91 -35.08 93.9 -35.08
3.675 -23.04 -47.01 44 -65.07 81.97 -9.031 129.9 1.968 71.9 -3.01 35.89 -79.08 77.92 -57.08 93.9 -39.02
3.68 -11.11 -47.01 44 -61.02 79.89 -13.08 127.9 0.9262 71.9 -1.042 31.96 -79.08 67.96 -73.06 91.93 -35.08
3.685 -1.042 -43.07 41.91 -53.03 69.93 -23.04 119.9 -7.063 67.96 0.9262 29.99 -65.07 53.95 -77.11 87.99 -33.11
3.69 11 -31.03 33.92 -43.07 51.98 -33.11 104 -11.11 57.89 0.9262 22 -41.1 37.98 -69 71.9 -35.08
3.695 11 -13.08 17.95 -43.07 25.93 -41.1 79.89 -17.02 44 -3.01 5.905 -19.1 19.91 -53.03 44 -41.1
3.7 0.9262 3.936 -7.063 -51.06 -3.01 -47.01 44.92 -27.09 23.97 -7.063 -17.02 -3.01 -1.042 -35.08 3.936 -43.07
3.705 -13.08 19.91 -51.06 -63.1 -45.04 -53.03 0 -43.07 -1.042 -15.05 -51.06 -2.084 -35.08 -23.04 -39.02 -39.02
3.71 -31.03 22 -98.06 -73.06 -93.09 -57.08 -44.11 -69 -33.11 -27.09 -81.05 -2.084 -72.01 -17.02 -82.09 -29.06
3.715 -41.1 15.98 -134.1 -67.04 -134.1 -59.05 -88.11 -93.09 -64.03 -39.02 -93.09 4.979 -106.1 -15.05 -118.1 -19.1
3.72 -35.08 3.936 -145.1 -43.07 -165.1 -55.11 -129.1 -111 -89.03 -51.06 -81.05 13.89 -125 -13.08 -143.1 -11.11
3.725 -19.1 1.968 -124.1 -5.094 -172 -44.11 -156.1 -113 -104.1 -55.11 -53.03 28.94 -124.1 -5.094 -156.1 -10.07
3.73 -3.01 0.9262 -84.06 25.93 -150 -28.02 -171 -97.02 -112.1 -55.11 -19.1 38.9 -108 -2.084 -162.1 -12.04
3.735 -1.042 11.93 -41.1 47.93 -115.1 -11.11 -179.1 -63.1 -111 -39.02 0.9262 41.91 -85.1 7.989 -167.1 -11.11
3.74 -1.042 28.94 -1.042 53.95 -68.08 2.894 -171 -19.1 -96.1 -12.04 1.968 42.95 -61.02 19.91 -161 1.968
3.745 0.9262 48.97 9.957 45.96 -29.06 18.99 -150 27.9 -70.05 18.99 0.9262 42.95 -47.01 34.97 -155 20.96
3.75 0.9262 65.99 15.98 33.92 -7.063 29.99 -117.1 71.9 -37.05 55.92 -9.031 39.94 -43.07 44 -141 41.91
3.755 6.947 74.91 8.915 30.91 -2.084 44.92 -81.05 104.9 -5.094 78.96 -19.1 33.92 -43.07 50.94 -122 63.91
3.76 14.94 67.96 -1.042 26.98 -2.084 53.95 -55.11 110.9 5.905 80.93 -25.01 20.96 -46.08 42.95 -95.05 63.91
3.765 11 35.89 -21.07 13.89 -19.1 49.9 -37.05 97.95 11.93 63.91 -29.06 0 -51.06 23.97 -71.09 51.98
3.77 -3.01 -4.052 -33.11 0 -37.05 30.91 -28.02 68.89 11.93 33.92 -28.02 -15.05 -44.11 -1.042 -39.02 28.94
3.775 -29.06 -52.1 -44.11 -23.04 -44.11 2.894 -24.08 28.94 6.947 4.979 -24.08 -32.07 -29.06 -17.02 -4.052 1.968
3.78 -51.06 -79.08 -35.08 -49.09 -41.1 -21.07 -11.11 -3.01 11.93 -13.08 -13.08 -39.02 -9.031 -33.11 22 -11.11
3.785 -51.06 -74.1 -8.105 -54.07 -22.11 -40.06 9.957 -26.05 22.92 -20.03 1.968 -35.08 15.98 -33.11 48.97 -21.07
3.79 -31.03 -39.02 20.96 -45.04 1.968 -46.08 39.94 -35.08 34.97 -24.08 13.89 -31.03 37.98 -33.11 65.99 -26.05
3.795 -7.063 -2.084 50.94 -31.03 30.91 -43.07 62.98 -38.09 36.93 -24.08 22.92 -30.1 50.94 -40.06 72.94 -34.04
3.8 6.947 15.98 58.93 -23.04 49.9 -40.06 67.96 -43.07 26.98 -30.1 19.91 -35.08 47.93 -49.09 61.94 -46.08
3.805 11 6.947 46.89 -24.08 46.89 -46.08 51.98 -52.1 11 -34.04 7.989 -39.02 31.96 -63.1 40.99 -61.02
3.81 -1.042 -9.031 22 -29.06 27.9 -55.11 17.95 -65.07 -5.094 -37.05 -3.01 -33.11 5.905 -67.04 11.93 -69
3.815 -13.08 -24.08 -1.042 -25.01 -1.042 -58.01 -16.09 -68.08 -28.02 -34.04 -16.09 -18.06 -17.02 -51.06 -14.01 -61.02
3.82 -17.02 -18.06 -5.094 -18.06 -29.06 -52.1 -58.01 -70.05 -53.03 -31.03 -24.08 3.936 -40.06 -18.06 -47.01 -38.09
3.825 -11.11 1.968 -9.031 -1.042 -57.08 -37.05 -93.09 -63.1 -79.08 -27.09 -27.09 23.97 -55.11 13.89 -77.11 -11.11
3.83 2.894 33.92 0.9262 12.97 -72.01 -9.031 -115.1 -52.1 -101.1 -28.02 -27.09 42.95 -56.04 48.97 -99.11 9.957
3.835 6.947 52.91 4.979 26.98 -75.02 0.9262 -121.1 -40.06 -111 -30.1 -23.04 47.93 -49.09 60.9 -114 22
3.84 12.97 55.92 15.98 39.94 -61.02 9.957 -113 -29.06 -111 -29.06 -11.11 39.94 -33.11 55.92 -107.1 9.957
3.845 16.9 48.97 33.92 51.98 -31.03 8.915 -84.06 -19.1 -92.04 -20.03 1.968 22.92 -5.094 36.93 -85.1 -6.021
3.85 24.89 38.9 59.97 63.91 -1.042 2.894 -43.07 -7.063 -70.05 -12.04 22 0.9262 19.91 9.957 -47.01 -30.1
3.855 34.97 33.92 79.89 69.93 39.94 0 -2.084 -1.042 -47.01 -9.031 37.98 -15.05 44 -7.063 -11.11 -53.03
3.86 42.95 33 96.91 67.96 74.91 4.979 41.91 1.968 -24.08 -13.08 47.93 -26.05 62.98 -19.1 11 -58.01
3.865 42.95 28.94 104.9 55.92 90.89 14.94 64.95 5.905 -4.052 -23.04 45.96 -28.02 72.94 -17.02 26.98 -44.11
3.87 34.97 13.89 99.92 31.96 87.99 23.97 73.98 9.957 9.957 -25.01 39.94 -23.04 71.9 -7.063 35.89 -19.1
3.875 22.92 -1.042 88.92 7.989 74.91 27.9 70.97 17.95 30.91 -21.07 29.99 -18.06 66.92 -2.084 46.89 3.936
3.88 11 -19.1 76.99 -11.11 55.92 22 64.95 17.95 45.96 -13.08 22 -21.07 58.93 1.968 58.93 19.91
3.885 0.9262 -27.09 61.94 -25.01 37.98 13.89 61.94 19.91 55.92 -7.063 9.957 -29.06 44 0 63.91 19.91
3.89 -7.063 -25.01 37.98 -35.08 23.97 3.936 62.98 13.89 55.92 -5.094 -5.094 -37.05 27.9 -3.01 63.91 3.936
3.895 -19.1 -15.05 7.989 -41.1 9.957 0.9262 57.89 5.905 49.9 -7.063 -27.09 -43.07 7.989 -11.11 53.95 -11.11
3.9 -35.08 -5.094 -19.1 -43.07 -5.094 -5.094 44 -2.084 44 -7.063 -47.01 -41.1 -7.063 -17.02 39.94 -19.1
3.905 -49.09 -5.094 -47.01 -43.07 -31.03 -11.11 22 -5.094 37.98 -3.01 -57.08 -35.08 -23.04 -19.1 25.93 -13.08
3.91 -57.08 -17.02 -61.02 -39.02 -55.11 -17.02 0.9262 -15.05 35.89 -2.084 -57.08 -25.01 -33.11 -19.1 13.89 0.9262
3.915 -55.11 -31.03 -59.05 -35.08 -73.06 -27.09 -17.02 -25.01 29.99 0 -45.04 -19.1 -37.05 -23.04 3.936 5.905
3.92 -45.04 -37.05 -43.07 -33.11 -77.11 -33.11 -27.09 -39.02 19.91 -3.01 -31.03 -13.08 -37.05 -27.09 -1.042 0
3.925 -25.01 -27.09 -23.04 -27.09 -67.04 -35.08 -27.09 -49.09 5.905 -17.02 -19.1 -7.063 -33.11 -27.09 -15.05 -11.11
3.93 -5.094 0.9262 -5.094 -19.1 -47.01 -27.09 -23.04 -49.09 -9.031 -33.11 -11.11 1.968 -29.06 -17.02 -33.11 -25.01
3.935 6.947 27.9 5.905 -1.042 -23.04 -11.11 -27.09 -39.02 -31.03 -41.1 -7.063 23.97 -23.04 -2.084 -55.11 -25.01
3.94 20.96 51.98 19.91 17.95 -3.01 5.905 -37.05 -18.06 -53.03 -37.05 -3.01 47.93 -19.1 23.97 -79.08 -5.094
3.945 28.94 61.94 37.98 44 6.947 25.93 -49.09 -1.042 -69 -24.08 0 67.96 -13.08 49.9 -99.11 18.99
3.95 33 61.94 53.95 65.99 13.89 39.94 -59.05 13.89 -77.11 -9.031 9.957 73.98 -5.094 67.96 -113 39.94
3.955 33 58.93 65.99 73.98 20.96 47.93 -57.08 26.98 -75.02 1.968 22.92 71.9 0.9262 74.91 -111 46.89
3.96 34.97 56.96 69.93 70.97 22.92 46.89 -43.07 30.91 -64.03 2.894 30.91 61.94 3.936 70.97 -91 40.99
3.965 34.97 55.92 63.91 57.89 23.97 39.94 -23.04 29.99 -49.09 0 29.99 44 11.93 57.89 -61.02 22
3.97 28.94 50.94 49.9 40.99 23.97 30.91 -2.084 27.9 -30.1 0 22.92 30.91 14.94 42.95 -28.02 11
3.975 14.94 39.94 31.96 20.96 17.95 16.9 8.915 13.89 -12.04 1.968 11 14.94 16.9 22.92 -1.042 3.936
3.98 0.9262 17.95 11.93 -2.084 9.957 0 22 -2.084 1.968 -3.01 -2.084 0.9262 15.98 1.968 25.93 -1.042
3.985 -21.07 0.9262 1.968 -14.01 3.936 -12.04 38.9 -10.07 22.92 -4.052 -4.052 -16.09 18.99 -11.11 48.97 -11.11
3.99 -37.05 -15.05 -2.084 -29.06 4.979 -24.08 46.89 -19.1 44.92 -2.084 -3.01 -30.1 24.89 -29.06 68.89 -20.03
3.995 -45.04 -23.04 1.968 -43.07 7.989 -33.11 49.9 -23.04 57.89 -1.042 0.9262 -39.02 27.9 -43.07 83.94 -31.03
4 -39.02 -24.08 9.957 -49.09 9.957 -39.02 44 -18.06 61.94 0.9262 3.936 -39.02 27.9 -46.08 87.99 -33.11
4.005 -33.11 -27.09 12.97 -54.07 0.9262 -41.1 23.97 -15.05 55 0.9262 6.947 -37.05 22 -41.1 75.95 -28.02
4.01 -29.06 -29.06 5.905 -59.05 -13.08 -45.04 0.9262 -15.05 37.98 0 0 -35.08 3.936 -37.05 59.97 -19.1
4.015 -29.06 -37.05 0 -67.04 -34.04 -47.01 -18.06 -21.07 22 0 -5.094 -30.1 -8.105 -29.06 40.99 -10.07
4.02 -35.08 -41.1 -10.07 -76.07 -53.03 -50.02 -33.11 -31.03 4.979 1.968 -9.031 -23.04 -16.09 -28.02 25.93 -6.021
4.025 -41.1 -43.07 -15.05 -75.02 -57.08 -53.03 -31.03 -41.1 -1.042 -5.094 -11.11 -11.11 -17.02 -25.01 22 -5.094
4.03 -35.08 -36.01 -7.063 -64.03 -45.04 -47.01 -18.06 -47.01 -9.031 -10.07 -2.084 0.9262 -2.084 -20.03 22.92 -3.01
4.035 -23.04 -23.04 1.968 -42.03 -29.06 -45.04 -3.01 -55.11 -17.02 -16.09 4.979 22.92 6.947 -12.04 19.91 0
4.04 -9.031 -6.021 16.9 -15.05 -21.07 -45.04 0 -62.06 -26.05 -21.07 11.93 40.99 17.95 0.9262 9.957 1.968
4.045 -1.042 9.957 27.9 0.9262 -15.05 -45.04 1.968 -61.02 -37.05 -24.08 6.947 50.94 16.9 6.947 -1.042 1.968
4.05 6.947 28.94 37.98 20.96 -17.02 -39.02 -4.052 -47.01 -39.02 -26.05 2.894 50.94 11 16.9 -14.01 0.9262
4.055 11 39.94 45.96 31.96 -15.05 -25.01 -13.08 -25.01 -33.11 -23.04 0 47.93 3.936 25.93 -23.04 -2.084
4.06 12.97 44 60.9 38.9 1.968 0 -7.063 5.905 -16.09 -13.08 5.905 37.98 4.979 34.97 -15.05 4.979
4.065 16.9 39.94 72.94 39.94 22.92 22 2.894 44 3.936 1.968 13.89 33 12.97 44 0.9262 14.94
4.07 14.94 27.9 77.92 37.98 45.96 41.91 27.9 71.9 27.9 17.95 23.97 25.93 25.93 47.93 27.9 27.9
4.075 11 11.93 78.96 34.97 58.93 53.95 55.92 85.91 48.97 40.99 26.98 15.98 41.91 49.9 55.92 38.9
4.08 0.9262 0 65.99 25.93 57.89 55.92 79.89 88.92 63.91 55.92 17.95 5.905 47.93 42.95 79.89 45.96
4.085 -5.094 -13.08 51.98 17.95 45.96 49.9 93.9 77.92 73.98 63.91 7.989 -9.031 49.9 27.9 89.96 37.98
4.09 -13.08 -19.1 44 11.93 38.9 42.95 101 67.96 76.99 60.9 3.936 -20.03 55 9.957 96.91 24.89
4.095 -15.05 -19.1 41.91 4.979 35.89 33 101 48.97 76.99 50.94 2.894 -30.1 55 -3.01 101 3.936
4.1 -17.02 -13.08 44 0 39.94 15.98 91.93 27.9 67.96 35.89 9.957 -29.06 55.92 -19.1 99.92 -7.063
4.105 -11.11 -7.063 47.93 2.894 44 -1.042 70.97 11.93 58.93 19.91 16.9 -18.06 48.97 -22.11 92.97 -17.02
4.11 -5.094 -4.052 47.93 6.947 33.92 -12.04 46.89 0.9262 40.99 5.905 16.9 -6.021 36.93 -18.06 74.91 -20.03
4.115 -5.094 -5.094 45.96 9.957 17.95 -23.04 17.95 -9.031 19.91 -3.01 7.989 -2.084 15.98 -7.063 51.98 -15.05
4.12 -9.031 -8.105 35.89 6.947 0.9262 -28.02 -5.094 -16.09 1.968 -12.04 -4.052 3.936 -1.042 1.968 25.93 -10.07
4.125 -19.1 -12.04 22 -1.042 -16.09 -33.11 -27.09 -26.05 -21.07 -20.03 -24.08 1.968 -21.07 -1.042 1.968 -8.105
4.13 -29.06 -13.08 7.989 -19.1 -37.05 -41.1 -45.04 -41.1 -39.02 -33.11 -41.1 0.9262 -35.08 0.9262 -11.11 -21.07
4.135 -33.11 -7.063 -1.042 -35.08 -58.01 -53.03 -57.08 -64.03 -55.11 -42.03 -47.01 -7.063 -41.1 -9.031 -23.04 -34.04
4.14 -27.09 0 -5.094 -43.07 -79.08 -71.09 -65.07 -96.1 -67.04 -53.03 -43.07 -9.031 -41.1 -21.07 -33.11 -47.01
4.145 -13.08 9.957 0.9262 -37.05 -93.09 -87.07 -71.09 -125 -71.09 -59.05 -29.06 -9.031 -37.05 -29.06 -39.02 -51.06
4.15 -1.042 19.91 11.93 -23.04 -93.09 -93.09 -71.09 -141 -67.04 -57.08 -11.11 -3.01 -27.09 -31.03 -41.1 -45.04
4.155 11 22 31.96 -5.094 -79.08 -87.07 -63.1 -137.1 -57.08 -51.06 -2.084 0 -15.05 -27.09 -41.1 -39.02
4.16 14.94 17.95 47.93 3.936 -55.11 -73.06 -49.09 -111 -47.01 -43.07 3.936 5.905 -3.01 -21.07 -39.02 -37.05
4.165 11 9.957 55.92 11.93 -31.03 -57.08 -33.11 -73.06 -39.02 -39.02 1.968 9.957 -2.084 -15.05 -39.02 -43.07
4.17 4.979 0 53.95 13.89 -13.08 -39.02 -19.1 -29.06 -37.05 -33.11 0 11.93 1.968 -9.031 -35.08 -51.06
4.175 4.979 -2.084 49.9 15.98 -1.042 -21.07 -9.031 5.905 -31.03 -23.04 1.968 11.93 1.968 0.9262 -29.06 -47.01
4.18 8.915 3.936 45.96 17.95 0 0.9262 -3.01 35.89 -23.04 -5.094 7.989 13.89 3.936 7.989 -17.02 -31.03
4.185 12.97 11.93 41.91 13.89 1.968 15.98 -2.084 53.95 -9.031 9.957 13.89 11.93 9.957 19.91 -3.01 -7.063
4.19 11 13.89 37.98 3.936 0 27.9 3.936 59.97 0 23.97 13.89 7.989 13.89 25.93 1.968 7.989
4.195 0.9262 3.936 27.9 -7.063 -3.01 29.99 11.93 49.9 9.957 23.97 5.905 -2.084 13.89 17.95 7.989 11.93
4.2 -21.07 -9.031 13.89 -25.01 -13.08 17.95 17.95 31.96 13.89 15.98 -3.01 -7.063 9.957 1.968 9.957 5.905
4.205 -41.1 -33.11 1.968 -39.02 -29.06 1.968 17.95 5.905 13.89 3.936 -15.05 -15.05 1.968 -13.08 7.989 -1.042
4.21 -49.09 -45.04 -1.042 -45.04 -41.1 -25.01 13.89 -9.031 13.89 -1.042 -23.04 -19.1 -1.042 -27.09 7.989 -9.031
4.215 -47.01 -48.05 0.9262 -45.04 -45.04 -40.06 5.905 -20.03 13.89 -3.01 -20.03 -18.06 -9.031 -33.11 5.905 -11.11
4.22 -41.1 -42.03 0 -45.04 -47.01 -50.02 0.9262 -22.11 9.957 0.9262 -18.06 -18.06 -11.11 -31.03 3.936 -7.063
4.225 -37.05 -39.02 1.968 -49.09 -47.01 -57.08 -9.031 -17.02 1.968 0 -17.02 -19.1 -15.05 -33.11 0 -7.063
4.23 -39.02 -40.06 4.979 -57.08 -47.01 -58.01 -18.06 -10.07 -3.01 2.894 -20.03 -18.06 -19.1 -39.02 0 -11.11
4.235 -41.1 -40.06 6.947 -61.02 -49.09 -60.09 -26.05 -12.04 -13.08 -2.084 -26.05 -20.03 -23.04 -47.01 -4.052 -15.05
4.24 -37.05 -41.1 9.957 -55.11 -49.09 -59.05 -41.1 -27.09 -19.1 -13.08 -29.06 -15.05 -27.09 -51.06 -5.094 -21.07
4.245 -21.07 -26.05 14.94 -43.07 -50.02 -53.03 -50.02 -47.01 -23.04 -24.08 -26.05 -3.01 -27.09 -49.09 -4.052 -26.05
4.25 -3.01 -5.094 18.99 -27.09 -50.02 -53.03 -60.09 -73.06 -23.04 -34.04 -17.02 0 -24.08 -43.07 -2.084 -32.07
4.255 11 5.905 23.97 -17.02 -47.01 -47.01 -65.07 -95.05 -27.09 -37.05 -7.063 5.905 -19.1 -37.05 -1.042 -41.1
4.26 16.9 19.91 25.93 -11.11 -36.01 -37.05 -55.11 -102 -26.05 -33.11 -1.042 6.947 -10.07 -34.04 0.9262 -44.11
4.265 16.9 18.99 29.99 -6.021 -19.1 -34.04 -39.02 -93.09 -26.05 -31.03 8.915 3.936 1.968 -32.07 11.93 -38.09
4.27 16.9 11.93 37.98 0 -2.084 -23.04 -13.08 -73.06 -23.04 -19.1 15.98 0 9.957 -29.06 22 -27.09
4.275 20.96 4.979 51.98 12.97 22.92 -7.063 6.947 -43.07 -12.04 -6.021 20.96 1.968 23.97 -21.07 37.98 -12.04
4.28 26.98 0.9262 65.99 25.93 44 4.979 26.98 -11.11 -2.084 0 27.9 11 35.89 -9.031 49.9 0
4.285 33 3.936 75.95 34.97 55.92 20.96 38.9 6.947 1.968 13.89 33 20.96 42.95 0 55.92 5.905
4.29 34.97 8.915 71.9 33.92 53.95 30.91 42.95 29.99 4.979 25.93 31.96 33 39.94 5.905 53.95 14.94
4.295 28.94 16.9 61.94 28.94 48.97 37.98 40.99 41.91 6.947 36.93 33 39.94 33.92 13.89 49.9 26.98
4.3 24.89 25.93 51.98 27.9 44 41.91 37.98 47.93 7.989 47.93 25.93 44 23.97 17.95 37.98 35.89
4.305 20.96 28.94 44 33 41.91 50.94 31.96 51.98 6.947 51.98 20.96 44 14.94 22.92 29.99 42.95
4.31 24.89 25.93 37.98 39.94 38.9 59.97 31.96 48.97 2.894 51.98 14.94 40.99 6.947 24.89 18.99 38.9
4.315 26.98 17.95 31.96 41.91 39.94 63.91 29.99 44 0.9262 41.91 5.905 31.96 1.968 23.97 9.957 29.99
4.32 28.94 13.89 34.97 35.89 38.9 63.91 28.94 39.94 -2.084 34.97 7.989 27.9 2.894 17.95 12.97 20.96
4.325 26.98 8.915 36.93 29.99 38.9 59.97 30.91 39.94 3.936 28.94 14.94 27.9 7.989 17.95 20.96 20.96
4.33 28.94 15.98 39.94 25.93 35.89 51.98 33.92 45.96 17.95 29.99 22 29.99 15.98 22 35.89 23.97
4.335 26.98 24.89 44.92 31.96 35.89 48.97 36.93 52.91 29.99 36.93 28.94 34.97 23.97 29.99 55 27.9
4.34 26.98 33 42.95 45.96 35.89 46.89 38.9 50.94 35.89 38.9 26.98 38.9 27.9 35.89 66.92 29.99
4.345 18.99 27.9 35.89 53.95 27.9 39.94 29.99 37.98 35.89 37.98 17.95 37.98 22 31.96 61.94 22
4.35 8.915 16.9 23.97 53.95 11.93 26.98 15.98 8.915 27.9 25.93 8.915 34.97 11.93 15.98 49.9 7.989
4.355 -1.042 0.9262 13.89 41.91 0.9262 6.947 -2.084 -22.11 17.95 7.989 2.894 24.89 0 0.9262 33.92 -1.042
4.36 0.9262 -3.01 11.93 23.97 -11.11 -11.11 -5.094 -53.03 9.957 -3.01 3.936 13.89 -5.094 -19.1 22 -11.11
4.365 4.979 -1.042 22 13.89 -7.063 -24.08 -5.094 -61.02 11.93 -11.11 9.957 9.957 -9.031 -29.06 19.91 -15.05
4.37 16.9 9.957 33.92 15.98 5.905 -19.1 5.905 -41.1 19.91 -1.042 11.93 11.93 -7.063 -25.01 25.93 -13.08
4.375 22.92 19.91 44 27.9 25.93 -2.084 25.93 -5.094 27.9 11.93 7.989 17.95 -3.01 -9.031 35.89 -3.01
4.38 14.94 23.97 44 39.94 37.98 25.93 39.94 31.96 29.99 29.99 0.9262 23.97 -3.01 5.905 41.91 7.989
4.385 -1.042 13.89 29.99 45.96 33.92 49.9 37.98 61.94 25.93 39.94 -13.08 29.99 -11.11 22 37.98 23.97
4.39 -13.08 0.9262 11.93 39.94 15.98 59.97 25.93 71.9 15.98 37.98 -23.04 31.96 -23.04 29.99 27.9 35.89
4.395 -21.07 -13.08 0 27.9 0.9262 55.92 9.957 61.94 1.968 23.97 -27.09 31.96 -33.11 29.99 13.89 37.98
4.4 -17.02 -19.1 -2.084 19.91 -9.031 44 0.9262 41.91 -7.063 7.989 -21.07 27.9 -39.02 22 1.968 31.96
4.405 -5.094 -11.11 7.989 15.98 -5.094 27.9 -7.063 19.91 -17.02 0.9262 -13.08 25.93 -37.05 9.957 -1.042 19.91
4.41 2.894 0 19.91 15.98 1.968 15.98 -9.031 1.968 -23.04 -1.042 -5.094 29.99 -33.11 1.968 -3.01 11.93
4.415 11 15.98 27.9 17.95 11.93 7.989 -11.11 -3.01 -23.04 -2.084 -1.042 35.89 -25.01 1.968 -1.042 11.93
4.42 12.97 23.97 29.99 15.98 13.89 5.905 -11.11 -7.063 -19.1 3.936 -2.084 44 -21.07 7.989 -2.084 19.91
4.425 11 25.93 31.96 15.98 9.957 7.989 -9.031 0.9262 -9.031 11.93 0 45.96 -19.1 15.98 1.968 33.92
4.43 6.947 19.91 35.89 15.98 8.915 13.89 -3.01 9.957 -2.084 19.91 0 44 -17.02 22 7.989 46.89
4.435 2.894 11 44 19.91 14.94 19.91 3.936 26.98 11.93 26.98 1.968 31.96 -11.11 18.99 15.98 46.89
4.44 0.9262 1.968 49.9 19.91 27.9 25.93 17.95 37.98 17.95 27.9 1.968 17.95 -3.01 9.957 27.9 33.92
4.445 -1.042 1.968 49.9 15.98 46.89 29.99 27.9 38.9 17.95 26.98 2.894 8.915 1.968 1.968 40.99 16.9
4.45 0.9262 -4.052 40.99 6.947 55 27.9 30.91 24.89 13.89 20.96 -1.042 2.894 7.989 -8.105 55 0.9262
4.455 -3.01 -11.11 27.9 0.9262 51.98 19.91 23.97 3.936 7.989 11.93 0.9262 1.968 7.989 -13.08 61.94 -3.01
4.46 -3.01 -12.04 20.96 -2.084 44 9.957 16.9 -8.105 7.989 8.915 -1.042 8.915 4.979 -12.04 64.95 1.968
4.465 0.9262 -9.031 20.96 0 29.99 1.968 14.94 -17.02 13.89 9.957 2.894 12.97 0.9262 -7.063 64.95 9.957
4.47 0.9262 -7.063 31.96 3.936 23.97 -2.084 13.89 -19.1 22 17.95 3.936 15.98 -2.084 -9.031 61.94 22
4.475 6.947 0 44.92 12.97 30.91 2.894 20.96 -9.031 28.94 29.99 8.915 19.91 0.9262 -1.042 58.93 34.97
4.48 11 11 48.97 18.99 38.9 11 18.99 4.979 28.94 38.9 9.957 23.97 0.9262 2.894 57.89 45.96
4.485 8.915 15.98 45.96 13.89 45.96 22 17.95 23.97 22 39.94 1.968 29.99 -2.084 19.91 49.9 47.93
4.49 4.979 17.95 37.98 11.93 50.94 34.97 13.89 41.91 12.97 39.94 -1.042 36.93 1.968 39.94 41.91 48.97
4.495 -1.042 12.97 29.99 7.989 49.9 44.92 11 51.98 8.915 35.89 -4.052 41.91 -1.042 51.98 34.97 44
4.5 -1.042 5.905 27.9 11.93 41.91 51.98 9.957 57.89 7.989 33.92 -9.031 39.94 -3.01 55.92 25.93 35.89
4.505 2.894 6.947 35.89 23.97 37.98 55.92 19.91 53.95 8.915 37.98 -9.031 33.92 -1.042 52.91 25.93 28.94
4.51 2.894 12.97 42.95 34.97 36.93 55.92 24.89 44 11.93 39.94 -1.042 25.93 3.936 44.92 28.94 23.97
4.515 8.915 15.98 45.96 37.98 29.99 51.98 29.99 33.92 7.989 35.89 0.9262 19.91 3.936 33.92 31.96 23.97
4.52 11 17.95 44.92 39.94 25.93 40.99 29.99 22.92 5.905 30.91 0 16.9 3.936 25.93 33 28.94
4.525 11 18.99 40.99 28.94 16.9 28.94 22 11.93 5.905 19.91 0.9262 15.98 0 22 28.94 35.89
4.53 2.894 19.91 30.91 18.99 6.947 16.9 14.94 7.989 3.936 15.98 0 16.9 0 17.95 25.93 36.93
4.535 0.9262 22.92 24.89 8.915 -1.042 11 5.905 5.905 7.989 15.98 0 19.91 -1.042 13.89 24.89 37.98
4.54 -5.094 25.93 16.9 7.989 -3.01 7.989 0 12.97 11.93 22.92 -5.094 18.99 0.9262 13.89 28.94 34.97
4.545 -9.031 25.93 17.95 11.93 -1.042 17.95 -1.042 19.91 9.957 27.9 -7.063 17.95 -2.084 13.89 29.99 33.92
4.55 -3.01 20.96 26.98 22.92 6.947 33.92 1.968 25.93 11.93 25.93 -5.094 19.91 3.936 20.96 34.97 29.99
4.555 2.894 20.96 41.91 39.94 25.93 53.95 1.968 27.9 11 17.95 0.9262 22 6.947 30.91 29.99 26.98
4.56 20.96 25.93 59.97 51.98 44 61.94 11.93 23.97 7.989 5.905 9.957 25.93 9.957 35.89 29.99 17.95
4.565 38.9 44.92 77.92 61.94 59.97 64.95 24.89 17.95 16.9 0 22.92 27.9 15.98 41.91 34.97 11.93
4.57 52.91 65.99 93.9 67.96 64.95 58.93 31.96 13.89 26.98 3.936 31.96 26.98 22 44 44 6.947
4.575 55 69.93 93.9 57.89 61.94 44 33.92 11.93 35.89 9.957 33.92 22 22 35.89 55.92 5.905
4.58 46.89 58.93 86.95 48.97 55 33 26.98 16.9 38.9 20.96 33.92 11.93 22.92 30.91 65.99 11.93
4.585 36.93 35.89 74.91 40.99 48.97 24.89 16.9 22 33 22 26.98 7.989 22.92 19.91 62.98 16.9
4.59 26.98 17.95 65.99 37.98 47.93 22 9.957 25.93 17.95 15.98 22 7.989 19.91 11.93 51.98 22
4.595 26.98 23.97 64.95 40.99 51.98 25.93 8.915 29.99 1.968 9.957 22.92 14.94 22.92 11.93 38.9 25.93
4.6 28.94 40.99 66.92 44.92 57.89 33.92 8.915 24.89 0.9262 2.894 26.98 22.92 22.92 12.97 26.98 25.93
4.605 30.91 57.89 61.94 37.98 45.96 31.96 9.957 19.91 3.936 -2.084 23.97 23.97 19.91 11.93 19.91 19.91
4.61 26.98 60.9 55 26.98 28.94 23.97 14.94 16.9 17.95 0.9262 22.92 22.92 15.98 12.97 18.99 18.99
4.615 18.99 42.95 39.94 7.989 8.915 11.93 17.95 14.94 29.99 4.979 18.99 11 11.93 11 20.96 11
4.62 12.97 11.93 29.99 0.9262 0.9262 1.968 25.93 13.89 35.89 7.989 11.93 3.936 9.957 7.989 22 9.957
4.625 8.915 0 31.96 -2.084 4.979 0 35.89 20.96 35.89 16.9 9.957 3.936 7.989 11 27.9 12.97
4.63 12.97 -2.084 44 15.98 24.89 9.957 47.93 29.99 33.92 25.93 9.957 13.89 11.93 22 37.98 22.92
4.635 16.9 22 61.94 39.94 53.95 27.9 53.95 41.91 31.96 37.98 13.89 27.9 13.89 39.94 44 37.98
4.64 18.99 49.9 71.9 57.89 71.9 45.96 47.93 49.9 31.96 41.91 13.89 37.98 11.93 57.89 41.91 47.93
4.645 12.97 61.94 67.96 57.89 67.96 57.89 29.99 47.93 27.9 33.92 9.957 41.91 3.936 67.96 29.99 45.96
4.65 8.915 59.97 53.95 47.93 41.91 53.95 1.968 33.92 13.89 17.95 3.936 37.98 -1.042 65.99 9.957 33.92
4.655 6.947 47.93 37.98 33.92 7.989 37.98 -21.07 13.89 0.9262 0 -2.084 31.96 -9.031 53.95 -3.01 15.98
4.66 11 41.91 33.92 27.9 -15.05 19.91 -37.05 -1.042 -13.08 -5.094 0 27.9 -9.031 39.94 -11.11 1.968
4.665 18.99 45.96 37.98 31.96 -23.04 7.989 -39.02 -11.11 -17.02 -5.094 5.905 25.93 0.9262 33.92 -5.094 -1.042
4.67 22.92 53.95 49.9 39.94 -9.031 9.957 -23.04 -9.031 -9.031 -2.084 11.93 25.93 7.989 37.98 7.989 -2.084
4.675 20.96 51.98 55.92 39.94 9.957 19.91 0.9262 0 1.968 5.905 17.95 22 17.95 47.93 23.97 7.989
4.68 11 33.92 55.92 27.9 27.9 33.92 15.98 17.95 13.89 11.93 17.95 15.98 22 55.92 33.92 15.98
4.685 -1.042 11.93 51.98 7.989 33.92 41.91 25.93 31.96 15.98 11.93 17.95 11.93 22 55.92 31.96 22
4.69 0.9262 -1.042 50.94 0.9262 25.93 35.89 23.97 31.96 11.93 5.905 15.98 11.93 19.91 47.93 25.93 19.91
4.695 -1.042 8.915 58.93 0 13.89 22.92 15.98 23.97 7.989 1.968 15.98 15.98 17.95 37.98 22 15.98
4.7 8.915 31.96 67.96 5.905 5.905 9.957 7.989 9.957 5.905 -2.084 19.91 23.97 17.95 27.9 22 5.905
4.705 18.99 58.93 74.91 18.99 3.936 0.9262 6.947 -2.084 9.957 -3.01 22 27.9 18.99 25.93 28.94 -2.084
4.71 16.9 66.92 69.93 20.96 3.936 2.894 6.947 -4.052 11.93 -6.021 17.95 27.9 16.9 27.9 28.94 -1.042
4.715 8.915 49.9 53.95 11.93 7.989 5.905 9.957 -5.094 9.957 -7.063 15.98 23.97 17.95 35.89 25.93 0.9262
4.72 0.9262 22 39.94 4.979 9.957 8.915 14.94 -1.042 6.947 0 13.89 19.91 24.89 41.91 22.92 7.989
4.725 2.894 3.936 39.94 3.936 11.93 13.89 18.99 11 4.979 8.915 19.91 19.91 30.91 46.89 18.99 19.91
4.73 8.915 9.957 53.95 9.957 15.98 11.93 23.97 22 5.905 19.91 29.99 22 35.89 44 17.95 25.93
4.735 24.89 33 78.96 23.97 19.91 11.93 31.96 30.91 12.97 22.92 44.92 27.9 44.92 33 25.93 23.97
4.74 44.92 57.89 97.95 34.97 23.97 14.94 33.92 31.96 20.96 22 52.91 29.99 47.93 24.89 33.92 15.98
4.745 55 73.98 105.9 33.92 25.93 13.89 33.92 25.93 23.97 11.93 55.92 29.99 47.93 17.95 35.89 5.905
4.75 55 73.98 104 33.92 22.92 17.95 34.97 19.91 25.93 5.905 50.94 29.99 44.92 22.92 34.97 3.936
4.755 55 65.99 93.9 30.91 20.96 14.94 31.96 12.97 22 -1.042 40.99 27.9 40.99 31.96 28.94 6.947
4.76 46.89 57.89 87.99 29.99 13.89 11.93 23.97 3.936 19.91 -7.063 29.99 25.93 31.96 35.89 19.91 13.89
4.765 44.92 51.98 82.9 31.96 9.957 3.936 15.98 -3.01 12.97 -21.07 20.96 22 28.94 29.99 14.94 11
4.77 38.9 50.94 79.89 28.94 1.968 -4.052 5.905 -15.05 4.979 -36.01 15.98 16.9 19.91 13.89 14.94 1.968
4.775 30.91 44 70.97 16.9 -2.084 -18.06 1.968 -24.08 -2.084 -47.01 14.94 8.915 16.9 -2.084 15.98 -6.021
4.78 20.96 36.93 59.97 4.979 -11.11 -28.02 -3.01 -29.06 -10.07 -48.05 13.89 2.894 13.89 -13.08 14.94 -17.02
4.785 14.94 27.9 42.95 0.9262 -17.02 -33.11 -7.063 -25.01 -16.09 -37.05 14.94 3.936 12.97 -7.063 14.94 -12.04
4.79 6.947 25.93 31.96 0.9262 -23.04 -27.09 -7.063 -19.1 -17.02 -23.04 13.89 9.957 9.957 1.968 9.957 -3.01
4.795 4.979 27.9 29.99 -1.042 -22.11 -12.04 -7.063 -14.01 -17.02 -14.01 12.97 11.93 11 13.89 11 -1.042
4.8 4.979 27.9 33.92 1.968 -20.03 -3.01 -6.021 -19.1 -13.08 -19.1 12.97 11.93 11 8.915 11 -2.084
4.805 6.947 23.97 45.96 -2.084 -17.02 -9.031 -5.094 -29.06 -17.02 -31.03 9.957 5.905 11.93 -1.042 11.93 -3.01
4.81 6.947 17.95 55.92 0 -17.02 -22.11 -3.01 -35.08 -16.09 -37.05 8.915 3.936 15.98 -16.09 22 -11.11
4.815 6.947 14.94 64.95 -1.042 -19.1 -39.02 -7.063 -38.09 -16.09 -38.09 4.979 7.989 8.915 -22.11 22 -11.11
4.82 6.947 17.95 65.99 1.968 -27.09 -49.09 -19.1 -35.08 -19.1 -31.03 0 15.98 0 -15.05 13.89 -5.094
4.825 8.915 25.93 57.89 9.957 -41.1 -41.1 -28.02 -22.11 -16.09 -18.06 -1.042 25.93 -10.07 1.968 0.9262 0
4.83 4.979 31.96 44 12.97 -57.08 -28.02 -38.09 -8.105 -14.01 -12.04 -9.031 29.99 -24.08 7.989 -8.105 3.936
4.835 -3.01 25.93 25.93 7.989 -67.04 -13.08 -43.07 0.9262 -13.08 -9.031 -15.05 25.93 -35.08 13.89 -21.07 1.968
4.84 -13.08 16.9 13.89 2.894 -69 1.968 -40.06 2.894 -9.031 -10.07 -17.02 19.91 -36.01 11.93 -20.03 0
4.845 -17.02 11 11 2.894 -63.1 6.947 -28.02 5.905 -5.094 -9.031 -15.05 13.89 -30.1 7.989 -16.09 3.936
4.85 -13.08 17.95 27.9 9.957 -43.07 7.989 -19.1 5.905 -5.094 -7.063 -3.01 19.91 -17.02 11.93 -9.031 9.957
4.855 2.894 44.92 62.98 33 -13.08 12.97 -7.063 7.989 -11.11 -5.094 7.989 25.93 -1.042 17.95 0.9262 13.89
4.86 28.94 74.91 104.9 57.89 9.957 17.95 0.9262 3.936 -15.05 -5.094 22 31.96 7.989 19.91 1.968 15.98
4.865 44.92 97.95 127.9 75.95 35.89 19.91 1.968 1.968 -15.05 -5.094 27.9 31.96 17.95 17.95 7.989 11.93
4.87 44.92 95.98 129 77.92 45.96 19.91 5.905 -2.084 -9.031 -5.094 25.93 27.9 22 11.93 15.98 7.989
4.875 28.94 75.95 101.9 67.96 37.98 13.89 9.957 0.9262 -2.084 -5.094 15.98 25.93 15.98 9.957 22 13.89
4.88 11 49.9 63.91 45.96 11.93 1.968 3.936 -3.01 7.989 -1.042 5.905 27.9 3.936 11.93 23.97 23.97
4.885 2.894 33.92 31.96 22 -19.1 -7.063 -3.01 -5.094 7.989 -2.084 0 29.99 -7.063 17.95 15.98 33.92
4.89 2.894 29.99 17.95 -2.084 -51.06 -17.02 -21.07 -5.094 0 0 1.968 29.99 -17.02 23.97 3.936 33.92
4.895 6.947 31.96 22 -13.08 -67.04 -21.07 -35.08 -1.042 -7.063 0 5.905 19.91 -21.07 22 -1.042 22
4.9 0.9262 27.9 39.94 -21.07 -67.04 -15.05 -41.1 1.968 -17.02 -1.042 5.905 7.989 -17.02 15.98 -5.094 7.989
4.905 -11.11 13.89 53.95 -17.02 -53.03 -5.094 -35.08 11.93 -21.07 -9.031 0 -2.084 -11.11 9.957 -1.042 0
4.91 -27.09 1.968 61.94 -3.01 -33.11 -2.084 -25.01 13.89 -21.07 -19.1 -5.094 -2.084 -5.094 7.989 0 1.968
4.915 -33.11 3.936 63.91 11.93 -15.05 3.936 -17.02 9.957 -21.07 -27.09 -13.08 7.989 -3.01 11.93 0 7.989
4.92 -21.07 27.9 61.94 29.99 -2.084 1.968 -11.11 0 -21.07 -31.03 -9.031 23.97 -1.042 17.95 -1.042 11.93
4.925 2.894 65.99 63.91 41.91 -1.042 0 -9.031 -1.042 -15.05 -23.04 0.9262 39.94 -1.042 22 -7.063 9.957
4.93 33 97.95 67.96 47.93 1.968 1.968 -3.01 0.9262 -5.094 -9.031 7.989 47.93 -1.042 25.93 -11.11 5.905
4.935 52.91 113.9 75.95 51.98 6.947 11.93 5.905 11.93 5.905 6.947 15.98 51.98 -1.042 27.9 -5.094 6.947
4.94 58.93 107.9 81.97 53.95 8.915 29.99 17.95 33.92 23.97 26.98 14.94 52.91 -3.01 33 0 16.9
4.945 52.91 93.9 83.94 55.92 7.989 45.96 29.99 51.98 35.89 33.92 3.936 47.93 -3.01 33.92 7.989 23.97
4.95 42.95 86.95 86.95 57.89 5.905 55.92 31.96 58.93 35.89 33 0.9262 44.92 -3.01 36.93 11.93 30.91
4.955 38.9 84.98 90.89 57.89 1.968 53.95 25.93 50.94 23.97 20.96 2.894 40.99 1.968 36.93 15.98 26.98
4.96 34.97 77.92 89.96 51.98 -2.084 45.96 17.95 31.96 13.89 5.905 13.89 35.89 19.91 35.89 19.91 19.91
4.965 26.98 66.92 90.89 41.91 1.968 34.97 9.957 14.94 5.905 0 28.94 36.93 37.98 38.9 25.93 19.91
4.97 16.9 46.89 88.92 35.89 0 24.89 13.89 2.894 5.905 -2.084 40.99 35.89 52.91 42.95 35.89 23.97
4.975 8.915 27.9 83.94 31.96 1.968 17.95 17.95 0.9262 7.989 1.968 41.91 31.96 55.92 39.94 44 31.96
4.98 2.894 25.93 79.89 28.94 2.894 12.97 19.91 -1.042 9.957 0.9262 35.89 29.99 50.94 31.96 45.96 36.93
4.985 6.947 35.89 69.93 22.92 -1.042 2.894 11.93 -9.031 5.905 -3.01 30.91 28.94 34.97 22 39.94 31.96
4.99 11 53.95 67.96 17.95 -3.01 -5.094 1.968 -17.02 -2.084 -21.07 23.97 25.93 19.91 11.93 35.89 19.91
4.995 20.96 66.92 66.92 16.9 -9.031 -11.11 -3.01 -20.03 0 -33.11 25.93 31.96 11 11.93 34.97 13.89
5 28.94 64.95 65.99 18.99 -20.03 -11.11 -7.063 -13.08 -2.084 -36.01 28.94 36.93 11.93 18.99 36.93 11.93
5.005 26.98 55.92 65.99 25.93 -25.01 -3.01 -3.01 -2.084 0 -27.09 27.9 45.96 13.89 29.99 39.94 17.95
5.01 24.89 46.89 72.94 39.94 -19.1 7.989 7.989 18.99 11.93 -8.105 25.93 49.9 22.92 45.96 45.96 25.93
5.015 24.89 48.97 81.97 56.96 -2.084 26.98 27.9 35.89 23.97 5.905 22 55 33 45.96 50.94 23.97
5.02 30.91 61.94 97.95 73.98 15.98 42.95 51.98 44 33 9.957 18.99 52.91 35.89 45.96 55.92 24.89
5.025 36.93 74.91 110 82.9 42.95 55 69.93 44 37.98 11.93 17.95 48.97 40.99 44 56.96 19.91
5.03 38.9 80.93 121 85.91 63.91 60.9 79.89 40.99 39.94 4.979 13.89 41.91 38.9 44 55.92 22
5.035 38.9 71.9 119.9 79.89 71.9 63.91 77.92 35.89 29.99 -2.084 9.957 35.89 29.99 39.94 45.96 17.95
5.04 30.91 56.96 112 64.95 66.92 57.89 63.91 33.92 22.92 -1.042 4.979 26.98 19.91 34.97 36.93 15.98
5.045 18.99 46.89 101 46.89 44 45.96 39.94 28.94 11 1.968 0 19.91 2.894 22 24.89 11.93
5.05 6.947 44 87.99 27.9 15.98 23.97 13.89 13.89 1.968 -2.084 0.9262 11.93 -3.01 3.936 15.98 11.93
5.055 2.894 49.9 73.98 12.97 -2.084 2.894 -3.01 -2.084 0.9262 1.968 1.968 14.94 -10.07 -5.094 9.957 17.95
5.06 -1.042 47.93 63.91 2.894 -18.06 -12.04 -17.02 -9.031 0.9262 1.968 0 11.93 -8.105 -17.02 5.905 20.96
5.065 -9.031 35.89 45.96 -1.042 -25.01 -29.06 -21.07 -19.1 0.9262 0.9262 1.968 13.89 -3.01 -21.07 3.936 22
5.07 -15.05 14.94 33 -5.094 -29.06 -40.06 -21.07 -24.08 -1.042 -2.084 0.9262 11.93 1.968 -22.11 -2.084 19.91
5.075 -23.04 0 22.92 -17.02 -36.01 -50.02 -19.1 -26.05 -5.094 0 0.9262 6.947 0.9262 -18.06 -3.01 11.93
5.08 -25.01 -9.031 15.98 -27.09 -47.01 -57.08 -21.07 -27.09 -9.031 0 0 5.905 -2.084 -13.08 -1.042 5.905
5.085 -21.07 -1.042 20.96 -29.06 -55.11 -63.1 -19.1 -22.11 -11.11 0.9262 2.894 12.97 -2.084 -2.084 -2.084 8.915
5.09 -15.05 20.96 28.94 -23.04 -57.08 -59.05 -17.02 -18.06 -9.031 2.894 2.894 20.96 1.968 2.894 7.989 14.94
5.095 -15.05 33.92 37.98 -7.063 -45.04 -43.07 -11.11 -19.1 -5.094 0 0 25.93 0 9.957 11.93 22
5.1 -17.02 33.92 44 7.989 -28.02 -29.06 -9.031 -19.1 -3.01 -1.042 0 26.98 -2.084 11 11.93 22.92
5.105 -23.04 19.91 47.93 19.91 -14.01 -13.08 -7.063 -21.07 -5.094 -4.052 -9.031 15.98 -5.094 -2.084 5.905 12.97
5.11 -29.06 1.968 45.96 17.95 -7.063 -11.11 -7.063 -25.01 -9.031 -11.11 -15.05 -2.084 -13.08 -13.08 1.968 -3.01
5.115 -31.03 -5.094 44 3.936 -8.105 -17.02 -7.063 -29.06 -7.063 -13.08 -17.02 -9.031 -15.05 -33.11 3.936 -17.02
5.12 -31.03 -5.094 41.91 -7.063 -12.04 -31.03 -3.01 -29.06 -3.01 -13.08 -13.08 -11.11 -13.08 -43.07 9.957 -17.02
5.125 -29.06 0 39.94 -19.1 -21.07 -43.07 0.9262 -27.09 0.9262 -15.05 -7.063 -7.063 -9.031 -47.01 15.98 -9.031
5.13 -25.01 11.93 39.94 -17.02 -23.04 -47.01 -2.084 -25.01 -2.084 -17.02 -3.01 0 -9.031 -43.07 15.98 -1.042
5.135 -19.1 22 44 -3.01 -21.07 -41.1 -1.042 -27.09 -3.01 -27.09 0.9262 7.989 -9.031 -37.05 7.989 -1.042
5.14 -11.11 29.99 51.98 13.89 -17.02 -29.06 -7.063 -31.03 -15.05 -35.08 1.968 15.98 -9.031 -29.06 0.9262 -11.11
5.145 0.9262 39.94 61.94 37.98 -15.05 -13.08 -9.031 -29.06 -29.06 -41.1 9.957 19.91 -3.01 -19.1 -5.094 -23.04
5.15 8.915 53.95 75.95 55.92 -11.11 1.968 -5.094 -19.1 -33.11 -37.05 17.95 23.97 3.936 -5.094 -3.01 -27.09
5.155 16.9 61.94 85.91 63.91 -3.01 19.91 1.968 -3.01 -29.06 -29.06 25.93 25.93 15.98 3.936 3.936 -15.05
5.16 20.96 57.89 87.99 61.94 0 31.96 13.89 11.93 -13.08 -17.02 29.99 23.97 25.93 13.89 15.98 1.968
5.165 16.9 41.91 79.89 51.98 3.936 37.98 22 22 0 -7.063 27.9 15.98 27.9 13.89 27.9 19.91
5.17 11 23.97 63.91 33.92 0 25.93 22 15.98 15.98 -3.01 23.97 1.968 22 0 35.89 23.97
5.175 8.915 11.93 47.93 22 -5.094 0 15.98 0 29.99 -2.084 19.91 -7.063 13.89 -17.02 41.91 15.98
5.18 14.94 17.95 41.91 19.91 -13.08 -24.08 14.94 -14.01 41.91 5.905 17.95 -11.11 9.957 -35.08 47.93 3.936
5.185 24.89 35.89 49.9 29.99 -13.08 -44.11 14.94 -24.08 53.95 17.95 22 -7.063 11.93 -41.1 55.92 0
5.19 42.95 53.95 63.91 47.93 -1.042 -45.04 23.97 -15.05 63.91 35.89 23.97 1.968 19.91 -27.09 59.97 17.95
5.195 52.91 62.98 83.94 67.96 13.89 -18.06 38.9 8.915 67.96 51.98 25.93 17.95 27.9 -3.01 59.97 41.91
5.2 55 60.9 97.95 79.89 35.89 14.94 48.97 42.95 63.91 63.91 25.93 31.96 35.89 22 57.89 69.93
5.205 48.97 51.98 97.95 81.97 49.9 51.98 49.9 69.93 53.95 65.99 19.91 37.98 33.92 45.96 53.95 83.94
5.21 36.93 48.97 89.96 73.98 53.95 75.95 48.97 85.91 44.92 63.91 15.98 38.9 28.94 58.93 51.98 77.92
5.215 24.89 48.97 79.89 59.97 49.9 81.97 45.96 85.91 36.93 53.95 9.957 38.9 20.96 58.93 52.91 63.91
5.22 14.94 47.93 69.93 41.91 44 69.93 39.94 75.95 31.96 44 1.968 35.89 11.93 49.9 55.92 49.9
5.225 11 44.92 61.94 26.98 33.92 52.91 35.89 60.9 33 30.91 0 34.97 4.979 34.97 56.96 37.98
5.23 6.947 33.92 55.92 14.94 23.97 30.91 26.98 42.95 28.94 14.94 0 30.91 2.894 14.94 50.94 31.96
5.235 2.894 17.95 47.93 7.989 7.989 3.936 7.989 15.98 17.95 0.9262 1.968 23.97 0 -3.01 37.98 23.97
5.24 0.9262 11 41.91 8.915 -3.01 -20.03 -9.031 -10.07 1.968 -16.09 3.936 17.95 1.968 -19.1 24.89 9.957
5.245 0.9262 12.97 42.95 14.94 -19.1 -43.07 -27.09 -35.08 -8.105 -31.03 4.979 18.99 -1.042 -33.11 15.98 0.9262
5.25 -1.042 23.97 47.93 25.93 -23.04 -53.03 -35.08 -49.09 -19.1 -37.05 5.905 17.95 0.9262 -35.08 11.93 -7.063
5.255 2.894 40.99 56.96 38.9 -17.02 -44.11 -24.08 -41.1 -16.09 -30.1 6.947 24.89 2.894 -20.03 11.93 0
5.26 0.9262 47.93 65.99 50.94 -1.042 -23.04 -6.021 -17.02 -8.105 -20.03 7.989 28.94 11.93 -3.01 14.94 7.989
5.265 4.979 44.92 74.91 55.92 7.989 1.968 7.989 7.989 1.968 -3.01 11 30.91 19.91 11 14.94 23.97
5.27 6.947 35.89 75.95 60.9 15.98 22 14.94 23.97 2.894 2.894 13.89 26.98 22 15.98 12.97 31.96
5.275 8.915 26.98 76.99 62.98 17.95 33 11 29.99 2.894 11 14.94 24.89 22.92 18.99 15.98 28.94
5.28 8.915 23.97 79.89 67.96 19.91 35.89 5.905 25.93 3.936 17.95 15.98 27.9 19.91 17.95 17.95 22
5.285 11 33 88.92 82.9 23.97 37.98 7.989 27.9 8.915 29.99 22.92 34.97 22 22 31.96 25.93
5.29 20.96 44.92 99.92 101 33.92 42.95 15.98 30.91 17.95 33 25.93 45.96 29.99 31.96 42.95 33.92
5.295 26.98 55.92 113.9 113.9 39.94 45.96 25.93 35.89 25.93 33.92 25.93 49.9 29.99 33.92 47.93 44
5.3 30.91 59.97 119.9 121 44 44.92 30.91 36.93 26.98 28.94 23.97 44.92 28.94 30.91 40.99 39.94
5.305 33 48.97 115.9 115 39.94 30.91 27.9 28.94 18.99 18.99 19.91 34.97 20.96 16.9 24.89 27.9
5.31 20.96 33.92 104 101.9 33.92 7.989 22 11.93 9.957 5.905 11.93 23.97 13.89 1.968 11.93 11.93
5.315 6.947 22.92 91.93 89.96 29.99 -1.042 19.91 0 2.894 0 7.989 20.96 11 0 6.947 5.905
5.32 0.9262 16.9 81.97 81.97 29.99 -5.094 22.92 1.968 4.979 3.936 7.989 24.89 11 0.9262 9.957 13.89
5.325 -5.094 17.95 73.98 81.97 29.99 0.9262 25.93 5.905 11.93 13.89 9.957 27.9 13.89 13.89 22 29.99
5.33 -1.042 22.92 69.93 81.97 25.93 11 30.91 20.96 15.98 23.97 7.989 31.96 15.98 27.9 33.92 41.91
5.335 0.9262 30.91 65.99 79.89 19.91 22.92 22.92 26.98 7.989 27.9 7.989 31.96 9.957 29.99 31.96 44
5.34 11 37.98 63.91 77.92 5.905 17.95 3.936 17.95 -7.063 25.93 3.936 27.9 5.905 19.91 22 31.96
5.345 16.9 45.96 61.94 73.98 -5.094 2.894 -18.06 1.968 -29.06 17.95 1.968 23.97 0.9262 -2.084 1.968 13.89
5.35 20.96 51.98 53.95 71.9 -23.04 -16.09 -48.05 -22.11 -49.09 1.968 0.9262 23.97 -11.11 -17.02 -15.05 0.9262
5.355 16.9 47.93 45.96 67.96 -41.1 -39.02 -75.02 -47.01 -59.05 -9.031 -7.063 23.97 -23.04 -33.11 -35.08 -9.031
5.36 8.915 31.96 33.92 61.94 -57.08 -55.11 -91 -63.1 -59.05 -25.01 -19.1 17.95 -39.02 -37.05 -49.09 -17.02
5.365 -1.042 11.93 27.9 53.95 -67.04 -59.05 -93.09 -67.04 -51.06 -37.05 -31.03 9.957 -51.06 -37.05 -57.08 -23.04
5.37 -7.063 -3.01 27.9 45.96 -63.1 -53.03 -77.11 -57.08 -39.02 -37.05 -37.05 1.968 -53.03 -29.06 -55.11 -27.09
5.375 -13.08 -11.11 35.89 37.98 -45.04 -39.02 -49.09 -39.02 -23.04 -29.06 -33.11 0 -45.04 -21.07 -41.1 -23.04
5.38 -13.08 -7.063 44 35.89 -21.07 -23.04 -15.05 -19.1 -5.094 -13.08 -27.09 1.968 -31.03 -13.08 -19.1 -11.11
5.385 -9.031 1.968 45.96 37.98 -1.042 -11.11 7.989 -1.042 5.905 0.9262 -21.07 7.989 -17.02 -5.094 0 3.936
5.39 -5.094 11.93 41.91 39.94 1.968 -5.094 23.97 0 15.98 5.905 -17.02 11.93 -9.031 -3.01 17.95 22
5.395 -1.042 13.89 33.92 41.91 -2.084 -7.063 27.9 -1.042 19.91 7.989 -15.05 9.957 -5.094 -5.094 29.99 29.99
5.4 -3.01 9.957 27.9 41.91 -7.063 -15.05 25.93 -13.08 19.91 3.936 -11.11 1.968 -3.01 -13.08 35.89 25.93
5.405 -7.063 0 29.99 39.94 -15.05 -25.01 22 -27.09 15.98 0.9262 -1.042 -3.01 -2.084 -25.01 35.89 11.93
5.41 -13.08 -5.094 33.92 33.92 -20.03 -35.08 15.98 -35.08 9.957 -6.021 3.936 -11.11 3.936 -37.05 33.92 -2.084
5.415 -15.05 -13.08 39.94 27.9 -24.08 -41.1 1.968 -34.04 1.968 -10.07 15.98 -15.05 9.957 -43.07 27.9 1.968
5.42 -13.08 -15.05 41.91 17.95 -29.06 -47.01 -7.063 -31.03 0.9262 -13.08 22 -13.08 11.93 -43.07 22 5.905
5.425 -3.01 -12.04 44 11.93 -30.1 -49.09 -19.1 -22.11 -5.094 -10.07 25.93 -11.11 13.89 -35.08 15.98 24.89
5.43 0.9262 0 49.9 9.957 -24.08 -47.01 -18.06 -16.09 -3.01 -6.021 23.97 -6.021 13.89 -26.05 13.89 36.93
5.435 14.94 9.957 63.91 15.98 -11.11 -39.02 -7.063 -17.02 0.9262 -7.063 22 -3.01 15.98 -15.05 13.89 35.89
5.44 22.92 26.98 78.96 30.91 5.905 -29.06 4.979 -17.02 5.905 -11.11 12.97 -1.042 17.95 -8.105 13.89 27.9
5.445 26.98 38.9 84.98 48.97 22 -15.05 12.97 -23.04 11.93 -17.02 0.9262 11 9.957 -4.052 11.93 9.957
5.45 24.89 44 79.89 67.96 25.93 -5.094 9.957 -29.06 13.89 -29.06 -13.08 27.9 -2.084 -1.042 5.905 -1.042
5.455 26.98 49.9 68.89 84.98 24.89 1.968 0.9262 -31.03 8.915 -28.02 -22.11 44.92 -12.04 0.9262 0 0
5.46 30.91 53.95 60.9 102.9 26.98 15.98 -2.084 -20.03 2.894 -18.06 -20.03 52.91 -18.06 8.915 -4.052 2.894
5.465 36.93 57.89 67.96 118 35.89 31.96 -3.01 -7.063 0 -9.031 -5.094 49.9 -13.08 17.95 -5.094 11.93
5.47 48.97 58.93 94.94 129.9 55 45.96 5.905 7.989 2.894 0.9262 15.98 37.98 -1.042 19.91 -1.042 19.91
5.475 55 55 119.9 127.9 74.91 51.98 18.99 20.96 6.947 0.9262 37.98 24.89 18.99 15.98 8.915 16.9
5.48 58.93 45.96 129.9 110 77.92 49.9 19.91 19.91 9.957 -2.084 47.93 7.989 29.99 1.968 9.957 7.989
5.485 58.93 36.93 123 78.96 65.99 36.93 13.89 16.9 3.936 1.968 50.94 3.936 31.96 -3.01 7.989 2.894
5.49 55 27.9 98.99 47.93 41.91 22.92 1.968 13.89 -2.084 0 45.96 -1.042 24.89 -14.01 -2.084 3.936
5.495 48.97 23.97 67.96 22 19.91 9.957 -7.063 11.93 -7.063 3.936 31.96 -3.01 13.89 -15.05 -5.094 13.89
5.5 38.9 16.9 42.95 9.957 7.989 3.936 -9.031 19.91 -6.021 16.9 19.91 -9.031 4.979 -15.05 -8.105 29.99
5.505 16.9 -1.042 26.98 6.947 1.968 1.968 0.9262 27.9 0.9262 25.93 2.894 -19.1 -2.084 -19.1 -13.08 37.98
5.51 -7.063 -22.11 15.98 4.979 0 -2.084 11 29.99 18.99 33 -8.105 -28.02 -14.01 -27.09 -13.08 38.9
5.515 -27.09 -46.08 11 0.9262 -5.094 -1.042 17.95 31.96 30.91 35.89 -22.11 -33.11 -24.08 -35.08 -15.05 33.92
5.52 -37.05 -56.04 8.915 -3.01 -15.05 -9.031 19.91 23.97 34.97 34.97 -29.06 -27.09 -36.01 -39.02 -14.01 29.99
5.525 -27.09 -49.09 7.989 -13.08 -29.06 -19.1 15.98 13.89 23.97 29.99 -33.11 -15.05 -43.07 -37.05 -15.05 27.9
5.53 -3.01 -23.04 12.97 -11.11 -33.11 -24.08 11 9.957 8.915 29.99 -33.11 -6.021 -44.11 -24.08 -13.08 37.98
5.535 12.97 -1.042 14.94 -6.021 -33.11 -24.08 7.989 6.947 0 25.93 -46.08 0.9262 -45.04 -11.11 -11.11 46.89
5.54 20.96 9.957 11.93 0 -27.09 -19.1 5.905 3.936 0.9262 27.9 -63.1 0.9262 -47.01 -7.063 -15.05 47.93
5.545 6.947 4.979 7.989 13.89 -18.06 -13.08 6.947 4.979 8.915 34.97 -81.05 0 -50.02 -7.063 -14.01 44.92
5.55 -7.063 -4.052 1.968 22 -12.04 -5.094 9.957 1.968 26.98 44 -101.1 -1.042 -54.07 -11.11 -14.01 33.92
5.555 -25.01 -19.1 -7.063 23.97 -13.08 -2.084 7.989 -2.084 39.94 49.9 -113 -3.01 -53.03 -11.11 -9.031 23.97
5.56 -27.09 -11.11 -12.04 26.98 -14.01 1.968 0.9262 -4.052 42.95 46.89 -114 1.968 -52.1 -10.07 0 22.92
5.565 -13.08 3.936 -14.01 30.91 -26.05 0.9262 -8.105 -15.05 30.91 38.9 -102 0.9262 -46.08 -8.105 2.894 26.98
5.57 0.9262 27.9 -9.031 35.89 -41.1 -5.094 -31.03 -23.04 9.957 27.9 -75.02 3.936 -45.04 -9.031 -2.084 29.99
5.575 24.89 50.94 0.9262 44.92 -53.03 -13.08 -52.1 -29.06 -5.094 23.97 -44.11 11 -37.05 -6.021 -9.031 31.96
5.58 44.92 60.9 24.89 55 -59.05 -15.05 -68.08 -29.06 -23.04 25.93 -10.07 18.99 -31.03 -4.052 -31.03 31.96
5.585 60.9 61.94 51.98 67.96 -55.11 -5.094 -73.06 -23.04 -39.02 27.9 9.957 27.9 -25.01 0 -51.06 29.99
5.59 70.97 58.93 79.89 81.97 -34.04 5.905 -68.08 -4.052 -51.06 34.97 23.97 36.93 -17.02 14.94 -67.04 38.9
5.595 76.99 58.93 97.95 93.9 -10.07 27.9 -57.08 14.94 -59.05 36.93 23.97 41.91 -9.031 27.9 -69 50.94
5.6 70.97 55.92 101.9 95.98 1.968 45.96 -43.07 35.89 -55.11 37.98 13.89 41.91 -5.094 37.98 -59.05 59.97
5.605 56.96 49.9 85.91 83.94 12.97 55.92 -29.06 56.96 -37.05 44.92 1.968 31.96 -5.094 37.98 -37.05 68.89
5.61 36.93 33.92 55.92 57.89 11 53.95 -17.02 69.93 -7.063 55 -5.094 19.91 -5.094 29.99 -13.08 65.99
5.615 11 13.89 17.95 25.93 -1.042 41.91 -7.063 73.98 23.97 65.99 -13.08 7.989 -5.094 15.98 3.936 55.92
5.62 -7.063 -1.042 -9.031 0.9262 -21.07 22 -3.01 67.96 49.9 71.9 -19.1 -2.084 -5.094 0 22 37.98
5.625 -23.04 -11.11 -25.01 -19.1 -37.05 0 -3.01 53.95 63.91 67.96 -15.05 -1.042 -3.01 -9.031 35.89 23.97
5.63 -27.09 -11.11 -19.1 -27.09 -41.1 -15.05 -3.01 35.89 63.91 57.89 -5.094 -3.01 0 -21.07 49.9 15.98
5.635 -23.04 -7.063 0 -27.09 -31.03 -31.03 -2.084 17.95 57.89 49.9 3.936 -5.094 11.93 -27.09 63.91 22
5.64 -15.05 -5.094 29.99 -25.01 -11.11 -39.02 13.89 5.905 53.95 47.93 17.95 -9.031 22 -27.09 75.95 33.92
5.645 -7.063 -7.063 49.9 -23.04 1.968 -39.02 29.99 0 51.98 49.9 17.95 -11.11 25.93 -21.07 81.97 47.93
5.65 -5.094 -11.11 51.98 -21.07 5.905 -35.08 37.98 0.9262 49.9 53.95 3.936 -11.11 17.95 -11.11 71.9 57.89
5.655 -9.031 -13.08 33.92 -15.05 -1.042 -27.09 30.91 -5.094 41.91 55.92 -19.1 -3.01 -2.084 0.9262 53.95 57.89
5.66 -17.02 -9.031 6.947 -5.094 -21.07 -21.07 14.94 -11.11 31.96 51.98 -49.09 3.936 -19.1 7.989 33 53.95
5.665 -23.04 -1.042 -13.08 -2.084 -43.07 -19.1 0.9262 -19.1 23.97 45.96 -71.09 11.93 -37.05 13.89 19.91 49.9
5.67 -29.06 -2.084 -26.05 0.9262 -51.06 -21.07 -8.105 -24.08 24.89 39.94 -77.11 11.93 -44.11 13.89 18.99 47.93
5.675 -31.03 1.968 -28.02 -2.084 -49.09 -28.02 -8.105 -26.05 26.98 35.89 -71.09 11.93 -42.03 9.957 24.89 51.98
5.68 -31.03 -2.084 -21.07 -9.031 -41.1 -35.08 -9.031 -27.09 23.97 29.99 -57.08 9.957 -37.05 5.905 23.97 51.98
5.685 -21.07 4.979 0 -4.052 -33.11 -40.06 -13.08 -22.11 11 17.95 -40.06 13.89 -30.1 3.936 16.9 41.91
5.69 -7.063 18.99 25.93 12.97 -30.1 -32.07 -33.11 -16.09 -12.04 4.979 -24.08 22 -26.05 11 1.968 33.92
5.695 12.97 44 59.97 53.95 -21.07 -11.11 -49.09 -7.063 -43.07 -5.094 -3.01 29.99 -23.04 19.91 -21.07 23.97
5.7 40.99 70.97 97.95 97.95 -4.052 16.9 -54.07 1.968 -63.1 -12.04 18.99 35.89 -11.11 34.97 -35.08 19.91
5.705 70.97 88.92 130.9 132 16.9 55.92 -45.04 19.91 -77.11 -10.07 46.89 35.89 0 42.95 -38.09 23.97
5.71 92.97 95.98 149.9 141.9 47.93 79.89 -25.01 37.98 -73.06 -3.01 67.96 29.99 19.91 44 -33.11 31.96
5.715 98.99 87.99 156 130.9 74.91 83.94 1.968 50.94 -62.06 -1.042 82.9 23.97 40.99 40.99 -17.02 36.93
5.72 86.95 67.96 143.9 105.9 87.99 70.97 23.97 55 -39.02 -1.042 83.94 13.89 59.97 33 -2.084 36.93
5.725 66.92 39.94 132 75.95 85.91 41.91 47.93 47.93 -15.05 0.9262 77.92 5.905 67.96 22 27.9 31.96
5.73 44.92 11 118.9 57.89 79.89 15.98 74.91 36.93 13.89 -3.01 74.91 1.968 79.89 11.93 64.95 26.98
5.735 26.98 -9.031 108.9 45.96 76.99 0 101.9 24.89 51.98 0 70.97 -8.105 84.98 2.894 101.9 15.98
5.74 11 -29.06 101.9 41.91 75.95 -13.08 126 13.89 79.89 -2.084 65.99 -19.1 85.91 -9.031 129.9 -2.084
5.745 4.979 -34.04 95.98 44 77.92 -15.05 135 7.989 95.98 9.957 62.98 -25.01 82.9 -19.1 140 -14.01
5.75 0.9262 -25.01 81.97 39.94 74.91 -18.06 126.9 1.968 99.92 13.89 49.9 -27.09 73.98 -28.02 124.9 -27.09
5.755 2.894 -7.063 73.98 36.93 62.98 -17.02 104 -2.084 82.9 15.98 34.97 -24.08 53.95 -23.04 94.94 -25.01
5.76 -1.042 3.936 59.97 29.99 40.99 -22.11 72.94 -2.084 65.99 15.98 17.95 -13.08 33.92 -10.07 58.93 -9.031
5.765 -1.042 14.94 47.93 25.93 13.89 -21.07 46.89 0 45.96 13.89 2.894 0.9262 11 7.989 27.9 14.94
5.77 -11.11 15.98 35.89 19.91 -5.094 -13.08 25.93 5.905 29.99 13.89 -3.01 5.905 -3.01 23.97 3.936 37.98
5.775 -23.04 11.93 20.96 25.93 -24.08 -4.052 5.905 11 19.91 11 -12.04 14.94 -18.06 38.9 -5.094 47.93
5.78 -27.09 6.947 2.894 31.96 -39.02 1.968 -6.021 8.915 7.989 3.936 -20.03 18.99 -29.06 41.91 -8.105 33
5.785 -27.09 7.989 -1.042 45.96 -41.1 3.936 -25.01 -2.084 -5.094 0 -23.04 23.97 -37.05 39.94 -13.08 11.93
