    T[sec] Fp2 Fp1  F3  F4  C3  C4  P3  P4  O1  O2  F7  F8  T3  T4  T5  T6
41 346.2 346.2 346.2 346.2 346.2 346.2 346.2 346.2 346.2 346.2 346.2 346.2 346.2 346.2 346.2 346.2
0 -51.05 -49.02 -19.1 -57.13 -5.071 11.83 0.8451 55.95 15.89 116 -19.1 -29.07 -13.02 -19.1 5.916 27.89
0.005 -45.13 -57.13 -17.07 -51.05 -7.099 5.916 1.859 57.98 27.89 121.9 -21.13 -19.1 -7.099 -21.13 11.83 25.86
0.01 -31.1 -51.05 -13.02 -41.07 -5.071 7.944 9.973 51.89 31.95 111.9 -3.043 -3.043 -3.043 -21.13 11.83 19.95
0.015 -13.02 -33.13 -5.071 -25.02 -2.028 13.86 15.89 43.95 31.95 93.98 11.83 3.888 -1.014 -13.02 9.973 11.83
0.02 -1.014 -15.04 3.888 -5.071 7.944 17.92 15.89 33.97 27.89 71.84 17.92 9.973 0.8451 -5.071 9.973 7.944
0.025 -1.014 0.8451 21.97 9.973 17.92 15.89 9.973 19.95 21.97 47.83 6.93 5.916 1.859 -2.028 7.944 9.973
0.03 0.8451 5.916 33.97 25.86 21.97 9.973 0 3.888 11.83 19.95 -7.099 3.888 11.83 0 3.888 9.973
0.035 -3.043 9.973 35.83 33.97 14.87 -2.028 -7.099 -15.04 0 -4.057 -16.06 5.916 19.95 0.8451 0 3.888
0.04 -1.014 7.944 23.83 31.95 4.902 -9.128 -17.07 -41.07 -20.11 -38.03 -10.14 11.83 21.97 -3.043 -3.043 -5.071
0.045 4.902 1.859 5.916 23.83 -7.099 -21.13 -23.16 -63.05 -43.1 -69.13 0 15.89 19.95 -5.071 -9.128 -23.16
0.05 14.87 -2.028 -5.071 18.93 -10.14 -30.09 -21.13 -75.05 -54.09 -88.06 17.92 15.89 13.86 0.8451 -13.02 -35.16
0.055 18.93 -8.113 -13.02 16.9 -8.113 -32.12 -15.04 -71.16 -56.12 -96.01 19.95 9.973 12.85 7.944 -10.14 -39.05
0.06 10.99 -13.02 -13.02 15.89 -3.043 -25.02 -7.099 -51.05 -49.02 -93.13 15.89 3.888 11.83 17.92 -7.099 -29.07
0.065 0.8451 -14.03 -8.113 10.99 1.859 -12 -3.043 -26.03 -38.03 -81.13 10.99 -1.014 12.85 17.92 -2.028 -14.03
0.07 -17.07 -16.06 -14.03 1.859 -1.014 -2.028 -5.071 -6.085 -23.16 -73.02 6.93 1.859 6.93 7.944 1.859 -4.057
0.075 -33.13 -21.13 -23.16 -21.13 -15.04 -1.014 -11.16 -1.014 -15.04 -63.05 0 -5.071 0.8451 -1.014 0 0.8451
0.08 -35.16 -25.02 -34.14 -41.07 -26.03 -3.043 -18.09 1.859 -7.099 -54.09 -9.128 -10.14 -10.14 -13.02 4.902 -1.014
0.085 -29.07 -27.04 -42.09 -55.1 -30.09 -13.02 -20.11 1.859 1.859 -42.09 -30.09 -20.11 -15.04 -16.06 2.873 -1.014
0.09 -19.1 -23.16 -37.02 -53.07 -21.13 -17.07 -17.07 0 5.916 -27.04 -43.1 -23.16 -13.02 -11.16 0 -2.028
0.095 -5.071 -10.14 -15.04 -36 0 -8.113 -6.085 11.83 15.89 -4.057 -35.16 -7.099 -1.014 -1.014 -1.014 5.916
0.1 4.902 6.93 5.916 -7.099 19.95 3.888 6.93 34.99 25.86 17.92 -5.071 7.944 6.93 20.96 -1.014 12.85
0.105 22.99 27.89 29.92 13.86 39.89 27.89 21.97 53.92 31.95 47.83 23.83 29.92 19.95 39.89 5.916 21.97
0.11 32.96 42.93 44.96 32.96 50.88 51.89 34.99 67.95 32.96 74.88 47.83 40.9 25.86 45.98 17.92 30.93
0.115 36.85 40.9 37.86 33.97 44.96 60.85 33.97 64.91 20.96 91.95 42.93 35.83 24.85 35.83 21.97 32.96
0.12 24.85 27.89 18.93 19.95 21.97 44.96 18.93 43.95 5.916 90.94 16.9 17.92 16.9 10.99 13.86 24.85
0.125 6.93 10.99 -3.043 -1.014 -6.085 8.958 0.8451 8.958 -8.113 77.92 0 1.859 6.93 -15.04 0 14.87
0.13 -3.043 0.8451 -20.11 -20.11 -34.14 -31.1 -18.09 -21.13 -16.06 52.91 -1.014 -1.014 -3.043 -41.07 -7.099 8.958
0.135 -5.071 3.888 -23.16 -25.02 -47.16 -61.02 -27.04 -49.02 -11.16 31.95 17.92 5.916 -15.04 -45.13 -11.16 9.973
0.14 -1.014 16.9 -9.128 -7.099 -35.16 -67.1 -16.06 -52.06 3.888 21.97 43.95 17.92 -20.11 -32.12 -2.028 18.93
0.145 10.99 28.9 5.916 14.87 -10.14 -46.14 0.8451 -43.1 21.97 20.96 39.89 25.86 -19.1 -8.113 5.916 27.89
0.15 12.85 23.83 15.89 31.95 3.888 -15.04 17.92 -25.02 31.95 21.97 3.888 19.95 -11.16 7.944 11.83 21.97
0.155 8.958 9.973 16.9 29.92 8.958 5.916 24.85 -14.03 28.9 14.87 -36 8.958 -1.014 14.87 4.902 6.93
0.16 2.873 -7.099 0.8451 13.86 -4.057 11.83 10.99 -12 9.973 -4.057 -67.1 -1.014 0 5.916 -10.14 -6.085
0.165 -11.16 -21.13 -17.07 -13.02 -33.13 0.8451 -9.128 -21.13 -11.16 -35.16 -61.02 0.8451 -7.099 -7.099 -35.16 -21.13
0.17 -17.07 -18.09 -34.14 -32.12 -57.13 -22.14 -33.13 -30.09 -33.13 -65.08 -30.09 2.873 -22.14 -21.13 -54.09 -24
0.175 -19.1 0 -40.06 -34.14 -67.1 -38.03 -51.05 -34.14 -50.03 -87.05 -2.028 12.85 -36 -25.02 -64.06 -20.11
0.18 -21.13 15.89 -37.02 -23.16 -63.05 -43.1 -59.16 -35.16 -61.02 -95.16 0.8451 21.97 -47.16 -15.04 -67.1 -15.04
0.185 -17.07 32.96 -25.02 -2.028 -48 -32.12 -57.13 -32.12 -64.06 -86.04 -13.02 25.86 -48 -1.014 -62.03 -15.04
0.19 -9.128 32.96 -11.16 6.93 -34.14 -20.11 -53.07 -27.04 -66.09 -72.01 -37.02 21.97 -41.07 3.888 -55.1 -17.07
0.195 0.8451 21.97 0.8451 9.973 -23.16 -11.16 -47.16 -19.1 -67.1 -53.07 -41.07 11.83 -27.04 1.859 -45.13 -17.07
0.2 2.873 7.944 1.859 5.916 -14.03 -9.128 -43.1 -13.02 -64.06 -36 -26.03 0 -15.04 -1.014 -39.05 -15.04
0.205 2.873 0 0 0.8451 -10.14 -15.04 -37.02 -9.128 -56.12 -22.14 -6.085 -1.014 -9.128 -9.128 -33.13 -5.071
0.21 0.8451 1.859 -5.071 -7.099 -13.02 -23.16 -31.1 -7.099 -41.07 -11.16 0.8451 -2.028 -11.16 -9.128 -29.07 0
0.215 -3.043 7.944 -21.13 -11.16 -17.07 -31.1 -25.02 -7.099 -19.1 -2.028 -8.113 5.916 -19.1 -3.043 -27.04 7.944
0.22 -5.071 7.944 -37.02 -11.16 -21.13 -37.02 -17.07 -9.128 1.859 7.944 -29.07 9.973 -25.02 1.859 -21.13 9.973
0.225 -5.071 0.8451 -41.07 -9.128 -21.13 -37.02 -7.099 -11.16 19.95 17.92 -41.07 -2.028 -23.16 3.888 -17.07 5.916
0.23 -5.071 -21.13 -37.02 -11.16 -17.07 -35.16 0 -13.02 27.89 21.97 -37.02 -21.13 -11.16 -1.014 -13.02 -2.028
0.235 -15.04 -43.1 -29.07 -21.13 -13.02 -29.07 7.944 -15.04 21.97 23.83 -25.02 -49.02 0.8451 -25.02 -11.16 -7.099
0.24 -35.16 -57.13 -23.16 -39.05 -13.02 -27.04 7.944 -15.04 13.86 25.86 -17.07 -63.05 1.859 -51.05 -15.04 -15.04
0.245 -57.13 -53.07 -23.16 -59.16 -23.16 -27.04 0 -15.04 7.944 27.89 -21.13 -57.13 0.8451 -65.08 -17.07 -15.04
0.25 -69.13 -39.05 -31.1 -71.16 -37.02 -29.07 -5.071 -9.128 9.973 33.97 -35.16 -35.16 -11.16 -63.05 -17.07 -11.16
0.255 -65.08 -23.16 -37.02 -71.16 -45.13 -29.07 -11.16 -3.043 19.95 35.83 -47.16 -5.071 -25.02 -45.13 -13.02 -3.043
0.26 -41.07 -15.04 -37.02 -57.13 -41.07 -27.04 -5.071 1.859 25.86 31.95 -43.1 7.944 -25.02 -21.13 -9.128 -2.028
0.265 -11.16 -15.04 -23.16 -35.16 -21.13 -17.07 1.859 9.973 21.97 17.92 -25.02 9.973 -15.04 -3.043 -11.16 -2.028
0.27 12.85 -17.07 -3.043 -13.02 -2.028 -5.071 9.973 9.973 3.888 0.8451 -2.028 0 0.8451 0.8451 -19.1 -5.071
0.275 24.85 -15.04 13.86 0 17.92 1.859 5.916 0 -17.07 -25.02 17.92 -7.099 3.888 -3.043 -35.16 -15.04
0.28 24.85 -3.043 27.89 5.916 19.95 3.888 -5.071 -7.099 -43.1 -43.1 23.83 -13.02 0 -9.128 -53.07 -25.02
0.285 16.9 5.916 31.95 3.888 10.99 0 -22.14 -17.07 -55.1 -47.16 13.86 -11.16 -11.16 -9.128 -63.05 -29.07
0.29 4.902 15.89 27.89 -3.043 0.8451 -3.043 -33.13 -15.04 -53.07 -35.16 1.859 -3.043 -25.02 -1.014 -61.02 -25.02
0.295 0.8451 15.89 15.89 -18.09 -8.113 -13.02 -22.14 -2.028 -33.13 -17.07 -7.099 1.859 -23.16 1.859 -47.16 -15.04
0.3 -9.128 5.916 3.888 -32.12 -6.085 -17.07 1.859 8.958 -9.128 1.859 -19.1 -4.057 -7.099 3.888 -25.02 -7.099
0.305 -19.1 -3.043 -3.043 -47.16 0.8451 -17.07 19.95 17.92 5.916 3.888 -31.1 -17.07 9.973 -2.028 -5.071 0.8451
0.31 -25.02 -17.07 -13.02 -50.03 -1.014 -13.02 34.99 18.93 14.87 0.8451 -44.12 -32.12 25.86 -7.099 2.873 0.8451
0.315 -29.07 -25.02 -17.07 -44.12 -1.014 -8.113 32.96 10.99 16.9 -6.085 -48 -44.12 23.83 -15.04 4.902 0
0.32 -27.04 -23.16 -15.04 -35.16 -5.071 -5.071 19.95 0 7.944 -17.07 -37.02 -47.16 9.973 -15.04 -2.028 -5.071
0.325 -17.07 -23.16 -8.113 -21.13 -9.128 -2.028 11.83 1.859 0.8451 -22.14 -10.14 -39.05 1.859 -7.099 -2.028 -2.028
0.33 -1.014 -21.13 -2.028 -13.02 -9.128 -2.028 7.944 0 1.859 -20.11 20.96 -25.02 -2.028 -5.071 -4.057 -1.014
0.335 4.902 -19.1 0 -15.04 -1.014 -7.099 5.916 0 -1.014 -19.1 43.95 -15.04 -1.014 -3.043 -3.043 3.888
0.34 8.958 -17.07 4.902 -20.11 3.888 -6.085 0 1.859 0 -19.1 39.89 -6.085 0 -1.014 -3.043 6.93
0.345 0.8451 -17.07 -1.014 -29.07 0.8451 -9.128 -10.14 -6.085 -2.028 -16.06 5.916 -6.085 -12 -2.028 -11.16 3.888
0.35 -11.16 -17.07 -7.099 -35.16 -9.128 -17.07 -29.07 -17.07 -2.028 -23.16 -31.1 -15.04 -33.13 3.888 -17.07 0.8451
0.355 -23.16 -20.11 -16.06 -35.16 -24 -20.11 -42.09 -22.14 0.8451 -21.13 -58.15 -22.14 -48 9.973 -24 -3.043
0.36 -25.02 -20.11 -19.1 -29.07 -32.12 -24 -46.14 -26.03 -1.014 -22.14 -61.02 -26.03 -44.12 5.916 -25.02 -6.085
0.365 -17.07 -15.04 -16.06 -19.1 -34.14 -29.07 -46.14 -29.07 -1.014 -21.13 -38.03 -23.16 -24 -5.071 -27.04 -6.085
0.37 -3.043 -10.14 -5.071 -19.1 -28.06 -32.12 -40.06 -36 -4.057 -22.14 -15.04 -16.06 -1.014 -29.07 -25.02 -6.085
0.375 2.873 -4.057 1.859 -19.1 -24 -40.06 -40.06 -46.14 -13.02 -25.02 -10.14 -8.113 10.99 -55.1 -28.06 -7.099
0.38 0.8451 -2.028 -1.014 -23.16 -27.04 -47.16 -45.13 -57.13 -21.13 -33.13 -21.13 -1.014 0 -65.08 -33.13 -9.128
0.385 -3.043 1.859 -4.057 -23.16 -36 -47.16 -46.14 -56.12 -25.02 -42.09 -37.02 0 -16.06 -57.13 -37.02 -3.043
0.39 -13.02 -2.028 -12 -20.11 -39.05 -40.06 -39.05 -44.12 -17.07 -49.02 -35.16 -2.028 -32.12 -31.1 -29.07 -1.014
0.395 -19.1 -5.071 -15.04 -15.04 -39.05 -21.13 -27.04 -19.1 -7.099 -51.05 -23.16 -1.014 -25.02 -2.028 -13.02 7.944
0.4 -11.16 -15.04 -6.085 -9.128 -23.16 -1.014 -7.099 0 0.8451 -52.06 1.859 0.8451 1.859 17.92 2.873 16.9
0.405 0.8451 -21.13 0 -9.128 -3.043 20.96 7.944 14.87 8.958 -44.12 8.958 0 22.99 21.97 20.96 16.9
0.41 -1.014 -19.1 0.8451 -13.02 3.888 29.92 17.92 19.95 11.83 -33.13 1.859 0.8451 33.97 9.973 27.89 13.86
0.415 0.8451 -11.16 -5.071 -14.03 10.99 28.9 20.96 18.93 8.958 -18.09 -8.113 -2.028 27.89 -1.014 24.85 14.87
0.42 -9.128 -2.028 -11.16 -10.14 8.958 19.95 16.9 18.93 6.93 -4.057 -16.06 -6.085 17.92 -5.071 14.87 13.86
0.425 -21.13 9.973 -15.04 -5.071 1.859 15.89 11.83 21.97 7.944 1.859 -5.071 -7.099 11.83 1.859 7.944 21.97
0.43 -19.1 17.92 -11.16 -1.014 4.902 15.89 12.85 28.9 11.83 4.902 15.89 1.859 15.89 17.92 11.83 25.86
0.435 -9.128 21.97 0.8451 4.902 12.85 23.83 16.9 28.9 21.97 0 39.89 10.99 21.97 25.86 19.95 25.86
0.44 0.8451 25.86 9.973 3.888 23.83 27.89 21.97 17.92 23.83 -5.071 41.92 25.86 23.83 13.86 29.92 15.89
0.445 14.87 29.92 19.95 1.859 34.99 25.86 22.99 0.8451 19.95 -19.1 15.89 31.95 17.92 -9.128 31.95 5.916
0.45 20.96 35.83 23.83 3.888 35.83 11.83 13.86 -25.02 3.888 -33.13 -17.07 27.89 7.944 -41.07 25.86 -2.028
0.455 14.87 35.83 21.97 5.916 31.95 -3.043 -1.014 -47.16 -13.02 -43.1 -43.1 11.83 0 -61.02 7.944 -1.014
0.46 2.873 23.83 11.83 7.944 13.86 -21.13 -29.07 -57.13 -35.16 -43.1 -43.1 -1.014 -3.043 -63.05 -7.099 -3.043
0.465 -11.16 1.859 -2.028 3.888 -3.043 -29.07 -55.1 -53.07 -49.02 -33.13 -17.07 -15.04 -11.16 -51.05 -23.16 -3.043
0.47 -27.04 -21.13 -15.04 -5.071 -25.02 -29.07 -65.08 -37.02 -53.07 -15.04 7.944 -21.13 -23.16 -35.16 -35.16 -1.014
0.475 -37.02 -41.07 -33.13 -29.07 -43.1 -25.02 -61.02 -15.04 -51.05 1.859 23.83 -27.04 -33.13 -19.1 -37.02 -2.028
0.48 -39.05 -47.16 -49.02 -55.1 -51.05 -19.1 -47.16 -1.014 -47.16 13.86 17.92 -31.1 -37.02 -9.128 -31.1 3.888
0.485 -37.02 -39.05 -55.1 -73.02 -49.02 -15.04 -33.13 1.859 -45.13 17.92 1.859 -35.16 -33.13 -1.014 -25.02 11.83
0.49 -31.1 -27.04 -57.13 -81.13 -45.13 -17.07 -25.02 0 -43.1 9.973 -9.128 -39.05 -23.16 0 -21.13 17.92
0.495 -23.16 -21.13 -55.1 -79.11 -43.1 -21.13 -23.16 0.8451 -39.05 0 -13.02 -41.07 -13.02 -2.028 -19.1 17.92
0.5 -19.1 -23.16 -51.05 -73.02 -45.13 -27.04 -25.02 0.8451 -29.07 -1.014 -11.16 -39.05 -9.128 -3.043 -15.04 11.83
0.505 -17.07 -31.1 -45.13 -63.05 -47.16 -29.07 -23.16 -2.028 -17.07 -3.043 -7.099 -37.02 -7.099 -13.02 -5.071 3.888
0.51 -15.04 -35.16 -35.16 -51.05 -43.1 -25.02 -15.04 0 -3.043 -3.043 -5.071 -35.16 0.8451 -21.13 3.888 -2.028
0.515 -11.16 -29.07 -23.16 -35.16 -33.13 -19.1 -3.043 0.8451 1.859 -1.014 -3.043 -33.13 7.944 -17.07 19.95 -1.014
0.52 -7.099 -21.13 -13.02 -21.13 -17.07 -11.16 5.916 -3.043 13.86 -1.014 0 -35.16 19.95 -7.099 29.92 -1.014
0.525 -3.043 -13.02 -9.128 -11.16 -2.028 -5.071 15.89 -5.071 23.83 -3.043 13.86 -35.16 23.83 0 31.95 0.8451
0.53 -1.014 -11.16 -9.128 -9.128 13.86 -3.043 19.95 -3.043 33.97 -3.043 25.86 -37.02 17.92 5.916 23.83 -2.028
0.535 0.8451 -13.02 -7.099 -13.02 27.89 -7.099 15.89 0.8451 33.97 -5.071 25.86 -33.13 7.944 -2.028 11.83 0.8451
0.54 2.873 -7.099 0.8451 -17.07 33.97 -19.1 2.873 -2.028 17.92 -12 19.95 -23.16 -2.028 -15.04 0.8451 -4.057
0.545 14.87 5.916 11.83 -9.128 37.86 -37.02 -12 -22.14 -5.071 -30.09 11.83 -7.099 -2.028 -37.02 -13.02 -14.03
0.55 32.96 33.97 29.92 3.888 41.92 -47.16 -35.16 -51.05 -35.16 -49.02 9.973 9.973 0 -49.02 -25.02 -25.02
0.555 46.99 59.84 35.83 30.93 44.96 -53.07 -48 -72.01 -52.06 -56.12 14.87 27.89 0.8451 -43.1 -34.14 -28.06
0.56 40.9 69.98 23.83 46.99 44.96 -42.09 -50.03 -76.06 -54.09 -44.12 22.99 25.86 -13.02 -23.16 -38.03 -24
0.565 12.85 53.92 -1.014 39.89 35.83 -25.02 -45.13 -59.16 -41.07 -15.04 15.89 1.859 -35.16 0 -37.02 -11.16
0.57 -23.16 17.92 -38.03 14.87 22.99 -4.057 -31.1 -23.16 -20.11 19.95 -1.014 -33.13 -57.13 17.92 -32.12 7.944
0.575 -67.1 -19.1 -68.12 -14.03 2.873 4.902 -23.16 3.888 -10.14 51.89 -22.14 -71.16 -65.08 20.96 -28.06 27.89
0.58 -95.16 -53.07 -85.02 -43.1 -9.128 5.916 -17.07 23.83 -11.16 63.89 -49.02 -89.08 -59.16 7.944 -25.02 45.98
0.585 -95.16 -71.16 -86.04 -53.07 -17.07 0.8451 -12 32.96 -17.07 64.91 -59.16 -81.13 -43.1 -4.057 -19.1 56.96
0.59 -73.02 -67.1 -74.03 -52.06 -17.07 -1.014 -5.071 31.95 -23.16 54.93 -54.09 -49.02 -29.07 -12 -13.02 57.98
0.595 -43.1 -49.02 -65.08 -41.07 -9.128 -3.043 1.859 33.97 -15.04 45.98 -31.1 -15.04 -17.07 -9.128 0.8451 53.92
0.6 -7.099 -26.03 -51.05 -26.03 0.8451 4.902 20.96 46.99 1.859 42.93 -1.014 3.888 -9.128 -2.028 11.83 44.96
0.605 8.958 -1.014 -34.14 -16.06 13.86 24.85 38.88 57.98 17.92 38.88 30.93 7.944 -5.071 9.973 24.85 35.83
0.61 16.9 13.86 -13.02 -6.085 26.88 43.95 48.85 61.86 27.89 27.89 46.99 -2.028 0.8451 10.99 30.93 25.86
0.615 12.85 21.97 2.873 0 35.83 50.88 50.88 55.95 27.89 12.85 42.93 -7.099 3.888 1.859 24.85 17.92
0.62 8.958 26.88 21.97 4.902 42.93 40.9 42.93 32.96 10.99 0 24.85 -11.16 9.973 -1.014 7.944 12.85
0.625 6.93 27.89 35.83 15.89 41.92 13.86 23.83 5.916 -9.128 -15.04 3.888 -1.014 7.944 -7.099 -5.071 1.859
0.63 14.87 31.95 44.96 28.9 35.83 -9.128 0 -19.1 -29.07 -30.09 0.8451 15.89 3.888 -4.057 -23.16 -3.043
0.635 36.85 45.98 50.88 41.92 27.89 -32.12 -16.06 -44.12 -45.13 -50.03 19.95 37.86 -2.028 0 -31.1 -12
0.64 60.85 65.92 53.92 53.92 23.83 -39.05 -31.1 -63.05 -55.1 -73.02 57.98 53.92 -3.043 1.859 -29.07 -21.13
0.645 82.99 81.98 56.96 62.88 30.93 -22.14 -29.07 -73.02 -50.03 -93.13 96.85 57.98 -7.099 8.958 -14.03 -25.02
0.65 90.94 87.89 52.91 62.88 44.96 0.8451 -11.16 -67.1 -36 -108 112.9 45.98 -13.02 13.86 2.873 -21.13
0.655 76.91 73.87 41.92 53.92 59.84 27.89 3.888 -53.07 -15.04 -99.05 97.87 29.92 -13.02 17.92 19.95 -23.16
0.66 48.85 43.95 23.83 36.85 68.96 44.96 22.99 -24 -1.014 -70.15 52.91 7.944 -3.043 19.95 32.96 -18.09
0.665 14.87 7.944 5.916 14.87 60.85 45.98 34.99 2.873 14.87 -20.11 0.8451 -9.128 13.86 17.92 32.96 -10.14
0.67 -5.071 -13.02 -9.128 -5.071 39.89 31.95 33.97 27.89 25.86 25.86 -37.02 -27.04 37.86 9.973 25.86 0.8451
0.675 -17.07 -25.02 -23.16 -21.13 15.89 17.92 28.9 44.96 35.83 70.99 -53.07 -39.05 51.89 3.888 17.92 10.99
0.68 -21.13 -23.16 -31.1 -29.07 -2.028 7.944 22.99 46.99 39.89 94.99 -49.02 -45.13 41.92 1.859 9.973 22.99
0.685 -21.13 -15.04 -37.02 -29.07 -5.071 3.888 13.86 35.83 39.89 93.98 -37.02 -41.07 11.83 0 0 25.86
0.69 -23.16 -11.16 -39.05 -27.04 -7.099 -2.028 7.944 19.95 31.95 77.92 -27.04 -27.04 -25.02 0.8451 -7.099 19.95
0.695 -27.04 -9.128 -37.02 -25.02 -7.099 -7.099 -2.028 5.916 15.89 57.98 -29.07 -11.16 -59.16 -7.099 -23.16 7.944
0.7 -29.07 -7.099 -33.13 -25.02 -15.04 -21.13 -7.099 0 -2.028 43.95 -33.13 0 -69.13 -11.16 -33.13 1.859
0.705 -27.04 -1.014 -31.1 -25.02 -25.02 -33.13 -23.16 0 -11.16 37.86 -29.07 7.944 -59.16 -9.128 -39.05 1.859
0.71 -19.1 3.888 -29.07 -23.16 -39.05 -35.16 -37.02 3.888 -19.1 37.86 -19.1 7.944 -41.07 0.8451 -37.02 9.973
0.715 -11.16 11.83 -35.16 -15.04 -47.16 -29.07 -49.02 7.944 -23.16 35.83 -3.043 5.916 -29.07 9.973 -35.16 19.95
0.72 -5.071 15.89 -39.05 -3.043 -47.16 -15.04 -51.05 9.973 -25.02 27.89 1.859 5.916 -23.16 23.83 -35.16 23.83
0.725 -1.014 11.83 -39.05 5.916 -39.05 -3.043 -45.13 7.944 -25.02 13.86 3.888 13.86 -17.07 27.89 -35.16 23.83
0.73 2.873 7.944 -29.07 19.95 -21.13 0 -27.04 3.888 -23.16 -2.028 3.888 27.89 -3.043 23.83 -33.13 17.92
0.735 12.85 7.944 -11.16 29.92 -3.043 0 -7.099 0 -11.16 -11.16 5.916 39.89 9.973 13.86 -25.02 9.973
0.74 24.85 13.86 3.888 29.92 9.973 -2.028 3.888 0.8451 1.859 -25.02 11.83 39.89 27.89 1.859 -7.099 3.888
0.745 36.85 23.83 19.95 23.83 21.97 0.8451 17.92 -3.043 21.97 -41.07 15.89 27.89 35.83 -1.014 7.944 0.8451
0.75 38.88 27.89 25.86 13.86 27.89 0.8451 23.83 -5.071 35.83 -61.02 13.86 7.944 39.89 -7.099 25.86 -3.043
0.755 34.99 21.97 27.89 3.888 33.97 0.8451 29.92 -7.099 41.92 -79.11 5.916 -1.014 43.95 -11.16 37.86 -7.099
0.76 26.88 5.916 25.86 -2.028 41.92 -2.028 37.86 -3.043 41.92 -85.02 1.859 -7.099 53.92 -7.099 45.98 -9.128
0.765 22.99 -1.014 25.86 0.8451 49.86 0 47.83 -2.028 41.92 -73.02 9.973 -3.043 67.95 0.8451 49.86 -7.099
0.77 24.85 -5.071 25.86 -1.014 57.98 3.888 53.92 11.83 45.98 -38.03 29.92 1.859 75.89 5.916 55.95 -7.099
0.775 30.93 0 25.86 2.873 60.85 9.973 55.95 23.83 53.92 -1.014 51.89 7.944 65.92 11.83 61.86 -9.128
0.78 36.85 11.83 27.89 5.916 53.92 15.89 51.89 33.97 59.84 37.86 61.86 5.916 43.95 7.944 63.89 -15.04
0.785 34.99 15.89 27.89 8.958 48.85 17.92 43.95 33.97 56.96 60.85 51.89 0.8451 15.89 -5.071 59.84 -19.1
0.79 24.85 7.944 29.92 8.958 44.96 11.83 32.96 25.86 46.99 68.96 35.83 -9.128 1.859 -25.02 45.98 -19.1
0.795 12.85 -5.071 31.95 5.916 39.89 -2.028 17.92 11.83 27.89 59.84 27.89 -13.02 -2.028 -39.05 25.86 -9.128
0.8 4.902 -20.11 31.95 2.873 38.88 -11.16 6.93 3.888 8.958 51.89 28.9 -13.02 5.916 -29.07 3.888 4.902
0.805 4.902 -24 27.89 1.859 36.85 -13.02 1.859 5.916 -8.113 43.95 32.96 -3.043 9.973 -5.071 -11.16 24.85
0.81 10.99 -17.07 19.95 -2.028 27.89 -3.043 -5.071 21.97 -29.07 41.92 27.89 3.888 3.888 23.83 -25.02 41.92
0.815 16.9 0 10.99 -2.028 17.92 11.83 -6.085 41.92 -39.05 48.85 14.87 15.89 -3.043 49.86 -27.04 48.85
0.82 14.87 8.958 0.8451 1.859 8.958 31.95 -2.028 56.96 -41.07 59.84 -2.028 21.97 -11.16 61.86 -19.1 44.96
0.825 4.902 7.944 -1.014 -7.099 0 39.89 1.859 61.86 -33.13 63.89 -13.02 19.95 -9.128 55.95 -1.014 29.92
0.83 -1.014 0 -6.085 -17.07 0 34.99 13.86 56.96 -12 62.88 -5.071 8.958 0.8451 39.89 18.93 15.89
0.835 -11.16 -11.16 -8.113 -25.02 1.859 20.96 28.9 40.9 0 44.96 3.888 -2.028 13.86 20.96 34.99 1.859
0.84 -15.04 -23.16 -7.099 -29.07 0 5.916 35.83 19.95 11.83 5.916 17.92 -15.04 27.89 5.916 39.89 0.8451
0.845 -3.043 -26.03 1.859 -21.13 5.916 1.859 39.89 -2.028 12.85 -34.14 24.85 -17.07 36.85 2.873 37.86 -2.028
0.85 4.902 -17.07 10.99 -9.128 9.973 -2.028 31.95 -16.06 6.93 -76.06 23.83 -9.128 35.83 7.944 28.9 -6.085
0.855 22.99 -1.014 22.99 -2.028 14.87 0.8451 23.83 -29.07 0.8451 -99.05 23.83 2.873 31.95 20.96 19.95 -16.06
0.86 34.99 11.83 32.96 0 17.92 0 17.92 -34.14 -1.014 -98.04 29.92 19.95 29.92 33.97 14.87 -26.03
0.865 42.93 26.88 38.88 0 23.83 3.888 17.92 -27.04 0.8451 -74.03 34.99 33.97 24.85 44.96 15.89 -32.12
0.87 38.88 31.95 37.86 0.8451 29.92 9.973 17.92 -19.1 1.859 -43.1 33.97 39.89 25.86 43.95 11.83 -31.1
0.875 36.85 31.95 38.88 1.859 38.88 16.9 20.96 -10.14 5.916 -14.03 23.83 42.93 27.89 30.93 8.958 -23.16
0.88 28.9 29.92 36.85 1.859 41.92 14.87 13.86 -14.03 8.958 1.859 7.944 38.88 29.92 7.944 2.873 -7.099
0.885 24.85 19.95 33.97 5.916 33.97 3.888 0 -25.02 13.86 5.916 0.8451 25.86 25.86 -3.043 -1.014 -2.028
0.89 24.85 16.9 30.93 -1.014 22.99 -9.128 -8.113 -34.14 19.95 19.95 -4.057 13.86 11.83 -5.071 -7.099 10.99
0.895 22.99 14.87 20.96 -11.16 7.944 -21.13 -18.09 -31.1 33.97 30.93 -8.113 7.944 -9.128 3.888 -9.128 20.96
0.9 16.9 7.944 11.83 -27.04 1.859 -17.07 -17.07 -15.04 43.95 43.95 -15.04 11.83 -43.1 25.86 -7.099 21.97
0.905 10.99 0.8451 7.944 -37.02 6.93 -2.028 -4.057 5.916 46.99 53.92 -22.14 19.95 -67.1 45.98 -7.099 20.96
0.91 0.8451 -4.057 5.916 -40.06 12.85 23.83 10.99 35.83 40.9 59.84 -24 25.86 -67.1 55.95 -9.128 14.87
0.915 0.8451 -13.02 5.916 -37.02 19.95 49.86 29.92 57.98 17.92 57.98 -15.04 25.86 -43.1 63.89 -11.16 9.973
0.92 0.8451 -15.04 1.859 -28.06 20.96 63.89 42.93 71.84 -6.085 58.99 -2.028 17.92 0.8451 71.84 -15.04 13.86
0.925 2.873 -13.02 0.8451 -24 14.87 67.95 43.95 77.92 -40.06 62.88 13.86 7.944 31.95 83.84 -19.1 29.92
0.93 8.958 -7.099 -7.099 -25.02 5.916 65.92 37.86 81.98 -61.02 71.84 15.89 1.859 39.89 91.95 -21.13 49.86
0.935 6.93 -5.071 -11.16 -28.06 2.873 61.86 31.95 79.95 -65.08 78.94 1.859 1.859 19.95 87.89 -23.16 61.86
0.94 0.8451 -9.128 -5.071 -30.09 3.888 59.84 27.89 71.84 -43.1 76.91 -3.043 0 -5.071 63.89 -19.1 59.84
0.945 -5.071 -19.1 1.859 -31.1 9.973 57.98 29.92 53.92 -11.16 59.84 -9.128 0.8451 -25.02 29.92 -11.16 39.89
0.95 -9.128 -29.07 17.92 -27.04 11.83 47.83 29.92 29.92 21.97 29.92 -1.014 -7.099 -19.1 0.8451 -2.028 9.973
0.955 -3.043 -33.13 25.86 -25.02 7.944 29.92 27.89 -2.028 49.86 -5.071 3.888 -11.16 -2.028 -21.13 11.83 -13.02
0.96 6.93 -25.02 25.86 -21.13 0.8451 7.944 17.92 -25.02 59.84 -45.13 3.888 -7.099 21.97 -25.02 21.97 -31.1
0.965 22.99 -15.04 21.97 -15.04 -11.16 -5.071 3.888 -49.02 53.92 -73.02 -3.043 0.8451 29.92 -19.1 21.97 -39.05
0.97 28.9 -9.128 13.86 -9.128 -19.1 -15.04 -7.099 -65.08 37.86 -87.05 -15.04 -2.028 19.95 -11.16 11.83 -41.07
0.975 20.96 -13.02 9.973 -3.043 -23.16 -19.1 -21.13 -73.02 15.89 -87.05 -19.1 -5.071 0 -9.128 0.8451 -45.13
0.98 2.873 -21.13 1.859 -3.043 -29.07 -17.07 -35.16 -73.02 0.8451 -77.08 -19.1 -25.02 -13.02 -15.04 -15.04 -53.07
0.985 -13.02 -31.1 -7.099 -9.128 -43.1 -17.07 -47.16 -69.13 -19.1 -65.08 -19.1 -41.07 -21.13 -17.07 -27.04 -55.1
0.99 -29.07 -33.13 -27.04 -21.13 -63.05 -17.07 -57.13 -59.16 -35.16 -49.02 -29.07 -43.1 -21.13 -11.16 -33.13 -45.13
0.995 -37.02 -27.04 -53.07 -35.16 -81.13 -15.04 -63.05 -41.07 -45.13 -29.07 -45.13 -27.04 -21.13 -2.028 -35.16 -23.16
1 -41.07 -19.1 -71.16 -47.16 -87.05 -9.128 -59.16 -17.07 -51.05 -3.043 -57.13 -5.071 -27.04 13.86 -37.02 -2.028
1.005 -47.16 -15.04 -75.05 -53.07 -77.08 0.8451 -45.13 3.888 -50.03 17.92 -59.16 3.888 -39.05 21.97 -39.05 17.92
1.01 -55.1 -21.13 -65.08 -55.1 -55.1 5.916 -25.02 23.83 -53.07 37.86 -47.16 -2.028 -51.05 13.86 -39.05 21.97
1.015 -63.05 -35.16 -51.05 -57.13 -35.16 5.916 -7.099 33.97 -54.09 45.98 -37.02 -17.07 -59.16 -1.014 -37.02 11.83
1.02 -69.13 -51.05 -45.13 -61.02 -25.02 -2.028 -2.028 29.92 -62.03 39.89 -37.02 -39.05 -57.13 -25.02 -29.07 -3.043
1.025 -73.02 -65.08 -45.13 -67.1 -35.16 -15.04 -2.028 15.89 -75.05 29.92 -49.02 -51.05 -45.13 -37.02 -25.02 -19.1
1.03 -69.13 -68.12 -56.12 -69.13 -49.02 -29.07 -7.099 -2.028 -86.04 17.92 -65.08 -49.02 -27.04 -33.13 -25.02 -25.02
1.035 -59.16 -56.12 -66.09 -61.02 -65.08 -33.13 -23.16 -9.128 -97.02 9.973 -73.02 -39.05 -11.16 -16.06 -33.13 -21.13
1.04 -47.16 -35.16 -61.02 -47.16 -67.1 -27.04 -37.02 -17.07 -107.2 5.916 -63.05 -29.07 -7.099 0 -45.13 -11.16
1.045 -23.16 -6.085 -42.09 -24 -52.06 -14.03 -45.13 -21.13 -109 0 -37.02 -17.07 -8.113 20.96 -49.02 0.8451
1.05 -1.014 10.99 -16.06 -4.057 -34.14 -2.028 -44.12 -25.02 -106.1 -9.128 -10.14 -7.099 -14.03 30.93 -41.07 -2.028
1.055 10.99 17.92 1.859 3.888 -13.02 -2.028 -37.02 -29.07 -91.11 -27.04 0.8451 0.8451 -13.02 31.95 -19.1 -7.099
1.06 16.9 11.83 15.89 8.958 0 -2.028 -24 -30.09 -63.05 -47.16 -4.057 -2.028 -4.057 26.88 0.8451 -21.13
1.065 6.93 -1.014 11.83 4.902 0 -8.113 -16.06 -32.12 -36 -61.02 -22.14 -4.057 -1.014 16.9 9.973 -32.12
1.07 -9.128 -21.13 -3.043 -2.028 -15.04 -15.04 -13.02 -25.02 -7.099 -67.1 -43.1 -17.07 0.8451 3.888 3.888 -37.02
1.075 -29.07 -34.14 -26.03 -5.071 -39.05 -15.04 -18.09 -18.09 12.85 -64.06 -56.12 -34.14 -8.113 -7.099 -6.085 -30.09
1.08 -47.16 -42.09 -49.02 -19.1 -65.08 -19.1 -27.04 -15.04 32.96 -52.06 -61.02 -40.06 -23.16 -16.06 -20.11 -20.11
1.085 -59.16 -49.02 -71.16 -29.07 -83.16 -23.16 -35.16 -17.07 51.89 -37.02 -63.05 -41.07 -35.16 -21.13 -27.04 -11.16
1.09 -63.05 -54.09 -81.13 -39.05 -88.06 -28.06 -33.13 -18.09 68.96 -18.09 -60 -33.13 -33.13 -17.07 -18.09 -7.099
1.095 -65.08 -60 -85.02 -46.14 -81.13 -31.1 -28.06 -19.1 74.88 -4.057 -50.03 -28.06 -27.04 -17.07 -10.14 -2.028
1.1 -63.05 -55.1 -82.15 -46.14 -69.13 -33.13 -24 -11.16 62.88 2.873 -37.02 -27.04 -17.07 -16.06 -8.113 1.859
1.105 -51.05 -42.09 -67.1 -36 -57.13 -29.07 -22.14 -7.099 34.99 2.873 -18.09 -30.09 -9.128 -15.04 -14.03 2.873
1.11 -31.1 -20.11 -43.1 -17.07 -38.03 -20.11 -15.04 1.859 0 -1.014 0 -27.04 0.8451 -7.099 -22.14 7.944
1.115 -9.128 0.8451 -19.1 -2.028 -13.02 -5.071 -11.16 3.888 -33.13 -7.099 3.888 -11.16 3.888 1.859 -25.02 9.973
1.12 8.958 14.87 3.888 17.92 11.83 5.916 0.8451 9.973 -52.06 -10.14 7.944 4.902 15.89 26.88 -16.06 2.873
1.125 24.85 22.99 18.93 27.89 41.92 17.92 6.93 10.99 -62.03 -10.14 0.8451 20.96 16.9 43.95 -8.113 0
1.13 26.88 25.86 21.97 23.83 53.92 19.95 9.973 7.944 -69.13 -1.014 -7.099 27.89 9.973 49.86 -7.099 -5.071
1.135 22.99 31.95 17.92 18.93 46.99 16.9 -1.014 2.873 -80.12 5.916 -14.03 24.85 1.859 44.96 -15.04 -4.057
1.14 14.87 31.95 11.83 12.85 26.88 4.902 -18.09 -2.028 -89.08 7.944 -16.06 15.89 -8.113 24.85 -29.07 0.8451
1.145 12.85 29.92 11.83 9.973 7.944 -1.014 -37.02 -15.04 -93.13 0 -11.16 7.944 -7.099 9.973 -37.02 0
1.15 14.87 22.99 26.88 12.85 6.93 -8.113 -40.06 -23.16 -78.09 -13.02 0 5.916 2.873 2.873 -33.13 -2.028
1.155 20.96 14.87 40.9 18.93 20.96 -4.057 -29.07 -25.02 -45.13 -39.05 5.916 5.916 22.99 -1.014 -17.07 -5.071
1.16 26.88 1.859 45.98 21.97 35.83 0 -9.128 -25.02 -3.043 -61.02 15.89 5.916 37.86 -2.028 -2.028 -15.04
1.165 24.85 -4.057 36.85 17.92 37.86 11.83 1.859 -23.16 29.92 -69.13 13.86 1.859 33.97 -1.014 7.944 -21.13
1.17 14.87 -14.03 8.958 3.888 19.95 15.89 3.888 -19.1 50.88 -61.02 -2.028 -2.028 13.86 0 7.944 -19.1
1.175 -1.014 -25.02 -13.02 -11.16 -3.043 9.973 0.8451 -13.02 57.98 -37.02 -21.13 -3.043 -5.071 7.944 3.888 -9.128
1.18 -9.128 -27.04 -29.07 -29.07 -27.04 -2.028 -11.16 -7.099 56.96 -7.099 -41.07 -9.128 -21.13 15.89 1.859 -2.028
1.185 -15.04 -23.16 -23.16 -39.05 -33.13 -13.02 -15.04 -1.014 52.91 13.86 -47.16 -13.02 -21.13 23.83 5.916 7.944
1.19 -11.16 -9.128 -5.071 -35.16 -23.16 -23.16 -9.128 0 51.89 33.97 -35.16 -15.04 -7.099 25.86 13.86 15.89
1.195 -3.043 0 7.944 -23.16 -3.043 -27.04 -1.014 5.916 56.96 39.89 -9.128 -11.16 1.859 21.97 17.92 19.95
1.2 2.873 13.86 17.92 -3.043 3.888 -19.1 1.859 7.944 57.98 35.83 11.83 -2.028 7.944 21.97 17.92 17.92
1.205 10.99 17.92 15.89 11.83 9.973 -1.014 7.944 9.973 57.98 25.86 23.83 15.89 1.859 29.92 11.83 15.89
1.21 16.9 17.92 9.973 27.89 9.973 15.89 11.83 13.86 53.92 13.86 13.86 31.95 -3.043 41.92 7.944 13.86
1.215 20.96 17.92 5.916 39.89 11.83 31.95 13.86 17.92 41.92 1.859 -7.099 37.86 -9.128 51.89 7.944 13.86
1.22 24.85 17.92 7.944 47.83 15.89 37.86 15.89 17.92 27.89 -3.043 -35.16 29.92 -5.071 49.86 7.944 9.973
1.225 26.88 23.83 15.89 51.89 21.97 31.95 11.83 13.86 9.973 -13.02 -47.16 15.89 0.8451 37.86 3.888 5.916
1.23 28.9 29.92 21.97 55.95 23.83 21.97 5.916 5.916 -5.071 -19.1 -35.16 1.859 3.888 25.86 0.8451 -2.028
1.235 26.88 33.97 25.86 55.95 21.97 15.89 0.8451 0 -21.13 -23.16 -3.043 0 3.888 27.89 -7.099 -1.014
1.24 22.99 33.97 27.89 49.86 17.92 19.95 -3.043 0.8451 -33.13 -27.04 29.92 5.916 0 43.95 -11.16 -3.043
1.245 16.9 27.89 27.89 41.92 17.92 31.95 -1.014 -2.028 -39.05 -35.16 51.89 15.89 3.888 61.86 -5.071 -1.014
1.25 12.85 15.89 25.86 31.95 17.92 39.89 3.888 1.859 -31.1 -45.13 45.98 19.95 13.86 65.92 3.888 0.8451
1.255 8.958 3.888 19.95 19.95 19.95 39.89 13.86 3.888 -15.04 -53.07 19.95 15.89 25.86 51.89 17.92 -3.043
1.26 2.873 -3.043 9.973 10.99 18.93 33.97 19.95 3.888 1.859 -55.1 -7.099 3.888 27.89 23.83 25.86 -7.099
1.265 -1.014 -11.16 0 2.873 14.87 27.89 19.95 5.916 23.83 -47.16 -23.16 -3.043 17.92 -2.028 27.89 -7.099
1.27 -13.02 -15.04 -3.043 0.8451 5.916 25.86 11.83 9.973 41.92 -27.04 -13.02 -9.128 -2.028 -11.16 23.83 0.8451
1.275 -21.13 -11.16 -9.128 -4.057 1.859 27.89 0 11.83 51.89 -1.014 2.873 -11.16 -17.07 -11.16 17.92 5.916
1.28 -27.04 -3.043 -13.02 -8.113 -8.113 27.89 -7.099 9.973 51.89 15.89 14.87 -11.16 -31.1 -9.128 11.83 11.83
1.285 -29.07 -2.028 -19.1 -15.04 -17.07 15.89 -19.1 1.859 49.86 31.95 1.859 -9.128 -35.16 -9.128 7.944 11.83
1.29 -27.04 0 -25.02 -20.11 -19.1 0.8451 -23.16 -1.014 56.96 38.88 -22.14 -9.128 -29.07 -13.02 9.973 3.888
1.295 -21.13 1.859 -29.07 -13.02 -21.13 -17.07 -15.04 -5.071 68.96 40.9 -50.03 -7.099 -21.13 -14.03 13.86 -2.028
1.3 -11.16 0 -19.1 -1.014 -11.16 -21.13 0.8451 -1.014 79.95 41.92 -49.02 0.8451 -11.16 -15.04 21.97 -11.16
1.305 2.873 1.859 -2.028 17.92 2.873 -7.099 17.92 7.944 86.88 42.93 -17.07 5.916 0.8451 -8.113 29.92 -8.113
1.31 24.85 7.944 23.83 44.96 25.86 7.944 33.97 17.92 72.85 38.88 21.97 13.86 13.86 -2.028 31.95 -2.028
1.315 42.93 15.89 43.95 61.86 43.95 25.86 41.92 19.95 47.83 29.92 49.86 13.86 29.92 0.8451 25.86 -1.014
1.32 50.88 21.97 49.86 61.86 53.92 29.92 35.83 12.85 19.95 23.83 56.96 5.916 41.92 0.8451 17.92 0
1.325 44.96 23.83 39.89 48.85 50.88 23.83 25.86 0.8451 0.8451 15.89 41.92 0.8451 37.86 3.888 8.958 -3.043
1.33 24.85 17.92 23.83 27.89 37.86 11.83 17.92 -2.028 -9.128 13.86 17.92 -13.02 17.92 3.888 5.916 -7.099
1.335 2.873 7.944 8.958 10.99 18.93 5.916 15.89 3.888 -6.085 12.85 0 -18.09 -3.043 4.902 8.958 -1.014
1.34 -5.071 0 0 2.873 3.888 4.902 17.92 13.86 -5.071 5.916 -5.071 -17.07 -23.16 2.873 11.83 -1.014
1.345 -7.099 -8.113 0 4.902 -1.014 6.93 21.97 17.92 -7.099 -5.071 -9.128 -11.16 -23.16 -2.028 16.9 4.902
1.35 2.873 -12 1.859 10.99 1.859 8.958 23.83 17.92 -13.02 -27.04 -11.16 -3.043 -7.099 0.8451 19.95 4.902
1.355 8.958 -5.071 6.93 14.87 0.8451 11.83 23.83 11.83 -20.11 -46.14 -5.071 -1.014 17.92 8.958 24.85 0
1.36 16.9 1.859 15.89 15.89 7.944 17.92 27.89 5.916 -15.04 -49.02 5.916 7.944 41.92 19.95 27.89 -3.043
1.365 22.99 13.86 25.86 18.93 16.9 25.86 27.89 12.85 -3.043 -31.1 23.83 15.89 49.86 33.97 32.96 0.8451
1.37 20.96 23.83 33.97 21.97 21.97 39.89 29.92 24.85 7.944 -1.014 32.96 19.95 43.95 44.96 31.95 8.958
1.375 20.96 25.86 39.89 25.86 21.97 49.86 29.92 37.86 13.86 25.86 29.92 17.92 29.92 43.95 25.86 25.86
1.38 26.88 25.86 41.92 34.99 25.86 53.92 21.97 41.92 18.93 50.88 21.97 11.83 17.92 38.88 17.92 38.88
1.385 32.96 21.97 41.92 39.89 22.99 47.83 9.973 31.95 16.9 58.99 19.95 5.916 17.92 24.85 11.83 36.85
1.39 36.85 15.89 39.89 41.92 15.89 25.86 0.8451 3.888 15.89 55.95 27.89 0 25.86 1.859 7.944 19.95
1.395 32.96 5.916 39.89 37.86 7.944 -3.043 -9.128 -21.13 18.93 46.99 34.99 -2.028 33.97 -16.06 9.973 0
1.4 24.85 0.8451 35.83 24.85 5.916 -35.16 -13.02 -45.13 24.85 42.93 26.88 -2.028 29.92 -35.16 11.83 -17.07
1.405 8.958 -9.128 29.92 7.944 3.888 -59.16 -9.128 -47.16 29.92 45.98 -2.028 -2.028 15.89 -41.07 11.83 -19.1
1.41 -3.043 -17.07 21.97 -1.014 12.85 -57.13 -2.028 -29.07 35.83 57.98 -36 0.8451 0.8451 -29.07 11.83 -3.043
1.415 -15.04 -25.02 13.86 -1.014 26.88 -29.07 13.86 3.888 37.86 73.87 -60 -3.043 -9.128 -7.099 13.86 11.83
1.42 -23.16 -31.1 3.888 1.859 31.95 9.973 23.83 41.92 31.95 87.89 -53.07 -9.128 -7.099 5.916 15.89 27.89
1.425 -31.1 -41.07 -1.014 0.8451 30.93 45.98 25.86 67.95 25.86 93.98 -19.1 -21.13 1.859 13.86 15.89 31.95
1.43 -41.07 -51.05 -15.04 -11.16 14.87 59.84 19.95 73.87 15.89 87.89 13.86 -31.1 11.83 9.973 13.86 23.83
1.435 -51.05 -59.16 -27.04 -37.02 0.8451 49.86 13.86 63.89 7.944 71.84 37.86 -37.02 9.973 9.973 7.944 11.83
1.44 -57.13 -59.16 -35.16 -59.16 -11.16 25.86 13.86 45.98 7.944 45.98 37.86 -33.13 -2.028 15.89 3.888 -2.028
1.445 -53.07 -49.02 -29.07 -63.05 -11.16 5.916 17.92 25.86 9.973 13.86 27.89 -21.13 -11.16 31.95 5.916 -7.099
1.45 -37.02 -33.13 -11.16 -43.1 -2.028 0 27.89 9.973 7.944 -15.04 19.95 -5.071 -17.07 43.95 17.92 -15.04
1.455 -15.04 -13.02 5.916 -9.128 13.86 7.944 35.83 0.8451 1.859 -47.16 17.92 -2.028 -11.16 45.98 31.95 -21.13
1.46 4.902 -2.028 23.83 15.89 23.83 17.92 37.86 -11.16 -5.071 -67.1 19.95 0.8451 0 31.95 41.92 -29.07
1.465 24.85 9.973 29.92 31.95 25.86 23.83 33.97 -19.1 -15.04 -71.16 21.97 -3.043 15.89 15.89 45.98 -33.13
1.47 34.99 13.86 27.89 33.97 23.83 23.83 29.92 -21.13 -21.13 -57.13 21.97 -5.071 27.89 5.916 39.89 -35.16
1.475 36.85 11.83 23.83 33.97 21.97 19.95 25.86 -15.04 -19.1 -33.13 19.95 -2.028 29.92 5.916 33.97 -31.1
1.48 26.88 0 21.97 35.83 17.92 15.89 17.92 -11.16 -17.07 -11.16 19.95 7.944 21.97 9.973 23.83 -25.02
1.485 6.93 -11.16 15.89 37.86 9.973 5.916 1.859 -15.04 -17.07 -2.028 15.89 11.83 9.973 11.83 13.86 -15.04
1.49 -13.02 -27.04 1.859 31.95 -1.014 -7.099 -17.07 -27.04 -23.16 1.859 2.873 3.888 -3.043 5.916 1.859 -7.099
1.495 -33.13 -35.16 -15.04 9.973 -27.04 -33.13 -43.1 -43.1 -29.07 0 -16.06 -5.071 -19.1 -2.028 -7.099 -5.071
1.5 -43.1 -29.07 -43.1 -13.02 -53.07 -57.13 -57.13 -51.05 -31.1 0 -39.05 -17.07 -33.13 -1.014 -19.1 -5.071
1.505 -43.1 -11.16 -64.06 -35.16 -69.13 -65.08 -55.1 -41.07 -26.03 5.916 -48 -17.07 -38.03 0 -25.02 -5.071
1.51 -35.16 1.859 -76.06 -37.02 -67.1 -49.02 -39.05 -13.02 -20.11 17.92 -40.06 -4.057 -36 15.89 -23.16 -2.028
1.515 -31.1 9.973 -79.11 -23.16 -55.1 -11.16 -17.07 19.95 -19.1 31.95 -23.16 3.888 -29.07 31.95 -15.04 9.973
1.52 -35.16 -2.028 -70.15 -6.085 -36 23.83 1.859 51.89 -22.14 45.98 -5.071 8.958 -20.11 41.92 -9.128 23.83
1.525 -43.1 -21.13 -66.09 1.859 -24 49.86 4.902 69.98 -26.03 57.98 0.8451 -1.014 -12 43.95 -6.085 29.92
1.53 -49.02 -43.1 -63.05 -7.099 -23.16 47.83 1.859 69.98 -31.1 61.86 -2.028 -15.04 -7.099 37.86 -15.04 25.86
1.535 -41.07 -51.05 -61.02 -20.11 -18.09 25.86 1.859 57.98 -27.04 55.95 -2.028 -30.09 -1.014 31.95 -24 10.99
1.54 -25.02 -42.09 -55.1 -28.06 -14.03 -3.043 -2.028 31.95 -23.16 33.97 -6.085 -32.12 0.8451 21.97 -32.12 -4.057
1.545 -5.071 -21.13 -43.1 -27.04 -9.128 -29.07 -7.099 0 -21.13 -2.028 -9.128 -25.02 -3.043 11.83 -33.13 -25.02
1.55 10.99 -1.014 -24 -11.16 -1.014 -45.13 -11.16 -34.14 -20.11 -43.1 -6.085 -9.128 -4.057 5.916 -24 -42.09
1.555 26.88 18.93 -3.043 0 0 -49.02 -11.16 -78.09 -16.06 -85.02 0 3.888 0 0 -9.128 -58.15
1.56 34.99 35.83 9.973 11.83 3.888 -49.02 -9.128 -113.1 -7.099 -113.1 9.973 21.97 1.859 0 0 -77.08
1.565 42.93 46.99 24.85 16.9 14.87 -44.12 0 -128.1 2.873 -119.2 20.96 35.83 18.93 5.916 11.83 -83.16
1.57 40.9 55.95 28.9 15.89 23.83 -38.03 3.888 -116.1 13.86 -100.1 20.96 40.9 31.95 16.9 16.9 -77.08
1.575 32.96 53.92 19.95 7.944 25.86 -25.02 5.916 -83.16 17.92 -73.02 11.83 29.92 29.92 23.83 11.83 -53.07
1.58 18.93 39.89 0.8451 1.859 18.93 -10.14 0.8451 -44.12 10.99 -40.06 0 9.973 10.99 34.99 0.8451 -23.16
1.585 2.873 11.83 -30.09 -3.043 1.859 1.859 -23.16 -12 -1.014 -15.04 -22.14 -13.02 -9.128 35.83 -17.07 -1.014
1.59 -19.1 -16.06 -60 -16.06 -28.06 1.859 -45.13 -2.028 -20.11 0.8451 -38.03 -33.13 -36 32.96 -32.12 10.99
1.595 -29.07 -37.02 -82.15 -29.07 -56.12 -10.14 -65.08 -6.085 -31.1 11.83 -40.06 -39.05 -47.16 17.92 -41.07 4.902
1.6 -35.16 -41.07 -89.08 -45.13 -68.12 -30.09 -65.08 -8.113 -36 24.85 -32.12 -27.04 -50.03 6.93 -43.1 -1.014
1.605 -35.16 -29.07 -81.13 -59.16 -65.08 -45.13 -53.07 -2.028 -37.02 33.97 -15.04 -15.04 -45.13 1.859 -41.07 0.8451
1.61 -33.13 -5.071 -64.06 -63.05 -51.05 -36 -29.07 28.9 -37.02 48.85 0.8451 -4.057 -37.02 14.87 -38.03 15.89
1.615 -27.04 6.93 -46.14 -58.15 -32.12 -12 -8.113 66.94 -32.12 61.86 16.9 1.859 -34.14 39.89 -37.02 51.89
1.62 -23.16 19.95 -33.13 -43.1 -19.1 19.95 1.859 101.9 -29.07 73.87 21.97 1.859 -31.1 69.98 -31.1 79.95
1.625 -13.02 28.9 -21.13 -19.1 -5.071 57.98 15.89 122.9 -18.09 83.84 11.83 9.973 -22.14 93.98 -19.1 92.97
1.63 -1.014 36.85 -16.06 1.859 3.888 83.84 25.86 124.9 -8.113 85.87 -8.113 17.92 -12 97.87 -10.14 80.96
1.635 6.93 43.95 -9.128 9.973 15.89 89.92 29.92 111.9 0.8451 81.98 -37.02 21.97 0.8451 87.89 -2.028 51.89
1.64 16.9 44.96 -7.099 12.85 28.9 79.95 36.85 91.95 3.888 69.98 -44.12 18.93 9.973 65.92 8.958 20.96
1.645 20.96 29.92 -3.043 6.93 32.96 57.98 34.99 65.92 5.916 49.86 -30.09 8.958 17.92 37.86 12.85 -1.014
1.65 20.96 7.944 -1.014 1.859 25.86 23.83 25.86 39.89 1.859 25.86 -2.028 1.859 21.97 11.83 11.83 -11.16
1.655 22.99 -1.014 -1.014 4.902 14.87 -5.071 14.87 7.944 2.873 -1.014 31.95 6.93 26.88 -5.071 12.85 -23.16
1.66 34.99 3.888 10.99 18.93 10.99 -37.02 6.93 -23.16 4.902 -41.07 51.89 22.99 32.96 -19.1 11.83 -37.02
1.665 54.93 41.92 29.92 43.95 13.86 -57.13 -2.028 -59.16 3.888 -81.13 53.92 43.95 41.92 -23.16 13.86 -57.13
1.67 80.96 91.95 52.91 75.89 23.83 -57.13 -1.014 -91.11 2.873 -111.1 48.85 64.91 46.99 -13.02 19.95 -73.02
1.675 98.88 130 62.88 97.87 33.97 -41.07 -3.043 -111.1 1.859 -123.1 40.9 71.84 48.85 0 19.95 -77.08
1.68 96.85 130 57.98 101.9 33.97 -19.1 -5.071 -115.1 -5.071 -109 29.92 61.86 41.92 15.89 15.89 -69.13
1.685 70.99 93.98 31.95 77.92 19.95 -3.043 -13.02 -103.1 -11.16 -73.02 12.85 35.83 25.86 19.95 5.916 -47.16
1.69 28.9 39.89 -1.014 33.97 0.8451 0.8451 -21.13 -77.08 -11.16 -27.04 -8.113 1.859 7.944 7.944 0.8451 -19.1
1.695 -13.02 -5.071 -43.1 -13.02 -23.16 -7.099 -23.16 -39.05 -9.128 17.92 -35.16 -25.02 -5.071 0.8451 -3.043 3.888
1.7 -41.07 -29.07 -69.13 -51.05 -39.05 -13.02 -19.1 1.859 -1.014 59.84 -45.13 -41.07 -11.16 0.8451 0.8451 31.95
1.705 -45.13 -27.04 -75.05 -65.08 -39.05 -3.043 -7.099 47.83 5.916 91.95 -31.1 -39.05 -7.099 13.86 7.944 55.95
1.71 -33.13 -11.16 -59.16 -53.07 -25.02 19.95 11.83 89.92 23.83 113.9 -3.043 -21.13 0 43.95 25.86 71.84
1.715 -13.02 0.8451 -27.04 -23.16 0.8451 61.86 41.92 121.9 41.92 128 15.89 -1.014 15.89 69.98 41.92 77.92
1.72 -1.014 -2.028 1.859 7.944 25.86 99.9 71.84 140 59.84 130 23.83 5.916 31.95 81.98 53.92 71.84
1.725 -1.014 -3.043 29.92 33.97 55.95 123.9 93.98 143.8 67.95 125.9 17.92 3.888 43.95 73.87 59.84 61.86
1.73 -1.014 -15.04 43.95 45.98 73.87 125.9 99.9 137.9 57.98 116 15.89 -1.014 49.86 55.95 57.98 55.95
1.735 0.8451 -27.04 39.89 41.92 75.89 106 85.87 122.9 31.95 99.9 29.92 -11.16 45.98 39.89 47.83 55.95
1.74 2.873 -31.1 23.83 27.89 61.86 73.87 55.95 98.88 0.8451 80.96 53.92 -15.04 29.92 29.92 27.89 57.98
1.745 10.99 -27.04 3.888 5.916 35.83 35.83 19.95 67.95 -33.13 49.86 79.95 -13.02 9.973 21.97 3.888 47.83
1.75 20.96 -15.04 -5.071 -5.071 9.973 1.859 -4.057 30.93 -51.05 12.85 94.99 -7.099 0.8451 9.973 -11.16 23.83
1.755 28.9 0.8451 -5.071 -9.128 -3.043 -30.09 -22.14 -4.057 -49.02 -22.14 92.97 -1.014 -1.014 -5.071 -21.13 -7.099
1.76 34.99 13.86 0 -1.014 -5.071 -55.1 -27.04 -45.13 -33.13 -59.16 77.92 0 1.859 -27.04 -21.13 -35.16
1.765 38.88 25.86 17.92 9.973 -2.028 -64.06 -22.14 -71.16 -17.07 -82.15 62.88 8.958 9.973 -43.1 -11.16 -42.09
1.77 40.9 35.83 31.95 31.95 10.99 -60 -16.06 -87.05 -7.099 -87.05 50.88 20.96 11.83 -45.13 0.8451 -32.12
1.775 40.9 39.89 35.83 45.98 15.89 -45.13 -15.04 -87.05 -11.16 -85.02 39.89 29.92 1.859 -31.1 1.859 -11.16
1.78 32.96 39.89 27.89 47.83 12.85 -23.16 -13.02 -80.12 -21.13 -79.11 31.95 32.96 -9.128 -13.02 0 -2.028
1.785 26.88 34.99 9.973 37.86 0.8451 -11.16 -17.07 -72.01 -31.1 -76.06 17.92 26.88 -17.07 -3.043 -3.043 -14.03
1.79 16.9 23.83 -7.099 19.95 -11.16 -15.04 -19.1 -71.16 -31.1 -73.02 3.888 9.973 -15.04 -11.16 -17.07 -41.07
1.795 4.902 10.99 -29.07 2.873 -24 -28.06 -20.11 -67.1 -21.13 -63.05 -2.028 -4.057 -11.16 -26.03 -25.02 -62.03
1.8 -5.071 -2.028 -41.07 -6.085 -23.16 -40.06 -18.09 -58.15 -4.057 -43.1 -8.113 -19.1 -7.099 -36 -26.03 -61.02
1.805 -11.16 -11.16 -43.1 -11.16 -15.04 -43.1 -9.128 -35.16 9.973 -11.16 -11.16 -23.16 -5.071 -31.1 -19.1 -47.16
1.81 -9.128 -8.113 -37.02 0 1.859 -22.14 10.99 0 28.9 22.99 -8.113 -14.03 -6.085 -10.14 0 -17.07
1.815 -1.014 0 -17.07 14.87 30.93 3.888 40.9 43.95 42.93 54.93 -3.043 1.859 1.859 6.93 14.87 2.873
1.82 6.93 13.86 -2.028 39.89 53.92 43.95 69.98 83.84 49.86 75.89 1.859 11.83 11.83 19.95 27.89 13.86
1.825 14.87 23.83 11.83 58.99 65.92 74.88 87.89 110.9 49.86 93.98 12.85 16.9 27.89 18.93 29.92 12.85
1.83 8.958 15.89 10.99 59.84 60.85 83.84 86.88 121.9 47.83 106 15.89 5.916 28.9 14.87 22.99 12.85
1.835 -3.043 -1.014 1.859 42.93 39.89 79.95 70.99 122.9 48.85 117 11.83 -16.06 15.89 17.92 9.973 19.95
1.84 -25.02 -17.07 -18.09 13.86 10.99 59.84 44.96 109.9 47.83 121.9 -5.071 -41.07 -4.057 32.96 -1.014 34.99
1.845 -39.05 -35.16 -41.07 -12 -13.02 40.9 25.86 96.85 49.86 118 -36 -64.06 -23.16 48.85 -1.014 50.88
1.85 -39.05 -43.1 -51.05 -35.16 -27.04 17.92 3.888 71.84 47.83 93.98 -67.1 -69.13 -35.16 47.83 -3.043 53.92
1.855 -27.04 -33.13 -55.1 -44.12 -34.14 -3.043 -4.057 41.92 30.93 64.91 -77.08 -56.12 -32.12 26.88 -8.113 40.9
1.86 -11.16 -24 -53.07 -40.06 -41.07 -30.09 -20.11 7.944 0.8451 22.99 -62.03 -34.14 -34.14 -4.057 -26.03 11.83
1.865 -5.071 -11.16 -49.02 -33.13 -47.16 -59.16 -35.16 -23.16 -33.13 -13.02 -25.02 -13.02 -45.13 -45.13 -49.02 -13.02
1.87 0.8451 0 -43.1 -22.14 -51.05 -76.06 -44.12 -48 -66.09 -51.05 12.85 1.859 -61.02 -64.06 -62.03 -35.16
1.875 -1.014 2.873 -33.13 -8.113 -50.03 -76.06 -46.14 -65.08 -87.05 -81.13 40.9 0.8451 -73.02 -60 -67.1 -44.12
1.88 2.873 5.916 -21.13 3.888 -41.07 -61.02 -37.02 -69.13 -83.16 -105.1 43.95 0 -63.05 -45.13 -53.07 -41.07
1.885 8.958 12.85 -11.16 13.86 -24 -39.05 -19.1 -68.12 -65.08 -116.1 29.92 0 -31.1 -27.04 -33.13 -28.06
1.89 14.87 11.83 -5.071 15.89 -6.085 -23.16 0.8451 -66.09 -37.02 -111.1 11.83 -2.028 5.916 -15.04 -13.02 -18.09
1.895 16.9 9.973 -3.043 13.86 1.859 -17.07 9.973 -59.16 -7.099 -95.16 3.888 -1.014 37.86 -11.16 0.8451 -15.04
1.9 8.958 9.973 -3.043 5.916 8.958 -12 16.9 -49.02 15.89 -69.13 12.85 1.859 49.86 -9.128 3.888 -12
1.905 0.8451 7.944 -1.014 3.888 9.973 -12 18.93 -33.13 41.92 -44.12 28.9 0.8451 43.95 -9.128 9.973 -8.113
1.91 -13.02 7.944 -1.014 3.888 7.944 -7.099 21.97 -15.04 65.92 -17.07 33.97 0 27.89 -7.099 15.89 0.8451
1.915 -25.02 1.859 -3.043 5.916 3.888 1.859 24.85 0.8451 83.84 2.873 16.9 -5.071 15.89 -11.16 23.83 11.83
1.92 -27.04 -1.014 -9.128 1.859 0.8451 2.873 24.85 22.99 91.95 26.88 -6.085 -15.04 9.973 -17.07 25.86 29.92
1.925 -23.16 -7.099 -17.07 0.8451 -9.128 5.916 21.97 41.92 81.98 45.98 -31.1 -25.02 1.859 -17.07 21.97 45.98
1.93 -15.04 -9.128 -23.16 -5.071 -11.16 9.973 15.89 56.96 55.95 60.85 -29.07 -29.07 -7.099 -9.128 9.973 53.92
1.935 -7.099 -5.071 -19.1 -5.071 -9.128 17.92 5.916 64.91 15.89 63.89 -1.014 -23.16 -25.02 7.944 -1.014 51.89
1.94 0.8451 0.8451 -11.16 -1.014 -5.071 29.92 -5.071 63.89 -21.13 57.98 29.92 -13.02 -37.02 31.95 -15.04 39.89
1.945 -1.014 0 -3.043 -2.028 -1.014 37.86 -23.16 55.95 -53.07 43.95 49.86 0.8451 -41.07 47.83 -23.16 23.83
1.95 -1.014 0.8451 0.8451 -2.028 -1.014 35.83 -37.02 41.92 -67.1 29.92 39.89 3.888 -31.1 43.95 -27.04 11.83
1.955 -5.071 -7.099 -5.071 -1.014 -9.128 21.97 -43.1 23.83 -63.05 15.89 13.86 3.888 -17.07 21.97 -23.16 5.916
1.96 -9.128 -15.04 -13.02 -9.128 -15.04 0 -41.07 7.944 -45.13 3.888 -1.014 0.8451 -5.071 -1.014 -19.1 5.916
1.965 -7.099 -19.1 -17.07 -13.02 -17.07 -15.04 -33.13 -5.071 -27.04 -3.043 0.8451 -5.071 0 -23.16 -13.02 3.888
1.97 -1.014 -13.02 -17.07 -11.16 -17.07 -29.07 -23.16 -23.16 -13.02 -19.1 15.89 -11.16 7.944 -35.16 -11.16 0.8451
1.975 2.873 -2.028 -11.16 -7.099 -13.02 -35.16 -19.1 -43.1 -11.16 -39.05 37.86 -9.128 17.92 -39.05 -11.16 -11.16
1.98 8.958 15.89 -7.099 -3.043 -11.16 -37.02 -23.16 -63.05 -13.02 -57.13 43.95 -1.014 23.83 -41.07 -13.02 -23.16
1.985 10.99 33.97 -3.043 0.8451 -13.02 -43.1 -29.07 -75.05 -17.07 -75.05 40.9 7.944 23.83 -39.05 -13.02 -31.1
1.99 10.99 43.95 0.8451 3.888 -13.02 -45.13 -29.07 -77.08 -11.16 -89.08 35.83 21.97 15.89 -33.13 -9.128 -29.07
1.995 10.99 47.83 0 17.92 -7.099 -41.07 -17.07 -67.1 -2.028 -98.04 50.88 33.97 3.888 -21.13 -1.014 -27.04
2 14.87 47.83 7.944 33.97 -2.028 -27.04 -2.028 -47.16 20.96 -106.1 76.91 39.89 -1.014 -5.071 7.944 -25.02
2.005 24.85 43.95 17.92 47.83 11.83 -3.043 21.97 -23.16 43.95 -115.1 91.95 37.86 0.8451 3.888 23.83 -31.1
2.01 32.96 41.92 25.86 49.86 21.97 19.95 39.89 -1.014 66.94 -108 78.94 33.97 9.973 13.86 39.89 -37.02
2.015 36.85 41.92 31.95 43.95 31.95 41.92 47.83 10.99 82.99 -92.12 41.92 29.92 29.92 19.95 49.86 -39.05
2.02 34.99 43.95 35.83 35.83 35.83 55.95 45.98 21.97 89.92 -63.05 3.888 29.92 45.98 27.89 53.92 -33.13
2.025 30.93 45.98 37.86 27.89 39.89 59.84 43.95 38.88 86.88 -23.16 0 31.95 51.89 34.99 49.86 -19.1
2.03 30.93 45.98 39.89 21.97 45.98 59.84 41.92 48.85 69.98 5.916 30.93 27.89 50.88 38.88 41.92 -11.16
2.035 30.93 43.95 41.92 21.97 49.86 57.98 43.95 53.92 41.92 27.89 81.98 13.86 43.95 27.89 37.86 -11.16
2.04 36.85 35.83 41.92 16.9 47.83 49.86 43.95 54.93 13.86 36.85 118 -1.014 46.99 10.99 31.95 -21.13
2.045 40.9 25.86 42.93 8.958 43.95 39.89 41.92 45.98 1.859 34.99 116 -17.07 48.85 1.859 27.89 -29.07
2.05 38.88 15.89 41.92 0 39.89 31.95 35.83 31.95 -9.128 27.89 81.98 -21.13 43.95 -1.014 25.86 -25.02
2.055 32.96 5.916 38.88 0 33.97 23.83 27.89 19.95 -5.071 30.93 40.9 -13.02 28.9 5.916 18.93 -10.14
2.06 20.96 0 36.85 1.859 29.92 20.96 17.92 16.9 0.8451 37.86 8.958 -3.043 5.916 19.95 4.902 2.873
2.065 6.93 -1.014 29.92 1.859 23.83 13.86 9.973 15.89 9.973 55.95 -1.014 0 -15.04 27.89 -7.099 21.97
2.07 -1.014 -3.043 21.97 6.93 13.86 6.93 6.93 23.83 15.89 74.88 0.8451 -2.028 -23.16 24.85 -20.11 31.95
2.075 -9.128 -1.014 15.89 9.973 5.916 -2.028 6.93 34.99 18.93 87.89 -2.028 -1.014 -19.1 12.85 -26.03 33.97
2.08 -7.099 3.888 10.99 6.93 1.859 -2.028 9.973 43.95 16.9 89.92 7.944 -1.014 -6.085 -1.014 -24 27.89
2.085 -1.014 15.89 7.944 5.916 0 -5.071 12.85 42.93 8.958 63.89 13.86 1.859 3.888 -1.014 -18.09 27.89
2.09 12.85 27.89 3.888 4.902 5.916 1.859 14.87 29.92 -2.028 22.99 27.89 11.83 7.944 6.93 -8.113 23.83
2.095 24.85 31.95 3.888 0 9.973 3.888 7.944 7.944 -5.071 -23.16 35.83 15.89 3.888 15.89 -5.071 15.89
2.1 22.99 27.89 1.859 -2.028 1.859 8.958 -3.043 -14.03 -12 -67.1 32.96 7.944 0.8451 19.95 -6.085 10.99
2.105 10.99 13.86 -6.085 -10.14 -9.128 1.859 -25.02 -41.07 -13.02 -88.06 18.93 -5.071 -8.113 13.86 -14.03 4.902
2.11 -7.099 -1.014 -23.16 -23.16 -33.13 -5.071 -47.16 -57.13 -9.128 -83.16 -2.028 -21.13 -17.07 1.859 -19.1 0.8451
2.115 -31.1 -21.13 -34.14 -30.09 -49.02 -17.07 -57.13 -49.02 4.902 -52.06 -13.02 -25.02 -20.11 1.859 -17.07 0.8451
2.12 -47.16 -33.13 -41.07 -32.12 -51.05 -21.13 -55.1 -28.06 31.95 -10.14 -13.02 -19.1 -22.14 0 -13.02 -2.028
2.125 -51.05 -33.13 -39.05 -29.07 -45.13 -15.04 -39.05 -1.014 55.95 25.86 -9.128 -5.071 -19.1 1.859 -3.043 1.859
2.13 -45.13 -25.02 -33.13 -23.16 -31.1 -1.014 -19.1 24.85 73.87 57.98 -4.057 1.859 -16.06 6.93 -1.014 11.83
2.135 -31.1 -15.04 -27.04 -19.1 -21.13 5.916 -7.099 42.93 74.88 71.84 -5.071 3.888 -17.07 2.873 -3.043 21.97
2.14 -13.02 -9.128 -23.16 -17.07 -21.13 7.944 -7.099 39.89 61.86 69.98 -13.02 0 -23.16 -3.043 -11.16 31.95
2.145 -1.014 -9.128 -21.13 -17.07 -25.02 -2.028 -9.128 30.93 36.85 58.99 -19.1 0.8451 -31.1 -15.04 -19.1 29.92
2.15 10.99 -9.128 -13.02 -9.128 -23.16 -7.099 -7.099 11.83 4.902 38.88 -24 -1.014 -37.02 -19.1 -19.1 25.86
2.155 14.87 -5.071 0.8451 -1.014 -9.128 -11.16 -2.028 0 -23.16 19.95 -23.16 0 -29.07 -7.099 -13.02 19.95
2.16 12.85 0 15.89 3.888 1.859 0.8451 7.944 -3.043 -48 8.958 -10.14 7.944 -11.16 9.973 -11.16 11.83
2.165 6.93 11.83 31.95 13.86 17.92 13.86 11.83 -1.014 -69.13 12.85 1.859 13.86 0 33.97 -15.04 9.973
2.17 0.8451 15.89 35.83 15.89 19.95 27.89 5.916 1.859 -81.13 25.86 7.944 9.973 -2.028 47.83 -25.02 15.89
2.175 0.8451 9.973 23.83 13.86 7.944 27.89 -1.014 11.83 -81.13 43.95 6.93 0 -19.1 43.95 -33.13 21.97
2.18 -5.071 -1.014 1.859 5.916 -7.099 15.89 -11.16 19.95 -67.1 53.92 0.8451 -5.071 -51.05 25.86 -33.13 25.86
2.185 -11.16 -19.1 -15.04 -2.028 -23.16 -2.028 -15.04 19.95 -41.07 47.83 -11.16 -11.16 -75.05 1.859 -23.16 23.83
2.19 -19.1 -29.07 -33.13 -3.043 -31.1 -15.04 -11.16 11.83 -7.099 23.83 -21.13 -11.16 -77.08 -13.02 -11.16 15.89
2.195 -27.04 -31.1 -41.07 -11.16 -35.16 -23.16 -7.099 0.8451 19.95 -5.071 -21.13 -11.16 -61.02 -23.16 -5.071 5.916
2.2 -33.13 -25.02 -43.1 -21.13 -37.02 -23.16 -7.099 -13.02 43.95 -33.13 -19.1 -11.16 -39.05 -25.02 -7.099 -2.028
2.205 -31.1 -15.04 -41.07 -29.07 -39.05 -21.13 -15.04 -23.16 53.92 -49.02 -19.1 -11.16 -29.07 -23.16 -15.04 -3.043
2.21 -23.16 -5.071 -39.05 -35.16 -41.07 -21.13 -23.16 -21.13 51.89 -47.16 -27.04 -13.02 -33.13 -15.04 -21.13 -5.071
2.215 -15.04 -1.014 -37.02 -35.16 -39.05 -23.16 -27.04 -13.02 43.95 -33.13 -31.1 -9.128 -43.1 -5.071 -19.1 -1.014
2.22 -11.16 -1.014 -37.02 -31.1 -37.02 -25.02 -25.02 -9.128 37.86 -19.1 -25.02 -5.071 -53.07 0.8451 -11.16 -2.028
2.225 -13.02 -7.099 -37.02 -27.04 -35.16 -29.07 -25.02 -13.02 33.97 -11.16 -4.057 -3.043 -57.13 -1.014 -5.071 -2.028
2.23 -19.1 -21.13 -37.02 -27.04 -39.05 -37.02 -29.07 -27.04 27.89 -13.02 8.958 -9.128 -59.16 -15.04 -3.043 -3.043
2.235 -23.16 -35.16 -39.05 -31.1 -47.16 -49.02 -37.02 -47.16 17.92 -19.1 5.916 -19.1 -63.05 -37.02 -7.099 -17.07
2.24 -21.13 -49.02 -37.02 -37.02 -52.06 -61.02 -43.1 -61.02 0.8451 -23.16 -11.16 -31.1 -73.02 -55.1 -13.02 -33.13
2.245 -13.02 -57.13 -31.1 -41.07 -50.03 -69.13 -43.1 -61.02 -16.06 -19.1 -43.1 -37.02 -75.05 -63.05 -17.07 -43.1
2.25 -5.071 -55.1 -21.13 -41.07 -37.02 -67.1 -31.1 -47.16 -35.16 -9.128 -59.16 -37.02 -59.16 -51.05 -19.1 -41.07
2.255 -3.043 -47.16 -9.128 -39.05 -20.11 -55.1 -10.14 -25.02 -46.14 -2.028 -32.12 -33.13 -31.1 -29.07 -21.13 -26.03
2.26 -7.099 -35.16 0.8451 -35.16 -6.085 -37.02 2.873 -3.043 -54.09 5.916 16.9 -27.04 -3.043 -7.099 -19.1 -2.028
2.265 -13.02 -27.04 1.859 -31.1 0.8451 -17.07 13.86 7.944 -61.02 7.944 73.87 -25.02 5.916 3.888 -19.1 13.86
2.27 -15.04 -23.16 3.888 -18.09 -1.014 -3.043 16.9 9.973 -76.06 0.8451 111.9 -27.04 0 6.93 -20.11 26.88
2.275 -7.099 -21.13 4.902 -4.057 0 -2.028 10.99 2.873 -97.02 -4.057 131 -29.07 -18.09 0.8451 -22.14 22.99
2.28 -1.014 -19.1 3.888 5.916 0 0.8451 0 -11.16 -115.1 -17.07 137.9 -29.07 -39.05 -5.071 -25.02 5.916
2.285 0.8451 -15.04 8.958 16.9 1.859 -7.099 -4.057 -32.12 -117.1 -26.03 153 -23.16 -44.12 -12 -22.14 -11.16
2.29 2.873 -9.128 12.85 16.9 0.8451 -21.13 -11.16 -50.03 -92.12 -32.12 172.9 -21.13 -36 -20.11 -20.11 -29.07
2.295 0.8451 -3.043 9.973 5.916 -1.014 -33.13 -15.04 -61.02 -47.16 -33.13 179.8 -15.04 -21.13 -31.1 -15.04 -35.16
2.3 0.8451 -1.014 6.93 -3.043 -11.16 -38.03 -15.04 -56.12 -2.028 -25.02 172.9 -7.099 -6.085 -37.02 -1.014 -28.06
2.305 6.93 -5.071 0 -18.09 -21.13 -34.14 -12 -45.13 37.86 -8.113 152 1.859 0.8451 -35.16 1.859 -13.02
2.31 8.958 -11.16 -5.071 -27.04 -33.13 -27.04 -13.02 -31.1 51.89 3.888 137.9 0 -1.014 -27.04 0 -7.099
2.315 10.99 -13.02 -11.16 -26.03 -35.16 -18.09 -14.03 -13.02 46.99 26.88 145.9 0.8451 -7.099 -9.128 -1.014 -10.14
2.32 6.93 -15.04 -15.04 -22.14 -34.14 -12 -18.09 -4.057 30.93 44.96 167 -3.043 -15.04 3.888 -11.16 -18.09
2.325 -1.014 -13.02 -16.06 -18.09 -31.1 -7.099 -19.1 -1.014 23.83 56.96 183.9 -10.14 -22.14 13.86 -15.04 -19.1
2.33 -9.128 -15.04 -11.16 -16.06 -26.03 -8.113 -20.11 6.93 20.96 64.91 180.9 -23.16 -21.13 7.944 -17.07 -12
2.335 -11.16 -17.07 -3.043 -16.06 -21.13 -7.099 -16.06 17.92 28.9 64.91 171.9 -24 -13.02 0.8451 -11.16 -1.014
2.34 -9.128 -19.1 0 -19.1 -15.04 -7.099 -13.02 21.97 33.97 49.86 173.9 -19.1 -5.071 -13.02 -5.071 11.83
2.345 0.8451 -17.07 13.86 -18.09 -7.099 -2.028 -8.113 21.97 31.95 26.88 202 -6.085 1.859 -15.04 0.8451 15.89
2.35 4.902 -7.099 20.96 -13.02 -3.043 0 -3.043 12.85 15.89 -2.028 242.9 1.859 4.902 -11.16 1.859 6.93
2.355 14.87 -2.028 25.86 -3.043 0 0.8451 1.859 1.859 1.859 -21.13 272 15.89 5.916 -5.071 -2.028 -2.028
2.36 20.96 5.916 30.93 8.958 8.958 3.888 19.95 1.859 -2.028 -30.09 273 19.95 12.85 0 2.873 5.916
2.365 20.96 5.916 30.93 24.85 17.92 13.86 30.93 4.902 -9.128 -22.14 246.9 17.92 20.96 -2.028 10.99 23.83
2.37 20.96 3.888 27.89 31.95 25.86 25.86 37.86 17.92 -13.02 -1.014 209.9 7.944 15.89 -11.16 11.83 43.95
2.375 14.87 0 26.88 28.9 27.89 37.86 30.93 28.9 -19.1 12.85 189 -2.028 -1.014 -16.06 12.85 50.88
2.38 10.99 1.859 21.97 20.96 20.96 43.95 14.87 27.89 -36 20.96 181.9 0.8451 -25.02 -20.11 6.93 34.99
2.385 6.93 1.859 17.92 19.95 9.973 39.89 0.8451 11.83 -51.05 11.83 183.9 0 -47.16 -11.16 1.859 1.859
2.39 4.902 -3.043 11.83 21.97 1.859 27.89 -12 -9.128 -56.12 0.8451 189 5.916 -53.07 -3.043 -2.028 -20.11
2.395 0.8451 -19.1 3.888 25.86 -10.14 11.83 -16.06 -33.13 -44.12 -5.071 189 9.973 -29.07 0 0 -32.12
2.4 -3.043 -35.16 -2.028 27.89 -19.1 -2.028 -11.16 -41.07 -15.04 0.8451 183.9 7.944 3.888 -2.028 1.859 -23.16
2.405 -11.16 -43.1 -3.043 19.95 -20.11 -5.071 -5.071 -33.13 16.9 17.92 179.8 3.888 31.95 -7.099 1.859 -3.043
2.41 -17.07 -37.02 -7.099 3.888 -18.09 -7.099 0.8451 -13.02 42.93 43.95 167.8 0 31.95 -19.1 -2.028 3.888
2.415 -19.1 -21.13 -9.128 -5.071 -11.16 -3.043 0.8451 5.916 53.92 67.95 142 -2.028 5.916 -25.02 -5.071 5.916
2.42 -19.1 -3.043 -11.16 -9.128 -3.043 0 0.8451 23.83 53.92 83.84 119 0.8451 -21.13 -25.02 -11.16 0
2.425 -17.07 1.859 -9.128 -3.043 1.859 9.973 0 35.83 47.83 93.98 102.9 0.8451 -39.05 -17.07 -11.16 1.859
2.43 -21.13 1.859 -5.071 5.916 13.86 23.83 11.83 47.83 45.98 101.9 113.9 0.8451 -33.13 -3.043 -5.071 15.89
2.435 -27.04 0.8451 -3.043 17.92 21.97 39.89 25.86 61.86 49.86 111.9 140 -2.028 -11.16 3.888 0.8451 35.83
2.44 -31.1 -7.099 -3.043 23.83 23.83 57.98 37.86 75.89 53.92 118 164 3.888 3.888 15.89 0 51.89
2.445 -31.1 -11.16 -7.099 23.83 21.97 71.84 41.92 83.84 53.92 111.9 159.9 9.973 7.944 25.86 0 47.83
2.45 -25.02 -11.16 -9.128 19.95 15.89 75.89 35.83 81.98 45.98 93.98 133.9 13.86 -2.028 31.95 0.8451 29.92
2.455 -17.07 -11.16 -7.099 17.92 9.973 69.98 27.89 69.98 35.83 59.84 101.9 9.973 -15.04 29.92 -3.043 9.973
2.46 -9.128 -7.099 0.8451 19.95 9.973 53.92 21.97 51.89 21.97 19.95 93.98 1.859 -25.02 19.95 -5.071 1.859
2.465 -1.014 0.8451 9.973 23.83 13.86 39.89 23.83 33.97 9.973 -9.128 111.9 -3.043 -21.13 5.916 -1.014 7.944
2.47 0.8451 7.944 23.83 27.89 21.97 27.89 27.89 15.89 0.8451 -35.16 143.8 -1.014 -7.099 -1.014 -2.028 17.92
2.475 10.99 19.95 33.97 31.95 27.89 21.97 27.89 -2.028 -17.07 -45.13 157.9 5.916 7.944 -5.071 3.888 19.95
2.48 18.93 23.83 35.83 31.95 25.86 15.89 19.95 -15.04 -37.02 -45.13 142 23.83 21.97 -5.071 5.916 7.944
2.485 22.99 19.95 31.95 27.89 17.92 7.944 5.916 -33.13 -55.1 -39.05 108.9 37.86 27.89 -4.057 3.888 -9.128
2.49 18.93 7.944 25.86 17.92 3.888 0.8451 -7.099 -45.13 -69.13 -27.04 78.94 41.92 19.95 -8.113 0.8451 -29.07
2.495 6.93 0 17.92 3.888 -3.043 -11.16 -23.16 -49.02 -75.05 -11.16 73.87 35.83 5.916 -19.1 -13.02 -35.16
2.5 -1.014 0 7.944 -3.043 -15.04 -23.16 -37.02 -47.16 -79.11 3.888 94.99 29.92 -7.099 -28.06 -27.04 -31.1
2.505 -9.128 7.944 0 -17.07 -23.16 -29.07 -47.16 -40.06 -79.11 23.83 117 23.83 -17.07 -34.14 -33.13 -21.13
2.51 -7.099 15.89 0 -21.13 -27.04 -29.07 -53.07 -35.16 -73.02 41.92 128 21.97 -13.02 -35.16 -29.07 -11.16
2.515 -1.014 17.92 3.888 -23.16 -25.02 -28.06 -51.05 -30.09 -57.13 55.95 130 17.92 -1.014 -30.09 -13.02 -4.057
2.52 2.873 3.888 17.92 -14.03 -18.09 -24 -39.05 -22.14 -31.1 61.86 125.9 9.973 11.83 -23.16 0 0
2.525 6.93 -15.04 23.83 -3.043 -9.128 -19.1 -17.07 -7.099 -1.014 65.92 128 0 29.92 -25.02 13.86 -2.028
2.53 6.93 -37.02 26.88 2.873 1.859 -4.057 0 10.99 18.93 66.94 138.9 -5.071 37.86 -21.13 19.95 0.8451
2.535 4.902 -45.13 20.96 8.958 -1.014 4.902 17.92 35.83 36.85 64.91 146.9 -9.128 37.86 -10.14 15.89 2.873
2.54 2.873 -39.05 7.944 9.973 0 19.95 27.89 55.95 41.92 63.89 142 -9.128 33.97 0 13.86 7.944
2.545 6.93 -19.1 4.902 4.902 0.8451 37.86 29.92 67.95 40.9 64.91 131 -5.071 27.89 15.89 15.89 19.95
2.55 12.85 -5.071 8.958 0.8451 5.916 41.92 25.86 68.96 36.85 66.94 119.8 -5.071 27.89 17.92 22.99 27.89
2.555 12.85 0 19.95 -11.16 9.973 37.86 23.83 53.92 31.95 63.89 118 -11.16 31.95 1.859 27.89 31.95
2.56 10.99 0.8451 34.99 -21.13 21.97 23.83 19.95 27.89 25.86 45.98 130 -21.13 37.86 -19.1 24.85 17.92
2.565 6.93 0 42.93 -27.04 29.92 2.873 18.93 -2.028 22.99 12.85 146.9 -26.03 40.9 -49.02 13.86 -6.085
2.57 4.902 0 42.93 -31.1 32.96 -16.06 14.87 -24 15.89 -29.07 155.8 -24 32.96 -68.12 6.93 -38.03
2.575 6.93 0 38.88 -29.07 33.97 -38.03 10.99 -51.05 2.873 -78.09 155 -16.06 18.93 -75.05 1.859 -62.03
2.58 12.85 -1.014 30.93 -25.02 31.95 -49.02 7.944 -67.1 -7.099 -113.1 149.9 -9.128 5.916 -69.13 8.958 -67.1
2.585 16.9 -5.071 21.97 -21.13 27.89 -45.13 5.916 -71.16 -21.13 -123.1 152 -1.014 1.859 -65.08 17.92 -57.13
2.59 10.99 -17.07 14.87 -17.07 21.97 -35.16 7.944 -64.06 -28.06 -106.1 164 -1.014 5.916 -51.05 24.85 -41.07
2.595 0.8451 -31.1 4.902 -18.09 12.85 -23.16 5.916 -47.16 -26.03 -68.12 177 -3.043 13.86 -37.02 23.83 -27.04
2.6 -9.128 -39.05 -3.043 -23.16 1.859 -17.07 5.916 -23.16 -15.04 -21.13 176 -11.16 7.944 -21.13 17.92 -23.16
2.605 -21.13 -43.1 -12 -30.09 1.859 -14.03 0 -3.043 -1.014 16.9 158.9 -19.1 -7.099 -8.113 7.944 -14.03
2.61 -31.1 -47.16 -18.09 -32.12 -8.113 -24 -5.071 0.8451 10.99 44.96 126.9 -29.07 -35.16 -9.128 -1.014 -4.057
2.615 -37.02 -49.02 -23.16 -33.13 -17.07 -37.02 -17.07 -3.043 9.973 53.92 93.98 -37.02 -61.02 -21.13 -15.04 0
2.62 -43.1 -45.13 -25.02 -24 -24 -48 -31.1 -16.06 -2.028 49.86 77.92 -41.07 -67.1 -45.13 -31.1 4.902
2.625 -47.16 -39.05 -27.04 -14.03 -35.16 -56.12 -41.07 -30.09 -19.1 41.92 81.98 -39.05 -59.16 -66.09 -43.1 2.873
2.63 -49.02 -29.07 -27.04 -7.099 -43.1 -57.13 -45.13 -33.13 -33.13 37.86 97.87 -29.07 -43.1 -75.05 -47.16 -3.043
2.635 -47.16 -21.13 -27.04 -5.071 -43.1 -45.13 -39.05 -20.11 -35.16 37.86 120.9 -11.16 -29.07 -64.06 -43.1 -5.071
2.64 -43.1 -17.07 -23.16 -9.128 -37.02 -29.07 -29.07 0 -21.13 45.98 138.9 -2.028 -25.02 -42.09 -33.13 -3.043
2.645 -35.16 -13.02 -19.1 -15.04 -29.07 -11.16 -17.07 23.83 -3.043 49.86 143.8 5.916 -27.04 -23.16 -21.13 0.8451
2.65 -27.04 -11.16 -13.02 -17.07 -17.07 0.8451 -7.099 39.89 7.944 47.83 134.9 5.916 -31.1 -10.14 -13.02 -2.028
2.655 -21.13 -11.16 -5.071 -11.16 -7.099 1.859 -1.014 41.92 15.89 41.92 112.9 -2.028 -37.02 -10.14 -5.071 -1.014
2.66 -17.07 -13.02 0 -2.028 -3.043 3.888 -2.028 31.95 19.95 27.89 83.84 0.8451 -41.07 -13.02 0.8451 -7.099
2.665 -11.16 -15.04 13.86 17.92 -1.014 1.859 0 15.89 23.83 11.83 63.89 0 -39.05 -11.16 0 -7.099
2.67 -1.014 -15.04 27.89 37.86 -2.028 0 1.859 3.888 29.92 -5.071 67.95 17.92 -25.02 0.8451 1.859 0
2.675 16.9 -3.043 41.92 51.89 5.916 1.859 5.916 0 31.95 -35.16 91.95 41.92 -2.028 17.92 1.859 11.83
2.68 36.85 11.83 51.89 55.95 19.95 7.944 15.89 -2.028 25.86 -71.16 118 57.98 27.89 39.89 3.888 15.89
2.685 50.88 35.83 55.95 53.92 35.83 15.89 23.83 -2.028 9.973 -109 128 57.98 47.83 51.89 5.916 1.859
2.69 52.91 47.83 53.92 47.83 45.98 23.83 31.95 0.8451 -5.071 -139.1 111.9 39.89 45.98 51.89 9.973 -19.1
2.695 42.93 43.95 49.86 43.95 49.86 27.89 31.95 -7.099 -23.16 -149.1 81.98 13.86 27.89 45.98 11.83 -43.1
2.7 24.85 21.97 39.89 37.86 39.89 29.92 21.97 -11.16 -35.16 -137.1 55.95 -1.014 1.859 41.92 7.944 -51.05
2.705 8.958 0.8451 27.89 31.95 23.83 25.86 5.916 -11.16 -35.16 -101.1 49.86 -5.071 -5.071 43.95 0 -39.05
2.71 0.8451 -17.07 13.86 21.97 7.944 23.83 -5.071 -5.071 -31.1 -57.13 53.92 -2.028 -1.014 51.89 -5.071 -13.02
2.715 -1.014 -21.13 1.859 9.973 0.8451 19.95 -17.07 1.859 -25.02 -17.07 53.92 7.944 13.86 55.95 -13.02 3.888
2.72 0.8451 -19.1 0 0.8451 0.8451 15.89 -17.07 9.973 -19.1 5.916 39.89 11.83 33.97 51.89 -15.04 13.86
2.725 4.902 -13.02 9.973 -5.071 1.859 11.83 -11.16 13.86 -9.128 21.97 19.95 5.916 41.92 39.89 -9.128 9.973
2.73 6.93 -11.16 25.86 -3.043 10.99 7.944 -1.014 13.86 3.888 30.93 13.86 0 37.86 25.86 -1.014 1.859
2.735 12.85 -7.099 37.86 -2.028 18.93 5.916 3.888 11.83 24.85 36.85 25.86 0 23.83 19.95 1.859 0
2.74 20.96 0.8451 39.89 0 19.95 3.888 9.973 13.86 39.89 41.92 49.86 9.973 9.973 23.83 7.944 11.83
2.745 28.9 5.916 29.92 0 20.96 5.916 13.86 23.83 44.96 52.91 61.86 21.97 5.916 29.92 11.83 35.83
2.75 30.93 13.86 11.83 -12 18.93 9.973 19.95 37.86 38.88 60.85 51.89 23.83 11.83 35.83 15.89 57.98
2.755 28.9 11.83 0 -23.16 21.97 13.86 23.83 45.98 19.95 59.84 27.89 15.89 25.86 39.89 21.97 67.95
2.76 20.96 0 1.859 -22.14 25.86 13.86 28.9 47.83 2.873 57.98 5.916 1.859 40.9 41.92 23.83 56.96
2.765 12.85 -7.099 11.83 -10.14 27.89 11.83 28.9 39.89 -2.028 49.86 1.859 -5.071 44.96 45.98 23.83 24.85
2.77 12.85 -9.128 25.86 -2.028 23.83 5.916 23.83 25.86 -1.014 39.89 7.944 -3.043 35.83 55.95 17.92 -5.071
2.775 18.93 0.8451 27.89 11.83 16.9 0 18.93 15.89 1.859 26.88 13.86 3.888 18.93 67.95 10.99 -24
2.78 24.85 13.86 17.92 15.89 11.83 -2.028 14.87 13.86 9.973 0.8451 5.916 15.89 4.902 79.95 2.873 -22.14
2.785 24.85 31.95 11.83 11.83 7.944 1.859 13.86 13.86 15.89 -33.13 0.8451 13.86 0 83.84 0 -1.014
2.79 22.99 39.89 13.86 10.99 10.99 9.973 15.89 13.86 15.89 -80.12 1.859 3.888 15.89 70.99 0.8451 21.97
2.795 14.87 33.97 25.86 13.86 14.87 15.89 22.99 7.944 4.902 -125.1 14.87 -4.057 35.83 44.96 5.916 25.86
2.8 8.958 19.95 37.86 15.89 13.86 19.95 21.97 -3.043 -1.014 -153.1 41.92 -9.128 49.86 15.89 3.888 5.916
2.805 2.873 5.916 37.86 21.97 9.973 14.87 18.93 -19.1 -1.014 -155.2 65.92 1.859 43.95 0 2.873 -22.14
2.81 0.8451 0 22.99 16.9 0.8451 9.973 12.85 -29.07 -1.014 -130.2 64.91 13.86 22.99 1.859 0.8451 -45.13
2.815 -1.014 5.916 0.8451 6.93 -4.057 1.859 6.93 -29.07 5.916 -91.11 49.86 24.85 0 8.958 1.859 -51.05
2.82 0.8451 17.92 -12 0.8451 -8.113 1.859 -1.014 -23.16 17.92 -52.06 20.96 25.86 -18.09 25.86 -1.014 -39.05
2.825 6.93 27.89 -15.04 0 -7.099 -4.057 1.859 -17.07 27.89 -23.16 0 14.87 -13.02 29.92 1.859 -22.14
2.83 10.99 31.95 -3.043 3.888 -5.071 -11.16 -3.043 -17.07 21.97 -7.099 -1.014 1.859 5.916 23.83 0 -11.16
2.835 12.85 27.89 5.916 13.86 0 -13.02 -2.028 -13.02 14.87 5.916 4.902 -1.014 25.86 16.9 3.888 -5.071
2.84 10.99 21.97 17.92 24.85 -1.014 -9.128 -2.028 -5.071 1.859 20.96 24.85 0 33.97 18.93 4.902 7.944
2.845 -1.014 15.89 21.97 31.95 5.916 0 7.944 9.973 -5.071 39.89 39.89 3.888 17.92 27.89 3.888 31.95
2.85 -7.099 11.83 23.83 33.97 19.95 21.97 22.99 37.86 -9.128 60.85 39.89 1.859 -1.014 41.92 8.958 62.88
2.855 -19.1 5.916 19.95 21.97 30.93 39.89 30.93 55.95 -5.071 72.85 25.86 -1.014 0 41.92 8.958 80.96
2.86 -25.02 -2.028 11.83 1.859 33.97 43.95 29.92 61.86 0.8451 75.89 9.973 -17.07 3.888 27.89 5.916 73.87
2.865 -21.13 -7.099 0 -18.09 21.97 29.92 16.9 47.83 -1.014 67.95 0 -27.04 22.99 0 -2.028 48.85
2.87 -11.16 -15.04 -7.099 -38.03 3.888 5.916 0 21.97 0 47.83 11.83 -31.1 32.96 -17.07 -9.128 22.99
2.875 -1.014 -19.1 -15.04 -41.07 -11.16 -11.16 -25.02 0.8451 -17.07 21.97 33.97 -33.13 15.89 -27.04 -19.1 7.944
2.88 4.902 -15.04 -9.128 -24 -18.09 -21.13 -39.05 -17.07 -32.12 -2.028 55.95 -29.07 -7.099 -19.1 -27.04 5.916
2.885 10.99 -7.099 0 0 -12 -17.07 -43.1 -31.1 -44.12 -38.03 67.95 -27.04 -37.02 -9.128 -31.1 7.944
2.89 16.9 -2.028 13.86 17.92 -2.028 -7.099 -33.13 -41.07 -43.1 -77.08 67.95 -19.1 -45.13 -1.014 -25.02 0
2.895 18.93 9.973 23.83 27.89 14.87 0 -17.07 -47.16 -30.09 -114.1 67.95 -7.099 -33.13 -1.014 -13.02 -17.07
2.9 16.9 17.92 25.86 23.83 22.99 5.916 -2.028 -45.13 -9.128 -136.1 81.98 1.859 -7.099 -1.014 0 -43.1
2.905 10.99 21.97 27.89 17.92 25.86 9.973 15.89 -35.16 11.83 -141.1 111.9 9.973 15.89 -2.028 17.92 -57.13
2.91 0.8451 21.97 29.92 15.89 27.89 13.86 27.89 -21.13 31.95 -127.1 140 9.973 33.97 7.944 29.92 -53.07
2.915 -7.099 13.86 31.95 19.95 27.89 15.89 33.97 -11.16 39.89 -101.1 143.8 1.859 41.92 13.86 33.97 -39.05
2.92 -17.07 -2.028 27.89 19.95 21.97 7.944 31.95 -13.02 37.86 -75.05 113.9 -9.128 39.89 5.916 29.92 -29.07
2.925 -23.16 -17.07 11.83 9.973 9.973 -3.043 21.97 -33.13 29.92 -57.13 59.84 -23.16 31.95 -13.02 21.97 -31.1
2.93 -27.04 -35.16 -5.071 -7.099 -5.071 -29.07 9.973 -55.1 19.95 -43.1 7.944 -33.13 15.89 -43.1 15.89 -43.1
2.935 -27.04 -49.02 -27.04 -33.13 -23.16 -51.05 0 -67.1 13.86 -29.07 -13.02 -39.05 0.8451 -63.05 13.86 -53.07
2.94 -33.13 -53.07 -43.1 -53.07 -35.16 -61.02 -1.014 -55.1 7.944 -11.16 -7.099 -43.1 -17.07 -63.05 15.89 -45.13
2.945 -43.1 -53.07 -49.02 -61.02 -39.05 -53.07 -1.014 -23.16 5.916 11.83 9.973 -45.13 -27.04 -45.13 15.89 -19.1
2.95 -55.1 -51.05 -49.02 -61.02 -39.05 -29.07 -3.043 13.86 1.859 41.92 25.86 -47.16 -23.16 -17.07 9.973 11.83
2.955 -63.05 -47.16 -53.07 -59.16 -39.05 -5.071 -5.071 45.98 0 69.98 19.95 -45.13 -13.02 1.859 -2.028 43.95
2.96 -65.08 -45.13 -61.02 -63.05 -43.1 7.944 -15.04 63.89 -1.014 89.92 -1.014 -37.02 -7.099 17.92 -13.02 57.98
2.965 -57.13 -39.05 -69.13 -67.1 -49.02 15.89 -29.07 65.92 -11.16 98.88 -27.04 -23.16 -19.1 23.83 -27.04 57.98
2.97 -47.16 -27.04 -67.1 -67.1 -49.02 13.86 -41.07 55.95 -25.02 95.84 -37.02 -11.16 -45.13 21.97 -39.05 49.86
2.975 -35.16 -11.16 -51.05 -55.1 -43.1 7.944 -51.05 42.93 -40.06 86.88 -30.09 -3.043 -74.03 19.95 -45.13 43.95
2.98 -23.16 0 -25.02 -33.13 -35.16 0 -55.1 24.85 -54.09 72.85 -18.09 -2.028 -88.06 15.89 -45.13 43.95
2.985 -9.128 13.86 -2.028 -5.071 -23.16 -1.014 -53.07 5.916 -57.13 59.84 -11.16 3.888 -77.08 11.83 -39.05 45.98
2.99 4.902 25.86 19.95 15.89 -17.07 -4.057 -42.09 -8.113 -46.14 48.85 -10.14 15.89 -40.06 16.9 -26.03 43.95
2.995 24.85 35.83 33.97 37.86 -5.071 -2.028 -24 -18.09 -20.11 45.98 -8.113 33.97 1.859 28.9 -12 33.97
3 42.93 45.98 43.95 51.89 3.888 0 0.8451 -23.16 5.916 31.95 1.859 53.92 27.89 43.95 1.859 17.92
3.005 54.93 49.86 55.95 65.92 23.83 14.87 22.99 -21.13 27.89 5.916 35.83 65.92 43.95 56.96 18.93 2.873
3.01 54.93 49.86 69.98 73.87 41.92 30.93 42.93 -23.16 35.83 -37.02 63.89 69.98 47.83 54.93 32.96 -4.057
3.015 48.85 45.98 83.84 79.95 51.89 39.89 51.89 -33.13 29.92 -91.11 75.89 59.84 45.98 31.95 39.89 -15.04
3.02 40.9 37.86 87.89 75.89 52.91 35.83 50.88 -48 18.93 -131.2 58.99 39.89 49.86 0 47.83 -24
3.025 38.88 29.92 73.87 59.84 38.88 15.89 39.89 -63.05 7.944 -143.2 25.86 15.89 52.91 -29.07 49.86 -34.14
3.03 38.88 25.86 45.98 35.83 17.92 0.8451 21.97 -57.13 7.944 -113.1 -3.043 -1.014 47.83 -47.16 47.83 -37.02
3.035 36.85 19.95 11.83 7.944 0 -16.06 10.99 -31.1 17.92 -51.05 -14.03 -16.06 33.97 -38.03 44.96 -23.16
3.04 26.88 11.83 -9.128 -9.128 -18.09 -19.1 6.93 11.83 31.95 13.86 1.859 -20.11 19.95 -15.04 37.86 -1.014
3.045 12.85 3.888 -23.16 -17.07 -27.04 -7.099 11.83 59.84 47.83 71.84 17.92 -17.07 3.888 9.973 33.97 19.95
3.05 0.8451 -1.014 -23.16 -16.06 -22.14 11.83 24.85 100.9 65.92 105 28.9 -10.14 0 30.93 38.88 37.86
3.055 0.8451 -5.071 -13.02 -7.099 -7.099 36.85 42.93 119.8 73.87 113.9 12.85 -6.085 3.888 38.88 52.91 44.96
3.06 10.99 -5.071 0.8451 1.859 6.93 46.99 53.92 120.9 78.94 112.9 -7.099 -1.014 14.87 34.99 64.91 38.88
3.065 24.85 -1.014 9.973 5.916 23.83 50.88 60.85 116 69.98 109.9 -30.09 0 29.92 32.96 70.99 32.96
3.07 38.88 0 21.97 10.99 28.9 47.83 54.93 108.9 49.86 110.9 -32.12 -1.014 41.92 34.99 58.99 31.95
3.075 46.99 9.973 33.97 15.89 27.89 49.86 37.86 101.9 15.89 109.9 -11.16 3.888 43.95 43.95 31.95 41.92
3.08 52.91 21.97 45.98 23.83 26.88 55.95 16.9 91.95 -13.02 101.9 10.99 14.87 39.89 49.86 0 43.95
3.085 56.96 37.86 59.84 35.83 26.88 60.85 -1.014 71.84 -45.13 83.84 22.99 20.96 23.83 46.99 -18.09 37.86
3.09 62.88 51.89 77.92 51.89 35.83 51.89 -7.099 37.86 -69.13 59.84 17.92 25.86 13.86 31.95 -29.07 21.97
3.095 70.99 61.86 93.98 63.89 46.99 33.97 -5.071 -2.028 -75.05 35.83 9.973 31.95 12.85 15.89 -27.04 6.93
3.1 76.91 65.92 107.8 69.98 54.93 7.944 0 -32.12 -66.09 23.83 2.873 39.89 23.83 11.83 -11.16 4.902
3.105 76.91 59.84 113.9 67.95 55.95 -13.02 5.916 -53.07 -47.16 19.95 11.83 45.98 43.95 15.89 -2.028 13.86
3.11 76.91 49.86 107.8 61.86 51.89 -18.09 20.96 -53.07 -21.13 17.92 31.95 47.83 63.89 24.85 8.958 24.85
3.115 72.85 35.83 93.98 49.86 45.98 -10.14 30.93 -43.1 -2.028 7.944 43.95 41.92 67.95 26.88 18.93 26.88
3.12 66.94 25.86 75.89 39.89 39.89 0.8451 29.92 -37.02 13.86 -17.07 29.92 33.97 55.95 9.973 21.97 13.86
3.125 56.96 19.95 59.84 29.92 33.97 4.902 28.9 -40.06 20.96 -65.08 4.902 25.86 34.99 -8.113 28.9 -7.099
3.13 42.93 19.95 45.98 19.95 27.89 4.902 18.93 -52.06 20.96 -122 -20.11 23.83 18.93 -26.03 30.93 -29.07
3.135 30.93 21.97 33.97 13.86 19.95 0 11.83 -63.05 19.95 -159.1 -37.02 29.92 9.973 -29.07 33.97 -41.07
3.14 24.85 23.83 21.97 11.83 9.973 0 9.973 -58.15 32.96 -158 -30.09 39.89 10.99 -13.02 35.83 -43.1
3.145 22.99 23.83 11.83 17.92 5.916 7.944 17.92 -36 56.96 -126.1 -14.03 43.95 14.87 1.859 35.83 -37.02
3.15 24.85 21.97 5.916 27.89 7.944 21.97 27.89 -7.099 83.84 -73.02 -11.16 39.89 17.92 15.89 37.86 -31.1
3.155 22.99 19.95 1.859 33.97 9.973 35.83 35.83 17.92 104 -18.09 -23.16 31.95 19.95 15.89 35.83 -27.04
3.16 12.85 17.92 -2.028 31.95 7.944 39.89 35.83 35.83 111.9 13.86 -49.02 21.97 21.97 1.859 31.95 -23.16
3.165 0.8451 13.86 -5.071 17.92 -2.028 33.97 23.83 43.95 104 31.95 -67.1 15.89 17.92 -7.099 21.97 -15.04
3.17 -15.04 3.888 -15.04 0 -11.16 23.83 7.944 41.92 85.87 35.83 -71.16 13.86 5.916 -11.16 9.973 -5.071
3.175 -25.02 -5.071 -21.13 -5.071 -23.16 15.89 -1.014 39.89 59.84 39.89 -57.13 11.83 -5.071 -1.014 0.8451 0
3.18 -21.13 -23.16 -19.1 -3.043 -23.16 15.89 -5.071 41.92 29.92 47.83 -41.07 5.916 -19.1 11.83 -9.128 3.888
3.185 -11.16 -35.16 -7.099 3.888 -11.16 23.83 -1.014 45.98 -1.014 55.95 -35.16 0.8451 -21.13 25.86 -15.04 0
3.19 -1.014 -39.05 3.888 11.83 0 31.95 0 41.92 -41.07 53.92 -39.05 -15.04 -7.099 27.89 -19.1 -5.071
3.195 -1.014 -39.05 13.86 7.944 7.944 29.92 -2.028 23.83 -81.13 37.86 -45.13 -33.13 3.888 7.944 -27.04 -17.07
3.2 -3.043 -37.02 9.973 -11.16 1.859 11.83 -11.16 -3.043 -111.1 11.83 -43.1 -47.16 5.916 -23.16 -37.02 -29.07
3.205 -17.07 -43.1 -1.014 -45.13 -10.14 -17.07 -35.16 -43.1 -127.1 -11.16 -31.1 -57.13 -9.128 -65.08 -49.02 -37.02
3.21 -31.1 -51.05 -21.13 -79.11 -34.14 -59.16 -57.13 -81.13 -121 -29.07 -19.1 -63.05 -43.1 -97.02 -57.13 -43.1
3.215 -43.1 -61.02 -35.16 -101.1 -49.02 -95.16 -71.16 -109 -103.1 -37.02 -13.02 -65.08 -71.16 -111.1 -59.16 -49.02
3.22 -45.13 -65.08 -39.05 -106.1 -50.03 -117.1 -71.16 -119.2 -79.11 -37.02 -19.1 -63.05 -79.11 -109 -55.1 -53.07
3.225 -41.07 -65.08 -33.13 -100.1 -42.09 -119.2 -59.16 -117.1 -59.16 -37.02 -35.16 -61.02 -65.08 -95.16 -47.16 -52.06
3.23 -37.02 -61.02 -29.07 -93.13 -33.13 -107.2 -43.1 -103.1 -45.13 -43.1 -53.07 -57.13 -41.07 -81.13 -41.07 -47.16
3.235 -37.02 -61.02 -29.07 -86.04 -29.07 -87.05 -31.1 -87.05 -37.02 -51.05 -80.12 -55.1 -29.07 -73.02 -37.02 -36
3.24 -43.1 -63.05 -37.02 -80.12 -33.13 -69.13 -25.02 -73.02 -29.07 -61.02 -110 -55.1 -26.03 -71.16 -37.02 -28.06
3.245 -53.07 -63.05 -45.13 -75.05 -41.07 -53.07 -23.16 -57.13 -13.02 -65.08 -137.1 -53.07 -35.16 -71.16 -35.16 -23.16
3.25 -57.13 -57.13 -46.14 -61.02 -38.03 -37.02 -17.07 -37.02 3.888 -56.12 -142.2 -47.16 -36 -67.1 -31.1 -22.14
3.255 -49.02 -45.13 -38.03 -45.13 -26.03 -16.06 -7.099 -17.07 37.86 -36 -122 -36 -28.06 -55.1 -21.13 -22.14
3.26 -35.16 -35.16 -23.16 -35.16 -3.043 0.8451 3.888 -2.028 71.84 -7.099 -79.11 -25.02 -11.16 -39.05 -7.099 -23.16
3.265 -19.1 -32.12 -6.085 -30.09 6.93 8.958 15.89 11.83 97.87 22.99 -35.16 -12 1.859 -29.07 1.859 -15.04
3.27 -13.02 -42.09 -2.028 -32.12 12.85 10.99 17.92 21.97 111.9 52.91 -23.16 -6.085 0.8451 -31.1 10.99 -5.071
3.275 -17.07 -55.1 -7.099 -37.02 1.859 5.916 15.89 23.83 104 69.98 -41.07 -9.128 -3.043 -41.07 11.83 0
3.28 -25.02 -64.06 -15.04 -34.14 -5.071 -1.014 8.958 23.83 79.95 71.84 -70.15 -10.14 -11.16 -47.16 4.902 5.916
3.285 -29.07 -59.16 -25.02 -23.16 -7.099 1.859 4.902 21.97 47.83 53.92 -87.05 -13.02 -14.03 -47.16 1.859 2.873
3.29 -27.04 -47.16 -23.16 -11.16 0.8451 0 9.973 21.97 9.973 29.92 -73.02 -15.04 -13.02 -39.05 -7.099 -2.028
3.295 -9.128 -26.03 -9.128 0.8451 13.86 8.958 20.96 19.95 -20.11 5.916 -36 -7.099 -9.128 -24 -11.16 -3.043
3.3 2.873 -9.128 4.902 5.916 31.95 18.93 24.85 17.92 -52.06 -2.028 0 -2.028 -13.02 -11.16 -18.09 -13.02
3.305 12.85 1.859 16.9 9.973 38.88 21.97 16.9 17.92 -79.11 -4.057 -1.014 4.902 -22.14 -1.014 -25.02 -21.13
3.31 12.85 0 20.96 7.944 29.92 24.85 0 15.89 -104.1 0.8451 -22.14 10.99 -31.1 0.8451 -38.03 -25.02
3.315 4.902 0 7.944 7.944 7.944 20.96 -30.09 9.973 -120 9.973 -60 9.973 -35.16 -4.057 -49.02 -27.04
3.32 -5.071 -9.128 -7.099 5.916 -13.02 7.944 -59.16 -1.014 -123.1 9.973 -87.05 5.916 -35.16 -17.07 -53.07 -29.07
3.325 -11.16 -13.02 -27.04 3.888 -37.02 -5.071 -76.06 -21.13 -109 3.888 -85.02 3.888 -32.12 -29.07 -46.14 -22.14
3.33 -17.07 -18.09 -39.05 0 -51.05 -30.09 -74.03 -43.1 -77.08 -9.128 -66.09 0.8451 -27.04 -41.07 -34.14 -11.16
3.335 -27.04 -15.04 -47.16 -7.099 -51.05 -49.02 -61.02 -57.13 -27.04 -27.04 -51.05 1.859 -25.02 -43.1 -19.1 0.8451
3.34 -33.13 -4.057 -42.09 -4.057 -40.06 -52.06 -33.13 -55.1 19.95 -32.12 -49.02 6.93 -20.11 -33.13 -4.057 7.944
3.345 -41.07 -1.014 -30.09 -1.014 -24 -36 -5.071 -37.02 63.89 -22.14 -57.13 8.958 -12 -13.02 3.888 17.92
3.35 -47.16 1.859 -23.16 7.944 -13.02 -11.16 11.83 -11.16 85.87 0.8451 -73.02 7.944 -1.014 5.916 11.83 27.89
3.355 -47.16 -2.028 -22.14 15.89 -4.057 10.99 23.83 11.83 89.92 26.88 -76.06 4.902 2.873 19.95 11.83 32.96
3.36 -43.1 -7.099 -26.03 11.83 -10.14 23.83 19.95 27.89 75.89 48.85 -78.09 -2.028 2.873 21.97 5.916 34.99
3.365 -41.07 -21.13 -37.02 0.8451 -25.02 17.92 5.916 27.89 59.84 51.89 -83.16 -3.043 -9.128 11.83 -3.043 23.83
3.37 -39.05 -27.04 -47.16 -12 -39.05 0 -3.043 17.92 47.83 37.86 -94.15 -7.099 -34.14 -2.028 -15.04 12.85
3.375 -41.07 -29.07 -49.02 -18.09 -53.07 -15.04 -17.07 0 39.89 11.83 -110 -9.128 -57.13 -11.16 -21.13 1.859
3.38 -43.1 -27.04 -45.13 -15.04 -59.16 -27.04 -29.07 -15.04 31.95 -11.16 -117.1 -11.16 -65.08 -23.16 -21.13 -11.16
3.385 -43.1 -23.16 -37.02 -2.028 -54.09 -35.16 -39.05 -29.07 13.86 -35.16 -99.05 -13.02 -51.05 -29.07 -21.13 -14.03
3.39 -37.02 -19.1 -29.07 4.902 -50.03 -39.05 -51.05 -41.07 -7.099 -51.05 -65.08 -13.02 -23.16 -29.07 -25.02 -9.128
3.395 -21.13 -9.128 -19.1 11.83 -43.1 -45.13 -61.02 -49.02 -37.02 -63.05 -29.07 -9.128 0 -27.04 -33.13 -5.071
3.4 0.8451 3.888 -9.128 17.92 -34.14 -49.02 -63.05 -53.07 -67.1 -73.02 -5.071 -1.014 17.92 -21.13 -41.07 -7.099
3.405 20.96 27.89 1.859 25.86 -20.11 -45.13 -51.05 -53.07 -89.08 -79.11 -2.028 5.916 21.97 -13.02 -37.02 -21.13
3.41 36.85 47.83 21.97 41.92 -3.043 -29.07 -33.13 -43.1 -103.1 -77.08 0.8451 17.92 13.86 -5.071 -23.16 -37.02
3.415 44.96 49.86 35.83 59.84 5.916 -7.099 -15.04 -31.1 -113.1 -67.1 -5.071 25.86 3.888 -1.014 -5.071 -45.13
3.42 38.88 31.95 39.89 67.95 9.973 5.916 -9.128 -23.16 -123.1 -51.05 -9.128 27.89 -1.014 -3.043 0.8451 -37.02
3.425 24.85 0 27.89 59.84 0 7.944 -17.07 -21.13 -131.2 -35.16 -19.1 25.86 -11.16 -9.128 -7.099 -19.1
3.43 4.902 -25.02 5.916 29.92 -15.04 -3.043 -37.02 -31.1 -129.1 -23.16 -35.16 15.89 -21.13 -23.16 -27.04 -3.043
3.435 -13.02 -41.07 -15.04 -5.071 -37.02 -29.07 -55.1 -45.13 -113.1 -15.04 -53.07 3.888 -27.04 -37.02 -43.1 1.859
3.44 -33.13 -43.1 -35.16 -43.1 -51.05 -55.1 -59.16 -53.07 -81.13 -5.071 -63.05 -5.071 -25.02 -45.13 -45.13 0
3.445 -49.02 -41.07 -45.13 -65.08 -51.05 -63.05 -47.16 -45.13 -37.02 7.944 -61.02 -19.1 -17.07 -43.1 -33.13 0.8451
3.45 -59.16 -43.1 -47.16 -65.08 -45.13 -55.1 -25.02 -25.02 0 29.92 -53.07 -29.07 -1.014 -35.16 -13.02 -2.028
3.455 -63.05 -53.07 -47.16 -55.1 -35.16 -35.16 -7.099 0.8451 31.95 53.92 -51.05 -33.13 3.888 -23.16 0.8451 3.888
3.46 -63.05 -63.05 -49.02 -43.1 -29.07 -17.07 -2.028 15.89 49.86 71.84 -63.05 -31.1 5.916 -15.04 -2.028 15.89
3.465 -59.16 -61.02 -55.1 -41.07 -31.1 -9.128 -2.028 29.92 57.98 77.92 -80.12 -25.02 0.8451 -17.07 -3.043 19.95
3.47 -59.16 -51.05 -63.05 -47.16 -31.1 -11.16 0.8451 29.92 63.89 73.87 -90.09 -21.13 -15.04 -25.02 -9.128 13.86
3.475 -57.13 -39.05 -67.1 -55.1 -35.16 -19.1 -1.014 21.97 71.84 61.86 -87.05 -21.13 -25.02 -37.02 -7.099 0
3.48 -51.05 -35.16 -63.05 -59.16 -37.02 -31.1 -3.043 3.888 79.95 38.88 -68.12 -23.16 -22.14 -51.05 0.8451 -17.07
3.485 -45.13 -41.07 -52.06 -53.07 -39.05 -41.07 -5.071 -15.04 85.87 4.902 -56.12 -27.04 -10.14 -65.08 5.916 -37.02
3.49 -33.13 -49.02 -39.05 -35.16 -39.05 -49.02 -11.16 -43.1 81.98 -31.1 -59.16 -29.07 0 -73.02 11.83 -51.05
3.495 -15.04 -44.12 -22.14 -15.04 -35.16 -49.02 -15.04 -69.13 65.92 -78.09 -71.16 -25.02 14.87 -73.02 9.973 -60
3.5 0.8451 -28.06 -6.085 3.888 -25.02 -41.07 -15.04 -80.12 32.96 -124.1 -75.05 -17.07 22.99 -57.13 0 -60
3.505 6.93 -5.071 5.916 25.86 -9.128 -23.16 -15.04 -81.13 -11.16 -159.1 -55.1 -3.043 25.86 -33.13 -11.16 -55.1
3.51 12.85 8.958 24.85 39.89 -2.028 -3.043 -14.03 -72.01 -64.06 -171.1 -14.03 7.944 25.86 -13.02 -30.09 -42.09
3.515 18.93 10.99 37.86 47.83 5.916 3.888 -20.11 -62.03 -116.1 -167.2 17.92 15.89 17.92 -3.043 -50.03 -30.09
3.52 12.85 1.859 41.92 47.83 1.859 1.859 -35.16 -59.16 -155.2 -147.1 23.83 21.97 5.916 -11.16 -69.13 -19.1
3.525 6.93 -1.014 31.95 38.88 -7.099 -9.128 -52.06 -62.03 -168 -112.1 3.888 17.92 -2.028 -27.04 -78.09 -15.04
3.53 2.873 -9.128 14.87 22.99 -27.04 -27.04 -68.12 -57.13 -157 -69.13 -34.14 5.916 -19.1 -39.05 -78.09 -15.04
3.535 -7.099 -11.16 -3.043 0 -41.07 -37.02 -67.1 -47.16 -131.2 -29.07 -67.1 -1.014 -29.07 -37.02 -73.02 -13.02
3.54 -9.128 -8.113 -17.07 -9.128 -42.09 -26.03 -50.03 -17.07 -85.02 5.916 -74.03 -7.099 -30.09 -22.14 -55.1 -1.014
3.545 -9.128 -7.099 -19.1 -16.06 -27.04 -4.057 -20.11 15.89 -39.05 37.86 -65.08 -7.099 -25.02 0 -28.06 8.958
3.55 -7.099 -7.099 -8.113 -13.02 -7.099 21.97 10.99 51.89 2.873 62.88 -52.06 0.8451 -13.02 16.9 1.859 24.85
3.555 -3.043 -7.099 0 -10.14 11.83 44.96 46.99 79.95 49.86 85.87 -55.1 1.859 0.8451 34.99 28.9 36.85
3.56 -1.014 -8.113 11.83 -1.014 22.99 54.93 72.85 93.98 87.89 99.9 -58.15 1.859 18.93 44.96 53.92 47.83
3.565 -3.043 -9.128 11.83 -3.043 19.95 51.89 81.98 93.98 116 104 -57.13 -1.014 41.92 35.83 67.95 53.92
3.57 -5.071 -13.02 0.8451 -14.03 3.888 33.97 72.85 81.98 130 99.9 -40.06 -17.07 49.86 13.86 70.99 51.89
3.575 -11.16 -19.1 -11.16 -30.09 -19.1 5.916 42.93 54.93 126.9 74.88 -21.13 -29.07 36.85 -15.04 56.96 45.98
3.58 -21.13 -25.02 -27.04 -45.13 -49.02 -23.16 1.859 15.89 109.9 29.92 -23.16 -33.13 0.8451 -49.02 31.95 23.83
3.585 -31.1 -24 -37.02 -51.05 -69.13 -55.1 -32.12 -24 86.88 -11.16 -35.16 -29.07 -47.16 -67.1 8.958 1.859
3.59 -37.02 -20.11 -40.06 -47.16 -77.08 -75.05 -62.03 -64.06 64.91 -51.05 -58.15 -21.13 -75.05 -65.08 -2.028 -22.14
3.595 -37.02 -13.02 -39.05 -33.13 -75.05 -81.13 -73.02 -93.13 43.95 -83.16 -63.05 -13.02 -71.16 -51.05 -11.16 -43.1
3.6 -23.16 -6.085 -26.03 -13.02 -63.05 -75.05 -69.13 -102.1 30.93 -104.1 -37.02 -1.014 -32.12 -35.16 -11.16 -54.09
3.605 -1.014 1.859 -6.085 0 -47.16 -53.07 -51.05 -99.05 13.86 -126.1 0.8451 5.916 10.99 -25.02 -9.128 -60
3.61 16.9 9.973 13.86 21.97 -21.13 -25.02 -29.07 -89.08 -7.099 -159.1 17.92 21.97 43.95 -25.02 -9.128 -63.05
3.615 36.85 27.89 46.99 41.92 3.888 0 -5.071 -71.16 -41.07 -198.1 14.87 39.89 52.91 -23.16 -11.16 -67.1
3.62 48.85 47.83 71.84 59.84 33.97 21.97 7.944 -61.02 -89.08 -226.2 1.859 51.89 46.99 -15.04 -15.04 -67.1
3.625 54.93 61.86 87.89 69.98 53.92 35.83 15.89 -53.07 -137.1 -231.1 -7.099 57.98 41.92 -3.043 -23.16 -61.02
3.63 58.99 63.89 91.95 67.95 59.84 39.89 13.86 -47.16 -173.1 -205 0.8451 51.89 45.98 0 -29.07 -47.16
3.635 58.99 57.98 83.84 57.98 51.89 33.97 7.944 -37.02 -189.1 -157 26.88 39.89 49.86 3.888 -35.16 -25.02
3.64 52.91 43.95 71.84 41.92 35.83 27.89 0 -21.13 -177.1 -99.05 39.89 25.86 39.89 7.944 -37.02 -3.043
3.645 42.93 27.89 53.92 27.89 23.83 25.86 -2.028 0.8451 -139.1 -43.1 29.92 9.973 15.89 11.83 -35.16 9.973
3.65 26.88 13.86 35.83 13.86 17.92 29.92 5.916 19.95 -85.02 0 0 0.8451 -5.071 19.95 -23.16 17.92
3.655 10.99 1.859 13.86 -2.028 15.89 31.95 19.95 41.92 -23.16 43.95 -25.02 -13.02 -15.04 23.83 -3.043 19.95
3.66 -3.043 -5.071 -5.071 -23.16 11.83 29.92 33.97 57.98 25.86 85.87 -39.05 -27.04 -1.014 17.92 15.89 23.83
3.665 -21.13 -19.1 -25.02 -57.13 0 17.92 39.89 69.98 69.98 121.9 -39.05 -35.16 19.95 3.888 35.83 37.86
3.67 -41.07 -29.07 -39.05 -89.08 -11.16 0 37.86 79.95 99.9 147.9 -35.16 -41.07 37.86 -3.043 49.86 57.98
3.675 -55.1 -35.16 -47.16 -111.1 -29.07 -11.16 29.92 85.87 113.9 155.8 -41.07 -43.1 29.92 -9.128 53.92 75.89
3.68 -63.05 -41.07 -53.07 -115.1 -41.07 -19.1 19.95 83.84 113.9 145.9 -51.05 -49.02 3.888 -9.128 47.83 75.89
3.685 -61.02 -51.05 -53.07 -103.1 -47.16 -25.02 5.916 65.92 101.9 121.9 -57.13 -61.02 -17.07 -9.128 37.86 55.95
3.69 -49.02 -61.02 -51.05 -85.02 -47.16 -31.1 -7.099 33.97 79.95 89.92 -53.07 -73.02 -27.04 -21.13 25.86 17.92
3.695 -37.02 -69.13 -41.07 -67.1 -43.1 -43.1 -29.07 -7.099 47.83 53.92 -40.06 -77.08 -23.16 -39.05 11.83 -19.1
3.7 -23.16 -65.08 -25.02 -55.1 -38.03 -61.02 -55.1 -57.13 9.973 14.87 -32.12 -63.05 -11.16 -57.13 -2.028 -49.02
3.705 -11.16 -47.16 -9.128 -45.13 -33.13 -79.11 -73.02 -95.16 -21.13 -21.13 -27.04 -33.13 -11.16 -61.02 -15.04 -63.05
3.71 0.8451 -17.07 0 -31.1 -24 -85.02 -81.13 -113.1 -55.1 -58.15 -16.06 -1.014 -19.1 -51.05 -29.07 -59.16
3.715 8.958 7.944 9.973 -12 -12 -77.08 -75.05 -110 -75.05 -86.04 1.859 13.86 -29.07 -33.13 -37.02 -48
3.72 18.93 23.83 17.92 5.916 -2.028 -55.1 -57.13 -95.16 -85.02 -101.1 11.83 17.92 -29.07 -19.1 -39.05 -39.05
3.725 24.85 23.83 33.97 30.93 19.95 -23.16 -29.07 -68.12 -78.09 -104.1 11.83 9.973 -10.14 -7.099 -33.13 -32.12
3.73 28.9 13.86 51.89 46.99 41.92 9.973 0.8451 -40.06 -66.09 -99.05 -4.057 3.888 12.85 -2.028 -23.16 -28.06
3.735 30.93 7.944 69.98 57.98 59.84 43.95 23.83 -11.16 -57.13 -95.16 -33.13 11.83 41.92 17.92 -11.16 -25.02
3.74 34.99 13.86 80.96 64.91 78.94 71.84 47.83 14.87 -46.14 -93.13 -45.13 30.93 64.91 43.95 0 -18.09
3.745 44.96 29.92 82.99 66.94 88.91 93.98 71.84 41.92 -44.12 -86.04 -21.13 46.99 74.88 65.92 17.92 -12
3.75 52.91 47.83 75.89 63.89 91.95 106 89.92 63.89 -43.1 -73.02 25.86 49.86 77.92 73.87 39.89 -3.043
3.755 50.88 56.96 70.99 57.98 89.92 108.9 105 81.98 -35.16 -45.13 77.92 40.9 77.92 66.94 56.96 5.916
3.76 34.99 46.99 64.91 43.95 84.85 100.9 110.9 94.99 -19.1 -7.099 92.97 22.99 69.98 48.85 70.99 13.86
3.765 12.85 25.86 55.95 27.89 71.84 87.89 106 99.9 5.916 25.86 63.89 9.973 51.89 31.95 71.84 17.92
3.77 -3.043 4.902 43.95 17.92 57.98 74.88 96.85 99.9 42.93 60.85 12.85 0 32.96 28.9 72.85 21.97
3.775 -15.04 -4.057 23.83 10.99 39.89 60.85 82.99 90.94 81.98 82.99 -23.16 1.859 11.83 27.89 73.87 16.9
3.78 -15.04 -7.099 -2.028 7.944 15.89 43.95 63.89 79.95 116 95.84 -47.16 -9.128 -3.043 17.92 65.92 11.83
3.785 -13.02 0 -23.16 7.944 -5.071 26.88 38.88 65.92 138.9 106 -50.03 -18.09 -16.06 4.902 54.93 12.85
3.79 -11.16 0.8451 -46.14 1.859 -32.12 4.902 7.944 54.93 142 107.8 -59.16 -24 -26.03 -8.113 33.97 20.96
3.795 -19.1 0.8451 -59.16 -11.16 -53.07 -14.03 -14.03 39.89 128 111.9 -83.16 -22.14 -35.16 -23.16 11.83 26.88
3.8 -29.07 -4.057 -60 -17.07 -64.06 -32.12 -41.07 22.99 97.87 106 -107.2 -16.06 -38.03 -28.06 -9.128 34.99
3.805 -31.1 -14.03 -55.1 -15.04 -65.08 -40.06 -54.09 5.916 54.93 97.87 -120 -6.085 -40.06 -22.14 -22.14 38.88
3.81 -23.16 -19.1 -39.05 -5.071 -59.16 -43.1 -63.05 -7.099 1.859 75.89 -113.1 -3.043 -43.1 -13.02 -29.07 35.83
3.815 -5.071 -16.06 -27.04 4.902 -45.13 -40.06 -64.06 -24 -47.16 48.85 -81.13 0 -41.07 -5.071 -29.07 30.93
3.82 6.93 0 -15.04 15.89 -43.1 -40.06 -66.09 -45.13 -96.01 10.99 -48 1.859 -48 -12 -38.03 19.95
3.825 14.87 13.86 -7.099 13.86 -45.13 -47.16 -69.13 -69.13 -139.1 -31.1 -21.13 13.86 -51.05 -19.1 -49.02 5.916
3.83 16.9 34.99 -1.014 9.973 -46.14 -54.09 -66.09 -86.04 -167.2 -79.11 -2.028 30.93 -45.13 -18.09 -60 -5.071
3.835 12.85 48.85 14.87 15.89 -37.02 -50.03 -60 -97.02 -181 -111.1 1.859 42.93 -29.07 -8.113 -68.12 -15.04
3.84 14.87 57.98 33.97 33.97 -9.128 -31.1 -43.1 -85.02 -183.1 -131.2 3.888 43.95 -5.071 1.859 -65.08 -21.13
3.845 26.88 59.84 54.93 62.88 22.99 0 -13.02 -51.05 -172.1 -122 1.859 36.85 18.93 21.97 -51.05 -10.14
3.85 42.93 53.92 64.91 86.88 56.96 43.95 15.89 -8.113 -148.1 -95.16 1.859 30.93 38.88 29.92 -31.1 0.8451
3.855 58.99 45.98 63.89 93.98 77.92 81.98 45.98 29.92 -113.1 -59.16 0 37.86 51.89 31.95 -5.071 19.95
3.86 68.96 39.89 57.98 90.94 89.92 101.9 69.98 64.91 -64.06 -27.04 4.902 53.92 60.85 29.92 17.92 34.99
3.865 68.96 37.86 53.92 76.91 85.87 101.9 87.89 78.94 -6.085 -8.113 17.92 73.87 68.96 25.86 47.83 40.9
3.87 60.85 39.89 57.98 57.98 79.95 87.89 99.9 77.92 49.86 -2.028 31.95 77.92 73.87 27.89 77.92 37.86
3.875 50.88 45.98 67.95 42.93 76.91 71.84 107.8 68.96 107.8 4.902 45.98 59.84 77.92 27.89 99.9 32.96
3.88 42.93 47.83 77.92 27.89 74.88 57.98 109.9 57.98 149.9 12.85 42.93 31.95 75.89 19.95 106 23.83
3.885 36.85 43.95 73.87 11.83 69.98 41.92 101.9 47.83 179.8 21.97 29.92 5.916 67.95 1.859 97.87 13.86
3.89 32.96 31.95 53.92 -1.014 56.96 25.86 83.84 39.89 188 34.99 12.85 0.8451 55.95 -19.1 79.95 0
3.895 24.85 19.95 23.83 -19.1 29.92 5.916 59.84 31.95 185.9 45.98 -2.028 0 41.92 -41.07 59.84 -9.128
3.9 10.99 7.944 -7.099 -37.02 -2.028 -11.16 33.97 17.92 173.9 51.89 -21.13 7.944 23.83 -53.07 45.98 -19.1
3.905 -5.071 1.859 -39.05 -53.07 -29.07 -31.1 9.973 5.916 149.9 51.89 -39.05 5.916 5.916 -55.1 35.83 -21.13
3.91 -29.07 -1.014 -67.1 -67.1 -55.1 -47.16 -9.128 -1.014 118 47.83 -57.13 -1.014 -11.16 -51.05 23.83 -15.04
3.915 -51.05 -13.02 -87.05 -77.08 -71.16 -59.16 -29.07 -11.16 77.92 45.98 -71.16 -17.07 -33.13 -47.16 5.916 -9.128
3.92 -65.08 -27.04 -99.05 -83.16 -79.11 -65.08 -47.16 -17.07 39.89 41.92 -77.08 -23.16 -43.1 -45.13 -13.02 -7.099
3.925 -65.08 -37.02 -97.02 -81.13 -77.08 -69.13 -63.05 -27.04 3.888 35.83 -73.02 -15.04 -43.1 -47.16 -37.02 -15.04
3.93 -55.1 -37.02 -79.11 -67.1 -71.16 -71.16 -71.16 -41.07 -19.1 17.92 -65.08 0.8451 -31.1 -49.02 -53.07 -27.04
3.935 -39.05 -25.02 -55.1 -47.16 -59.16 -69.13 -69.13 -57.13 -41.07 -7.099 -51.05 9.973 -19.1 -47.16 -55.1 -35.16
3.94 -21.13 -3.043 -31.1 -25.02 -45.13 -61.02 -57.13 -69.13 -57.13 -47.16 -37.02 15.89 -13.02 -43.1 -47.16 -37.02
3.945 -7.099 13.86 -17.07 -7.099 -27.04 -43.1 -33.13 -67.1 -69.13 -81.13 -19.1 13.86 -15.04 -33.13 -33.13 -27.04
3.95 -1.014 29.92 -11.16 1.859 -5.071 -19.1 -1.014 -49.02 -73.02 -95.16 -3.043 13.86 -19.1 -17.07 -17.07 -11.16
3.955 4.902 35.83 -11.16 13.86 10.99 5.916 21.97 -17.07 -69.13 -81.13 3.888 19.95 -15.04 -2.028 -3.043 2.873
3.96 2.873 29.92 -5.071 27.89 24.85 33.97 43.95 12.85 -61.02 -43.1 -2.028 29.92 0.8451 15.89 5.916 22.99
3.965 0.8451 19.95 1.859 43.95 31.95 49.86 47.83 39.89 -51.05 1.859 -21.13 35.83 15.89 27.89 13.86 41.92
3.97 -7.099 7.944 15.89 60.85 30.93 56.96 37.86 52.91 -45.13 42.93 -51.05 35.83 31.95 30.93 13.86 54.93
3.975 -11.16 -2.028 25.86 76.91 22.99 52.91 17.92 56.96 -37.02 70.99 -73.02 29.92 33.97 24.85 7.944 64.91
3.98 -9.128 -5.071 25.86 81.98 13.86 45.98 0 55.95 -27.04 81.98 -69.13 23.83 21.97 19.95 0.8451 59.84
3.985 -1.014 -9.128 19.95 74.88 11.83 42.93 -7.099 52.91 -13.02 88.91 -41.07 21.97 1.859 18.93 -9.128 53.92
3.99 2.873 -13.02 12.85 52.91 7.944 36.85 -11.16 49.86 -2.028 88.91 0.8451 19.95 -11.16 14.87 -13.02 41.92
3.995 2.873 -15.04 9.973 23.83 3.888 23.83 -15.04 33.97 13.86 79.95 23.83 11.83 -21.13 0 -7.099 27.89
4 -1.014 -19.1 6.93 0 1.859 3.888 -18.09 7.944 21.97 59.84 32.96 -2.028 -21.13 -19.1 -2.028 16.9
4.005 -13.02 -21.13 0.8451 -23.16 -9.128 -19.1 -28.06 -18.09 21.97 25.86 18.93 -17.07 -17.07 -49.02 3.888 0.8451
4.01 -23.16 -25.02 -9.128 -41.07 -31.1 -49.02 -39.05 -49.02 21.97 -5.071 0.8451 -33.13 -13.02 -69.13 7.944 -9.128
4.015 -25.02 -25.02 -28.06 -45.13 -46.14 -62.03 -44.12 -63.05 23.83 -30.09 -24 -35.16 -9.128 -72.01 6.93 -22.14
4.02 -23.16 -26.03 -45.13 -44.12 -56.12 -63.05 -41.07 -66.09 29.92 -45.13 -40.06 -29.07 -3.043 -63.05 2.873 -33.13
4.025 -15.04 -25.02 -51.05 -39.05 -57.13 -61.02 -35.16 -65.08 35.83 -51.05 -47.16 -17.07 0.8451 -57.13 1.859 -39.05
4.03 -7.099 -16.06 -47.16 -36 -53.07 -54.09 -26.03 -64.06 32.96 -56.12 -46.14 -4.057 -1.014 -54.09 3.888 -46.14
4.035 -1.014 -11.16 -35.16 -32.12 -44.12 -56.12 -20.11 -72.01 20.96 -63.05 -36 -1.014 1.859 -62.03 5.916 -54.09
4.04 0.8451 0 -22.14 -21.13 -34.14 -57.13 -13.02 -79.11 3.888 -69.13 -25.02 2.873 0 -68.12 0 -62.03
4.045 4.902 0 -13.02 -12 -28.06 -48 -12 -72.01 -12 -73.02 -14.03 8.958 0 -60 0.8451 -62.03
4.05 6.93 8.958 -5.071 0.8451 -23.16 -28.06 -4.057 -44.12 -32.12 -58.15 -12 12.85 1.859 -34.14 -3.043 -48
4.055 12.85 11.83 -2.028 21.97 -9.128 0.8451 0 -5.071 -53.07 -35.16 -15.04 15.89 0 -1.014 -7.099 -21.13
4.06 16.9 16.9 11.83 38.88 2.873 31.95 15.89 34.99 -73.02 -9.128 -12 17.92 0 19.95 0 5.916
4.065 20.96 19.95 20.96 53.92 16.9 54.93 26.88 63.89 -89.08 6.93 -1.014 17.92 0 30.93 2.873 28.9
4.07 22.99 17.92 23.83 53.92 23.83 63.89 31.95 67.95 -91.11 17.92 17.92 15.89 0.8451 21.97 13.86 31.95
4.075 18.93 9.973 18.93 47.83 19.95 57.98 28.9 56.96 -75.05 17.92 34.99 13.86 -9.128 3.888 17.92 28.9
4.08 6.93 0 2.873 24.85 2.873 35.83 14.87 33.97 -49.02 15.89 24.85 7.944 -19.1 -7.099 15.89 16.9
4.085 -7.099 -7.099 -9.128 -2.028 -17.07 5.916 -5.071 11.83 -31.1 13.86 -9.128 0.8451 -31.1 -25.02 3.888 7.944
4.09 -21.13 -15.04 -22.14 -22.14 -39.05 -14.03 -27.04 0.8451 -31.1 14.87 -57.13 -11.16 -41.07 -36 -7.099 5.916
4.095 -31.1 -17.07 -29.07 -40.06 -55.1 -34.14 -47.16 -12 -51.05 12.85 -91.11 -19.1 -43.1 -48 -21.13 5.916
4.1 -31.1 -13.02 -29.07 -47.16 -61.02 -43.1 -59.16 -23.16 -79.11 5.916 -89.08 -17.07 -39.05 -51.05 -29.07 3.888
4.105 -19.1 -5.071 -23.16 -42.09 -56.12 -44.12 -59.16 -32.12 -89.08 -4.057 -55.1 -5.071 -27.04 -46.14 -27.04 -1.014
4.11 -3.043 -1.014 -19.1 -26.03 -46.14 -36 -51.05 -42.09 -69.13 -28.06 -13.02 3.888 -13.02 -28.06 -15.04 -8.113
4.115 8.958 -1.014 -13.02 -13.02 -35.16 -27.04 -35.16 -51.05 -21.13 -53.07 13.86 13.86 0.8451 -11.16 0 -25.02
4.12 18.93 -3.043 -13.02 -3.043 -20.11 -17.07 -15.04 -52.06 31.95 -67.1 23.83 15.89 5.916 -2.028 23.83 -40.06
4.125 16.9 -3.043 -17.07 -3.043 -12 -9.128 0.8451 -49.02 83.84 -67.1 11.83 13.86 11.83 1.859 43.95 -48
4.13 0.8451 -1.014 -27.04 -11.16 -15.04 -9.128 3.888 -45.13 116 -49.02 -7.099 7.944 11.83 -5.071 53.92 -47.16
4.135 -21.13 -3.043 -43.1 -27.04 -23.16 -13.02 3.888 -39.05 128 -21.13 -29.07 -2.028 3.888 -23.16 47.83 -35.16
4.14 -49.02 -11.16 -61.02 -39.05 -37.02 -21.13 0.8451 -33.13 123.9 3.888 -45.13 -9.128 -1.014 -37.02 33.97 -15.04
4.145 -69.13 -27.04 -75.05 -43.1 -51.05 -25.02 -7.099 -27.04 111.9 25.86 -55.1 -23.16 -13.02 -37.02 17.92 0
4.15 -73.02 -49.02 -75.05 -33.13 -57.13 -23.16 -11.16 -17.07 93.98 35.83 -61.02 -37.02 -23.16 -25.02 5.916 11.83
4.155 -61.02 -65.08 -63.05 -15.04 -51.05 -15.04 -7.099 -1.014 69.98 35.83 -67.1 -39.05 -27.04 0.8451 1.859 15.89
4.16 -39.05 -63.05 -37.02 0 -33.13 0.8451 -1.014 11.83 33.97 29.92 -71.16 -21.13 -25.02 19.95 -2.028 15.89
4.165 -13.02 -37.02 -3.043 17.92 -7.099 15.89 3.888 31.95 -1.014 23.83 -71.16 5.916 -19.1 35.83 -5.071 13.86
4.17 6.93 0 19.95 29.92 13.86 35.83 13.86 45.98 -45.13 19.95 -63.05 41.92 -9.128 37.86 -17.07 7.944
4.175 20.96 39.89 39.89 33.97 35.83 53.92 19.95 53.92 -85.02 13.86 -39.05 65.92 -2.028 31.95 -31.1 1.859
4.18 22.99 61.86 47.83 35.83 45.98 65.92 21.97 49.86 -117.1 9.973 -5.071 65.92 7.944 21.97 -41.07 -1.014
4.185 18.93 57.98 45.98 35.83 45.98 65.92 17.92 39.89 -133 7.944 21.97 43.95 15.89 11.83 -43.1 -7.099
4.19 8.958 35.83 39.89 27.89 33.97 55.95 7.944 25.86 -133 5.916 39.89 11.83 19.95 7.944 -39.05 -7.099
4.195 0.8451 11.83 33.97 15.89 17.92 33.97 0.8451 11.83 -115.1 7.944 27.89 -5.071 13.86 1.859 -33.13 -1.014
4.2 -1.014 0 31.95 0 6.93 5.916 -11.16 0 -82.15 11.83 -1.014 -13.02 -2.028 -1.014 -29.07 0
4.205 2.873 0 31.95 -4.057 0.8451 -11.16 -15.04 -3.043 -44.12 15.89 -35.16 -3.043 -13.02 -9.128 -23.16 3.888
4.21 10.99 9.973 35.83 -5.071 1.859 -19.1 -11.16 -5.071 -5.071 15.89 -51.05 3.888 -23.16 -11.16 -11.16 5.916
4.215 18.93 15.89 39.89 4.902 12.85 -15.04 0.8451 -5.071 20.96 10.99 -40.06 11.83 -14.03 -7.099 1.859 5.916
4.22 24.85 13.86 38.88 22.99 22.99 0.8451 7.944 -5.071 38.88 0.8451 -12 9.973 -1.014 -1.014 17.92 5.916
4.225 28.9 7.944 33.97 31.95 19.95 7.944 11.83 -5.071 43.95 -9.128 7.944 3.888 19.95 -2.028 27.89 5.916
4.23 34.99 5.916 24.85 28.9 11.83 13.86 9.973 -3.043 45.98 -20.11 16.9 0.8451 34.99 -3.043 23.83 0.8451
4.235 40.9 9.973 12.85 13.86 1.859 9.973 3.888 -7.099 49.86 -26.03 16.9 4.902 32.96 -11.16 11.83 -10.14
4.24 44.96 21.97 -2.028 -1.014 -11.16 1.859 0 -5.071 59.84 -23.16 9.973 9.973 19.95 -15.04 3.888 -29.07
4.245 42.93 27.89 -4.057 -15.04 -12 0 1.859 -1.014 78.94 -3.043 9.973 8.958 8.958 -10.14 5.916 -40.06
4.25 32.96 23.83 -7.099 -16.06 -6.085 0 11.83 10.99 96.85 11.83 1.859 -1.014 1.859 1.859 14.87 -38.03
4.255 10.99 11.83 -9.128 -17.07 -1.014 5.916 17.92 21.97 106 33.97 -5.071 -19.1 -2.028 0 23.83 -23.16
4.26 -11.16 -7.099 -11.16 -15.04 1.859 8.958 17.92 28.9 108.9 48.85 -32.12 -33.13 -4.057 -4.057 22.99 -3.043
4.265 -35.16 -29.07 -18.09 -16.06 -5.071 2.873 11.83 30.93 101.9 55.95 -67.1 -41.07 -16.06 -28.06 10.99 0
4.27 -47.16 -43.1 -37.02 -21.13 -25.02 -3.043 1.859 27.89 85.87 57.98 -91.11 -33.13 -39.05 -51.05 -3.043 -1.014
4.275 -39.05 -40.06 -57.13 -19.1 -39.05 -7.099 0 24.85 69.98 55.95 -92.12 -13.02 -54.09 -58.15 -17.07 -15.04
4.28 -21.13 -25.02 -69.13 -12 -38.03 -8.113 1.859 29.92 44.96 51.89 -72.01 -1.014 -54.09 -47.16 -23.16 -22.14
4.285 0.8451 0.8451 -64.06 1.859 -21.13 0 11.83 34.99 3.888 42.93 -34.14 3.888 -39.05 -20.11 -22.14 -20.11
4.29 10.99 19.95 -35.16 14.87 0.8451 14.87 21.97 43.95 -42.09 33.97 0 6.93 -16.06 3.888 -23.16 -8.113
4.295 16.9 34.99 1.859 29.92 25.86 31.95 25.86 44.96 -93.13 23.83 20.96 5.916 0.8451 22.99 -25.02 1.859
4.3 16.9 37.86 41.92 45.98 37.86 39.89 17.92 43.95 -131.2 15.89 29.92 9.973 15.89 29.92 -27.04 9.973
4.305 18.93 35.83 64.91 50.88 37.86 42.93 7.944 36.85 -137.1 19.95 25.86 13.86 20.96 34.99 -26.03 15.89
4.31 24.85 31.95 61.86 49.86 26.88 34.99 0.8451 28.9 -118.2 16.9 10.99 17.92 20.96 36.85 -18.09 21.97
4.315 28.9 31.95 45.98 37.86 15.89 23.83 -5.071 11.83 -79.11 11.83 -7.099 11.83 17.92 29.92 -5.071 27.89
4.32 24.85 25.86 23.83 20.96 10.99 9.973 -3.043 1.859 -30.09 0.8451 -29.07 0.8451 15.89 18.93 4.902 34.99
4.325 12.85 15.89 4.902 1.859 6.93 0.8451 -1.014 -18.09 8.958 -25.02 -39.05 -10.14 6.93 1.859 15.89 32.96
4.33 -3.043 0.8451 -1.014 -11.16 0 -15.04 -2.028 -39.05 37.86 -55.1 -39.05 -19.1 -2.028 -27.04 21.97 19.95
4.335 -15.04 -17.07 -8.113 -21.13 -5.071 -27.04 0.8451 -55.1 57.98 -70.15 -30.09 -24 -2.028 -53.07 23.83 -1.014
4.34 -19.1 -33.13 -20.11 -30.09 -13.02 -39.05 -3.043 -59.16 63.89 -68.12 -22.14 -22.14 0 -65.08 25.86 -20.11
4.345 -17.07 -39.05 -37.02 -35.16 -21.13 -43.1 -7.099 -55.1 61.86 -47.16 -29.07 -21.13 0.8451 -59.16 25.86 -39.05
4.35 -15.04 -39.05 -44.12 -30.09 -20.11 -43.1 -9.128 -41.07 54.93 -8.113 -36 -19.1 0.8451 -43.1 21.97 -47.16
4.355 -19.1 -37.02 -49.02 -28.06 -16.06 -37.02 -9.128 -21.13 50.88 26.88 -44.12 -19.1 2.873 -23.16 15.89 -43.1
4.36 -27.04 -37.02 -43.1 -25.02 -11.16 -29.07 -3.043 -1.014 47.83 57.98 -33.13 -25.02 0 -13.02 9.973 -35.16
4.365 -33.13 -35.16 -33.13 -26.03 -4.057 -23.16 0 7.944 54.93 77.92 -13.02 -31.1 0 -13.02 9.973 -25.02
4.37 -33.13 -29.07 -21.13 -31.1 1.859 -21.13 7.944 15.89 66.94 81.98 0.8451 -35.16 7.944 -21.13 17.92 -15.04
4.375 -23.16 -23.16 -15.04 -37.02 0.8451 -23.16 15.89 19.95 79.95 75.89 -1.014 -33.13 15.89 -29.07 33.97 -5.071
4.38 -17.07 -19.1 -11.16 -33.13 0 -21.13 19.95 23.83 89.92 63.89 -27.04 -25.02 21.97 -31.1 43.95 1.859
4.385 -13.02 -21.13 -5.071 -21.13 1.859 -13.02 17.92 31.95 89.92 45.98 -53.07 -17.07 23.83 -21.13 43.95 13.86
4.39 -13.02 -27.04 1.859 -1.014 7.944 -2.028 11.83 37.86 69.98 23.83 -61.02 -11.16 19.95 -7.099 31.95 27.89
4.395 -9.128 -31.1 19.95 11.83 17.92 13.86 5.916 41.92 29.92 0.8451 -39.05 -11.16 15.89 -2.028 11.83 33.97
4.4 -1.014 -29.07 37.86 21.97 29.92 25.86 3.888 39.89 -13.02 -27.04 -1.014 -11.16 15.89 3.888 0 31.95
4.405 16.9 -21.13 51.89 21.97 37.86 27.89 3.888 27.89 -51.05 -53.07 21.97 -9.128 19.95 1.859 -2.028 19.95
4.41 26.88 -11.16 59.84 19.95 41.92 19.95 5.916 13.86 -71.16 -63.05 21.97 -5.071 23.83 0.8451 5.916 3.888
4.415 24.85 -5.071 63.89 17.92 37.86 7.944 7.944 0 -65.08 -59.16 1.859 -1.014 23.83 -1.014 17.92 -1.014
4.42 12.85 -1.014 61.86 17.92 31.95 -2.028 7.944 -1.014 -41.07 -39.05 -13.02 -3.043 15.89 -3.043 21.97 -1.014
4.425 0.8451 0.8451 51.89 15.89 23.83 -1.014 3.888 -5.071 -17.07 -17.07 -15.04 -11.16 3.888 -5.071 15.89 0
4.43 -1.014 1.859 33.97 3.888 15.89 -5.071 0.8451 -9.128 -1.014 -1.014 0 -25.02 -1.014 -9.128 0 7.944
4.435 2.873 7.944 7.944 -13.02 7.944 -15.04 -11.16 -17.07 0.8451 -1.014 4.902 -37.02 -7.099 -21.13 -11.16 9.973
4.44 2.873 7.944 -15.04 -39.05 -1.014 -35.16 -25.02 -31.1 -5.071 -5.071 -7.099 -41.07 -9.128 -33.13 -27.04 1.859
4.445 -1.014 -2.028 -39.05 -59.16 -21.13 -59.16 -37.02 -45.13 -12 -20.11 -46.14 -37.02 -11.16 -45.13 -35.16 -3.043
4.45 -21.13 -11.16 -53.07 -65.08 -36 -79.11 -45.13 -55.1 -16.06 -34.14 -88.06 -23.16 -21.13 -51.05 -37.02 -9.128
4.455 -39.05 -27.04 -55.1 -59.16 -49.02 -85.02 -47.16 -55.1 -13.02 -45.13 -107.2 -9.128 -37.02 -49.02 -35.16 -9.128
4.46 -49.02 -33.13 -49.02 -41.07 -46.14 -75.05 -45.13 -42.09 0 -44.12 -87.05 -1.014 -55.1 -37.02 -28.06 -1.014
4.465 -47.16 -29.07 -41.07 -26.03 -40.06 -49.02 -36 -24 6.93 -37.02 -47.16 0.8451 -65.08 -19.1 -20.11 0
4.47 -39.05 -21.13 -37.02 -17.07 -29.07 -21.13 -29.07 -3.043 15.89 -33.13 -15.04 -1.014 -65.08 -5.071 -15.04 1.859
4.475 -35.16 -11.16 -37.02 -16.06 -22.14 0.8451 -20.11 8.958 19.95 -33.13 -6.085 -3.043 -51.05 -1.014 -12 0
4.48 -41.07 -7.099 -37.02 -18.09 -20.11 5.916 -18.09 14.87 15.89 -32.12 -24 -3.043 -27.04 -5.071 -16.06 0.8451
4.485 -43.1 -5.071 -39.05 -19.1 -21.13 3.888 -13.02 15.89 7.944 -41.07 -47.16 0.8451 -1.014 -9.128 -21.13 0.8451
4.49 -37.02 -2.028 -33.13 -12 -15.04 -1.014 -4.057 16.9 1.859 -51.05 -50.03 0 11.83 -11.16 -18.09 -1.014
4.495 -21.13 1.859 -21.13 1.859 -2.028 1.859 3.888 15.89 -10.14 -65.08 -24 1.859 21.97 -3.043 -5.071 -7.099
4.5 0.8451 0 -1.014 11.83 13.86 1.859 15.89 11.83 -23.16 -81.13 13.86 1.859 21.97 1.859 1.859 -17.07
4.505 14.87 10.99 16.9 27.89 37.86 12.85 27.89 8.958 -40.06 -100.1 47.83 0.8451 20.96 7.944 13.86 -27.04
4.51 24.85 16.9 38.88 36.85 54.93 18.93 32.96 -1.014 -64.06 -118.2 53.92 -5.071 18.93 11.83 14.87 -33.13
4.515 28.9 23.83 51.89 35.83 59.84 19.95 27.89 -5.071 -91.11 -131.2 25.86 -5.071 23.83 11.83 3.888 -33.13
4.52 30.93 32.96 57.98 29.92 55.95 15.89 15.89 -10.14 -107.2 -131.2 -9.128 -1.014 32.96 12.85 -6.085 -25.02
4.525 32.96 35.83 50.88 19.95 43.95 10.99 4.902 -9.128 -105.1 -123.1 -43.1 0.8451 36.85 15.89 -22.14 -13.02
4.53 30.93 32.96 37.86 9.973 28.9 3.888 -5.071 -6.085 -79.11 -101.1 -50.03 10.99 32.96 15.89 -25.02 -3.043
4.535 26.88 26.88 22.99 5.916 11.83 -1.014 -16.06 -1.014 -39.05 -81.13 -31.1 10.99 24.85 13.86 -22.14 -2.028
4.54 20.96 22.99 15.89 1.859 0 -1.014 -25.02 -4.057 1.859 -59.16 0.8451 7.944 14.87 4.902 -10.14 -1.014
4.545 18.93 17.92 11.83 -1.014 -3.043 -9.128 -23.16 -9.128 39.89 -45.13 21.97 1.859 7.944 -3.043 -1.014 -9.128
4.55 16.9 16.9 14.87 -4.057 -2.028 -10.14 -16.06 -10.14 62.88 -30.09 29.92 -3.043 4.902 -9.128 2.873 -13.02
4.555 14.87 12.85 12.85 -5.071 0.8451 -14.03 -7.099 -8.113 70.99 -14.03 27.89 -9.128 2.873 -9.128 7.944 -13.02
4.56 8.958 1.859 5.916 -1.014 1.859 -13.02 -1.014 0.8451 65.92 0.8451 13.86 -17.07 -2.028 -7.099 9.973 -5.071
4.565 -1.014 -2.028 0.8451 2.873 4.902 -4.057 0.8451 9.973 54.93 13.86 1.859 -23.16 -5.071 -9.128 13.86 5.916
4.57 -11.16 -10.14 -11.16 8.958 -2.028 0 -4.057 18.93 38.88 33.97 -20.11 -23.16 -9.128 -13.02 8.958 17.92
4.575 -19.1 -11.16 -19.1 7.944 -3.043 -2.028 -9.128 23.83 17.92 47.83 -49.02 -19.1 -3.043 -19.1 5.916 21.97
4.58 -15.04 -3.043 -23.16 2.873 -12 0 -8.113 30.93 7.944 60.85 -62.03 -7.099 3.888 -13.02 4.902 15.89
4.585 -5.071 3.888 -23.16 0 -14.03 1.859 -2.028 36.85 3.888 65.92 -64.06 1.859 19.95 -2.028 0.8451 9.973
4.59 2.873 13.86 -17.07 -9.128 -9.128 7.944 0 43.95 0 65.92 -47.16 11.83 27.89 17.92 -2.028 5.916
4.595 12.85 23.83 -9.128 -14.03 2.873 15.89 12.85 50.88 0.8451 57.98 -17.07 11.83 27.89 25.86 1.859 9.973
4.6 14.87 29.92 1.859 -15.04 20.96 21.97 19.95 46.99 -4.057 36.85 3.888 3.888 23.83 17.92 0 11.83
4.605 10.99 29.92 17.92 -7.099 33.97 21.97 23.83 33.97 -27.04 9.973 17.92 -1.014 25.86 5.916 -3.043 7.944
4.61 0.8451 23.83 31.95 3.888 44.96 17.92 23.83 15.89 -52.06 -14.03 20.96 -5.071 35.83 3.888 -3.043 0.8451
4.615 -1.014 9.973 39.89 21.97 43.95 17.92 23.83 1.859 -74.03 -38.03 14.87 0.8451 45.98 17.92 -2.028 -15.04
4.62 -3.043 -3.043 41.92 37.86 43.95 19.95 23.83 -1.014 -83.16 -53.07 9.973 7.944 49.86 39.89 3.888 -25.02
4.625 0.8451 -13.02 37.86 45.98 43.95 23.83 21.97 -5.071 -75.05 -60 10.99 17.92 43.95 53.92 11.83 -25.02
4.63 12.85 -9.128 35.83 45.98 45.98 25.86 19.95 -9.128 -55.1 -63.05 10.99 19.95 29.92 47.83 19.95 -19.1
4.635 26.88 9.973 37.86 39.89 47.83 25.86 17.92 -11.16 -33.13 -65.08 5.916 17.92 19.95 25.86 21.97 -13.02
4.64 38.88 41.92 41.92 33.97 47.83 21.97 15.89 -17.07 -15.04 -67.1 0 15.89 15.89 1.859 19.95 -17.07
4.645 44.96 67.95 41.92 31.95 41.92 17.92 13.86 -19.1 -1.014 -71.16 0.8451 15.89 15.89 -3.043 17.92 -27.04
4.65 42.93 77.92 33.97 33.97 29.92 15.89 11.83 -17.07 9.973 -73.02 -1.014 21.97 11.83 0 15.89 -39.05
4.655 36.85 65.92 19.95 31.95 15.89 13.86 5.916 -11.16 23.83 -69.13 -5.071 27.89 0.8451 11.83 13.86 -45.13
4.66 24.85 41.92 3.888 19.95 0 9.973 -2.028 -5.071 37.86 -59.16 -13.02 27.89 -23.16 13.86 9.973 -41.07
4.665 6.93 17.92 -7.099 1.859 -7.099 1.859 -7.099 -1.014 39.89 -41.07 -29.07 17.92 -45.13 1.859 1.859 -29.07
4.67 -9.128 1.859 -21.13 -13.02 -19.1 -3.043 -19.1 0.8451 29.92 -21.13 -49.02 5.916 -55.1 -13.02 -5.071 -13.02
4.675 -27.04 0.8451 -31.1 -27.04 -29.07 -9.128 -31.1 -1.014 9.973 -3.043 -67.1 0.8451 -49.02 -29.07 -21.13 -2.028
4.68 -35.16 -1.014 -35.16 -31.1 -35.16 -15.04 -41.07 -3.043 -9.128 7.944 -75.05 -3.043 -33.13 -35.16 -35.16 3.888
4.685 -33.13 -3.043 -35.16 -29.07 -37.02 -19.1 -47.16 -3.043 -33.13 17.92 -69.13 -1.014 -15.04 -29.07 -41.07 5.916
4.69 -19.1 -9.128 -31.1 -27.04 -28.06 -23.16 -45.13 -5.071 -51.05 27.89 -51.05 -1.014 0.8451 -21.13 -41.07 3.888
4.695 -5.071 -19.1 -23.16 -25.02 -16.06 -29.07 -37.02 -5.071 -65.08 37.86 -26.03 -5.071 5.916 -15.04 -35.16 1.859
4.7 0.8451 -27.04 -13.02 -23.16 0.8451 -31.1 -23.16 -1.014 -81.13 47.83 -13.02 -13.02 15.89 -9.128 -31.1 3.888
4.705 2.873 -27.04 -1.014 -21.13 12.85 -27.04 -7.099 1.859 -95.16 55.95 -8.113 -17.07 19.95 -1.014 -27.04 9.973
4.71 0.8451 -19.1 7.944 -13.02 24.85 -13.02 5.916 13.86 -105.1 55.95 -10.14 -13.02 18.93 16.9 -20.11 13.86
4.715 0.8451 -3.043 23.83 0.8451 31.95 5.916 17.92 25.86 -105.1 45.98 -3.043 0 11.83 37.86 -11.16 19.95
4.72 8.958 9.973 39.89 17.92 41.92 29.92 23.83 31.95 -97.02 25.86 12.85 21.97 4.902 52.91 0.8451 21.97
4.725 18.93 16.9 46.99 39.89 49.86 43.95 29.92 35.83 -75.05 3.888 38.88 39.89 -1.014 50.88 20.96 22.99
4.73 28.9 13.86 41.92 53.92 47.83 49.86 29.92 29.92 -47.16 -5.071 53.92 43.95 0.8451 35.83 37.86 21.97
4.735 30.93 4.902 32.96 58.99 46.99 43.95 34.99 25.86 -14.03 -13.02 41.92 37.86 1.859 19.95 50.88 20.96
4.74 28.9 -1.014 24.85 56.96 46.99 35.83 38.88 22.99 18.93 -15.04 5.916 29.92 2.873 9.973 54.93 16.9
4.745 24.85 1.859 25.86 49.86 47.83 29.92 47.83 19.95 51.89 -13.02 -25.02 27.89 11.83 11.83 53.92 5.916
4.75 22.99 14.87 36.85 46.99 54.93 28.9 56.96 24.85 76.91 -13.02 -39.05 29.92 25.86 28.9 43.95 0.8451
4.755 18.93 23.83 49.86 48.85 55.95 32.96 63.89 26.88 88.91 -21.13 -24 36.85 38.88 47.83 36.85 0
4.76 20.96 23.83 53.92 49.86 55.95 37.86 59.84 25.86 85.87 -29.07 5.916 37.86 41.92 55.95 31.95 -2.028
4.765 20.96 15.89 48.85 50.88 44.96 39.89 44.96 19.95 72.85 -34.14 33.97 32.96 27.89 53.92 29.92 1.859
4.77 18.93 7.944 28.9 43.95 24.85 34.99 20.96 10.99 54.93 -32.12 35.83 29.92 0 41.92 29.92 2.873
4.775 14.87 6.93 5.916 24.85 4.902 21.97 -1.014 0.8451 36.85 -21.13 15.89 30.93 -33.13 24.85 25.86 2.873
4.78 4.902 13.86 -10.14 5.916 -12 4.902 -28.06 -14.03 26.88 -6.085 -7.099 29.92 -56.12 13.86 15.89 0.8451
4.785 -1.014 19.95 -24 -10.14 -24 -6.085 -48 -21.13 22.99 6.93 -27.04 28.9 -49.02 5.916 1.859 1.859
4.79 -13.02 9.973 -31.1 -25.02 -31.1 -19.1 -57.13 -17.07 25.86 23.83 -31.1 15.89 -27.04 0.8451 -17.07 3.888
4.795 -19.1 -3.043 -31.1 -28.06 -35.16 -26.03 -53.07 -4.057 30.93 33.97 -22.14 4.902 0 -3.043 -30.09 9.973
4.8 -15.04 -26.03 -26.03 -26.03 -36 -32.12 -42.09 4.902 32.96 47.83 -13.02 -2.028 7.944 -10.14 -39.05 12.85
4.805 -7.099 -33.13 -17.07 -21.13 -33.13 -31.1 -25.02 15.89 31.95 59.84 -11.16 3.888 7.944 -13.02 -33.13 15.89
4.81 4.902 -16.06 -2.028 -6.085 -18.09 -23.16 -2.028 24.85 26.88 69.98 -11.16 25.86 2.873 -7.099 -20.11 14.87
4.815 18.93 6.93 12.85 0.8451 1.859 -9.128 16.9 31.95 22.99 79.95 -13.02 47.83 0.8451 -1.014 -4.057 18.93
4.82 28.9 33.97 25.86 15.89 21.97 5.916 35.83 37.86 15.89 81.98 -17.07 61.86 11.83 0 0 21.97
4.825 32.96 42.93 36.85 27.89 41.92 21.97 47.83 43.95 9.973 75.89 -16.06 63.89 28.9 6.93 6.93 26.88
4.83 36.85 33.97 39.89 35.83 53.92 37.86 53.92 45.98 -2.028 55.95 -12 59.84 36.85 10.99 8.958 27.89
4.835 42.93 25.86 41.92 39.89 53.92 41.92 49.86 43.95 -13.02 25.86 -1.014 51.89 35.83 15.89 5.916 25.86
4.84 50.88 27.89 41.92 41.92 52.91 43.95 43.95 35.83 -27.04 -1.014 6.93 49.86 28.9 24.85 6.93 19.95
4.845 58.99 39.89 45.98 43.95 48.85 43.95 35.83 25.86 -27.04 -29.07 14.87 51.89 21.97 32.96 7.944 13.86
4.85 58.99 53.92 51.89 43.95 47.83 41.92 31.95 13.86 -17.07 -43.1 11.83 51.89 21.97 39.89 11.83 11.83
4.855 52.91 53.92 57.98 45.98 48.85 41.92 27.89 3.888 -2.028 -43.1 0.8451 51.89 23.83 39.89 15.89 11.83
4.86 38.88 39.89 53.92 41.92 38.88 39.89 21.97 0.8451 13.86 -35.16 -7.099 53.92 23.83 35.83 15.89 11.83
4.865 22.99 17.92 35.83 33.97 17.92 31.95 7.944 -7.099 19.95 -25.02 -15.04 57.98 13.86 29.92 9.973 9.973
4.87 6.93 1.859 7.944 21.97 -1.014 19.95 -7.099 -13.02 15.89 -17.07 -13.02 63.89 -2.028 23.83 1.859 3.888
4.875 0.8451 0.8451 -15.04 7.944 -21.13 3.888 -23.16 -15.04 11.83 -11.16 -1.014 61.86 -9.128 17.92 -1.014 -2.028
4.88 -5.071 -2.028 -31.1 0.8451 -29.07 -1.014 -29.07 -11.16 15.89 0.8451 7.944 53.92 -15.04 11.83 -3.043 -1.014
4.885 -7.099 -2.028 -31.1 -7.099 -23.16 -7.099 -23.16 -1.014 29.92 11.83 15.89 39.89 -11.16 7.944 0.8451 0.8451
4.89 -9.128 -3.043 -19.1 -5.071 -11.16 -5.071 -9.128 5.916 41.92 33.97 7.944 23.83 -3.043 5.916 3.888 0
4.895 -13.02 -15.04 -7.099 -1.014 -1.014 -1.014 0.8451 15.89 39.89 51.89 -9.128 11.83 1.859 5.916 5.916 3.888
4.9 -17.07 -21.13 -3.043 -1.014 0.8451 0.8451 0.8451 17.92 17.92 61.86 -43.1 7.944 11.83 13.86 -2.028 5.916
4.905 -19.1 -19.1 -15.04 -7.099 -7.099 -1.014 -9.128 13.86 -11.16 63.89 -69.13 9.973 21.97 23.83 -13.02 3.888
4.91 -21.13 -9.128 -35.16 -23.16 -19.1 -7.099 -21.13 7.944 -47.16 63.89 -73.02 11.83 23.83 33.97 -25.02 1.859
4.915 -23.16 -2.028 -53.07 -39.05 -27.04 -13.02 -29.07 5.916 -67.1 69.98 -47.16 7.944 11.83 39.89 -29.07 3.888
4.92 -25.02 -2.028 -61.02 -49.02 -27.04 -17.07 -29.07 5.916 -65.08 83.84 -1.014 -1.014 -9.128 41.92 -23.16 9.973
4.925 -31.1 -15.04 -57.13 -47.16 -23.16 -17.07 -21.13 7.944 -49.02 102.9 33.97 -19.1 -35.16 35.83 -7.099 17.92
4.93 -43.1 -43.1 -47.16 -39.05 -19.1 -15.04 -11.16 5.916 -27.04 118 45.98 -41.07 -45.13 25.86 -2.028 21.97
4.935 -57.13 -71.16 -37.02 -29.07 -16.06 -17.07 -3.043 -1.014 -11.16 124.9 23.83 -51.05 -37.02 11.83 0 11.83
4.94 -65.08 -87.05 -29.07 -25.02 -18.09 -25.02 -1.014 -21.13 -2.028 114.9 -15.04 -51.05 -13.02 0.8451 0 -1.014
4.945 -67.1 -81.13 -23.16 -31.1 -21.13 -39.05 -5.071 -45.13 -1.014 87.89 -57.13 -37.02 7.944 -15.04 -9.128 -25.02
4.95 -55.1 -60 -14.03 -37.02 -20.11 -51.05 -9.128 -63.05 1.859 46.99 -79.11 -21.13 19.95 -27.04 -10.14 -43.1
4.955 -37.02 -34.14 1.859 -35.16 -12 -55.1 -11.16 -73.02 0 0 -79.11 -11.16 19.95 -33.13 -4.057 -53.07
4.96 -19.1 -15.04 13.86 -23.16 -1.014 -49.02 -13.02 -75.05 -5.071 -39.05 -67.1 -9.128 13.86 -29.07 0 -53.07
4.965 -5.071 -8.113 22.99 -6.085 1.859 -35.16 -21.13 -69.13 -12 -69.13 -49.02 -13.02 7.944 -21.13 4.902 -51.05
4.97 -1.014 -14.03 8.958 -1.014 -5.071 -21.13 -35.16 -67.1 -28.06 -76.06 -27.04 -13.02 3.888 -11.16 -1.014 -50.03
4.975 -7.099 -27.04 -15.04 0.8451 -29.07 -15.04 -55.1 -67.1 -49.02 -65.08 -3.043 -9.128 -1.014 -5.071 -13.02 -55.1
4.98 -15.04 -37.02 -52.06 -12 -56.12 -19.1 -77.08 -68.12 -65.08 -39.05 14.87 -5.071 -26.03 -3.043 -33.13 -56.12
4.985 -33.13 -45.13 -79.11 -26.03 -78.09 -29.07 -93.13 -66.09 -83.16 -8.113 16.9 -3.043 -58.15 -1.014 -50.03 -56.12
4.99 -55.1 -47.16 -83.16 -37.02 -85.02 -37.02 -97.02 -61.02 -91.11 11.83 -9.128 -11.16 -87.05 -1.014 -61.02 -45.13
4.995 -71.16 -46.14 -63.05 -33.13 -72.01 -38.03 -88.06 -44.12 -91.11 34.99 -60 -23.16 -90.09 0.8451 -61.02 -22.14
5 -79.11 -45.13 -30.09 -23.16 -45.13 -30.09 -68.12 -24 -86.04 58.99 -111.1 -33.13 -68.12 0 -60 1.859
5.005 -73.02 -47.16 -11.16 -3.043 -23.16 -15.04 -45.13 -1.014 -77.08 81.98 -137.1 -33.13 -31.1 1.859 -63.05 23.83
5.01 -55.1 -48 -8.113 5.916 -7.099 0.8451 -24 10.99 -66.09 108.9 -118.2 -22.14 0 0.8451 -65.08 39.89
5.015 -35.16 -50.03 -22.14 8.958 -5.071 3.888 -12 16.9 -54.09 126.9 -71.16 -4.057 9.973 1.859 -67.1 36.85
5.02 -23.16 -44.12 -41.07 1.859 -7.099 -1.014 -8.113 8.958 -44.12 132.9 -27.04 1.859 0.8451 -7.099 -62.03 22.99
5.025 -25.02 -30.09 -50.03 -14.03 -15.04 -9.128 -8.113 1.859 -32.12 129 -11.16 4.902 -9.128 -16.06 -47.16 4.902
5.03 -35.16 -16.06 -48 -29.07 -21.13 -27.04 -8.113 -10.14 -16.06 117 -18.09 2.873 -20.11 -16.06 -27.04 -3.043
5.035 -45.13 -7.099 -41.07 -37.02 -23.16 -41.07 -3.043 -17.07 0.8451 104 -29.07 0.8451 -21.13 -15.04 -5.071 -11.16
5.04 -43.1 -7.099 -32.12 -35.16 -21.13 -44.12 -1.014 -14.03 16.9 90.94 -25.02 -7.099 -16.06 -11.16 4.902 -5.071
5.045 -27.04 -14.03 -29.07 -27.04 -24 -42.09 6.93 -14.03 27.89 74.88 -14.03 -13.02 -14.03 -15.04 15.89 0
5.05 -9.128 -25.02 -29.07 -25.02 -21.13 -37.02 9.973 -19.1 31.95 49.86 -9.128 -13.02 -15.04 -19.1 13.86 -1.014
5.055 2.873 -25.02 -19.1 -22.14 -14.03 -31.1 9.973 -32.12 31.95 20.96 -20.11 -5.071 -12 -21.13 16.9 -8.113
5.06 0.8451 -13.02 1.859 -14.03 -2.028 -25.02 7.944 -46.14 31.95 -11.16 -48 -2.028 0 -13.02 17.92 -22.14
5.065 0.8451 0.8451 29.92 0 9.973 -17.07 5.916 -53.07 25.86 -45.13 -71.16 13.86 11.83 1.859 19.95 -37.02
5.07 -1.014 14.87 60.85 24.85 25.86 -7.099 5.916 -49.02 22.99 -70.15 -63.05 23.83 25.86 27.89 18.93 -42.09
5.075 8.958 24.85 74.88 46.99 29.92 -2.028 5.916 -39.05 18.93 -83.16 -27.04 27.89 25.86 39.89 12.85 -37.02
5.08 22.99 27.89 61.86 53.92 21.97 3.888 0 -33.13 9.973 -87.05 11.83 25.86 7.944 29.92 1.859 -25.02
5.085 32.96 32.96 28.9 47.83 8.958 1.859 -7.099 -33.13 1.859 -79.11 37.86 17.92 -17.07 -2.028 -2.028 -15.04
5.09 34.99 40.9 -2.028 31.95 -4.057 -5.071 -23.16 -39.05 -10.14 -66.09 31.95 15.89 -41.07 -37.02 -10.14 -9.128
5.095 28.9 47.83 -27.04 21.97 -19.1 -17.07 -35.16 -45.13 -23.16 -47.16 1.859 17.92 -43.1 -63.05 -15.04 -9.128
5.1 22.99 58.99 -29.07 19.95 -22.14 -23.16 -35.16 -41.07 -24 -16.06 -15.04 23.83 -29.07 -63.05 -14.03 -7.099
5.105 24.85 63.89 -13.02 29.92 -12 -15.04 -25.02 -23.16 -23.16 12.85 -17.07 31.95 -3.043 -39.05 -11.16 -1.014
5.11 30.93 63.89 1.859 39.89 -2.028 0 -3.043 -2.028 -13.02 45.98 -2.028 35.83 15.89 -9.128 -5.071 7.944
5.115 38.88 59.84 17.92 45.98 21.97 21.97 15.89 23.83 0.8451 74.88 19.95 33.97 31.95 5.916 0 23.83
5.12 42.93 53.92 23.83 43.95 41.92 37.86 37.86 41.92 13.86 93.98 29.92 29.92 39.89 9.973 13.86 35.83
5.125 40.9 51.89 23.83 35.83 57.98 45.98 53.92 51.89 33.97 104 21.97 25.86 41.92 7.944 27.89 39.89
5.13 32.96 49.86 23.83 29.92 65.92 45.98 65.92 55.95 53.92 107.8 3.888 21.97 37.86 9.973 39.89 33.97
5.135 20.96 43.95 19.95 29.92 63.89 41.92 69.98 55.95 71.84 109.9 -9.128 15.89 29.92 19.95 45.98 27.89
5.14 10.99 31.95 15.89 29.92 51.89 37.86 63.89 49.86 81.98 111.9 -19.1 3.888 17.92 29.92 41.92 21.97
5.145 2.873 15.89 11.83 25.86 37.86 29.92 49.86 39.89 83.84 107.8 -21.13 -9.128 5.916 25.86 33.97 17.92
5.15 -1.014 -2.028 7.944 19.95 23.83 17.92 37.86 21.97 79.95 93.98 -19.1 -27.04 1.859 7.944 23.83 13.86
5.155 0.8451 -9.128 9.973 9.973 15.89 1.859 31.95 5.916 75.89 71.84 -9.128 -35.16 7.944 -15.04 15.89 7.944
5.16 8.958 -7.099 17.92 7.944 19.95 -5.071 33.97 -3.043 71.84 45.98 0 -29.07 15.89 -39.05 13.86 -2.028
5.165 16.9 -2.028 27.89 11.83 27.89 -9.128 41.92 -9.128 68.96 19.95 13.86 -13.02 23.83 -45.13 15.89 -5.071
5.17 20.96 9.973 33.97 23.83 35.83 -3.043 43.95 -9.128 62.88 -1.014 17.92 -2.028 23.83 -33.13 19.95 -13.02
5.175 18.93 13.86 37.86 39.89 37.86 3.888 37.86 -11.16 51.89 -25.02 7.944 9.973 15.89 -17.07 19.95 -17.07
5.18 16.9 9.973 35.83 53.92 29.92 13.86 21.97 -13.02 37.86 -50.03 -7.099 11.83 3.888 -5.071 17.92 -21.13
5.185 14.87 1.859 33.97 59.84 20.96 19.95 5.916 -19.1 17.92 -76.06 -23.16 9.973 -1.014 0.8451 9.973 -25.02
5.19 18.93 0.8451 31.95 59.84 15.89 23.83 -1.014 -23.16 -9.128 -97.02 -25.02 13.86 -1.014 0 0.8451 -29.07
5.195 28.9 0.8451 31.95 56.96 14.87 31.95 -7.099 -20.11 -42.09 -100.1 -8.113 24.85 3.888 5.916 -13.02 -31.1
5.2 36.85 16.9 29.92 48.85 18.93 39.89 -9.128 -12 -80.12 -88.06 6.93 36.85 16.9 15.89 -27.04 -29.07
5.205 36.85 27.89 25.86 37.86 19.95 45.98 -11.16 -3.043 -113.1 -55.1 21.97 39.89 21.97 15.89 -37.02 -23.16
5.21 28.9 34.99 17.92 24.85 20.96 41.92 -11.16 2.873 -131.2 -9.128 20.96 28.9 22.99 0 -42.09 -14.03
5.215 14.87 24.85 9.973 10.99 17.92 25.86 -7.099 10.99 -124.1 35.83 8.958 6.93 12.85 -19.1 -40.06 0
5.22 4.902 3.888 5.916 1.859 13.86 3.888 0 13.86 -95.16 77.92 -2.028 -13.02 1.859 -41.07 -29.07 9.973
5.225 0.8451 -9.128 0 1.859 15.89 -2.028 22.99 24.85 -44.12 114.9 0 -21.13 0 -43.1 -12 30.93
5.23 -3.043 -19.1 -1.014 1.859 24.85 0 46.99 37.86 5.916 134.9 5.916 -17.07 0.8451 -24 2.873 50.88
5.235 -11.16 -19.1 -11.16 -1.014 27.89 9.973 63.89 53.92 57.98 142 9.973 -7.099 -1.014 -1.014 21.97 61.86
5.24 -19.1 -18.09 -23.16 -2.028 25.86 28.9 70.99 67.95 98.88 144.9 -1.014 -2.028 -3.043 8.958 39.89 63.89
5.245 -39.05 -29.07 -35.16 -9.128 14.87 36.85 66.94 78.94 123.9 146.9 -25.02 -15.04 -10.14 2.873 41.92 57.98
5.25 -55.1 -51.05 -43.1 -19.1 0.8451 33.97 53.92 81.98 145.9 145.9 -59.16 -39.05 -25.02 -11.16 41.92 49.86
5.255 -65.08 -74.03 -43.1 -23.16 -14.03 22.99 42.93 74.88 161.9 145.9 -82.15 -62.03 -35.16 -25.02 31.95 45.98
5.26 -63.05 -86.04 -36 -21.13 -25.02 6.93 32.96 62.88 167.8 130 -81.13 -73.02 -33.13 -29.07 22.99 44.96
5.265 -49.02 -76.06 -26.03 -12 -29.07 -1.014 20.96 45.98 160.9 101.9 -63.05 -61.02 -22.14 -22.14 13.86 37.86
5.27 -27.04 -46.14 -14.03 -3.043 -21.13 -8.113 4.902 18.93 133.9 59.84 -41.07 -35.16 -11.16 -21.13 6.93 24.85
5.275 -5.071 -8.113 0.8451 0.8451 -14.03 -12 -8.113 -2.028 95.84 19.95 -28.06 -2.028 -7.099 -23.16 0.8451 0
5.28 6.93 19.95 7.944 -3.043 -9.128 -17.07 -25.02 -27.04 47.83 -13.02 -21.13 13.86 -7.099 -29.07 -13.02 -21.13
5.285 16.9 41.92 21.97 -5.071 0 -22.14 -38.03 -42.09 -2.028 -38.03 -11.16 27.89 -6.085 -26.03 -31.1 -43.1
5.29 18.93 52.91 35.83 -6.085 -2.028 -20.11 -40.06 -45.13 -44.12 -60 4.902 32.96 -7.099 -20.11 -43.1 -47.16
5.295 20.96 53.92 43.95 -2.028 7.944 -15.04 -37.02 -39.05 -87.05 -85.02 37.86 31.95 -11.16 -9.128 -55.1 -41.07
5.3 22.99 51.89 45.98 13.86 20.96 0 -22.14 -21.13 -123.1 -104.1 71.84 33.97 -15.04 1.859 -54.09 -24
5.305 30.93 47.83 47.83 29.92 33.97 10.99 -6.085 -4.057 -144 -118.2 85.87 35.83 -22.14 1.859 -42.09 -10.14
5.31 34.99 41.92 45.98 37.86 47.83 29.92 7.944 5.916 -147.1 -117.1 69.98 37.86 -19.1 5.916 -27.04 -5.071
5.315 32.96 34.99 43.95 40.9 57.98 45.98 27.89 24.85 -122 -95.16 32.96 38.88 -1.014 9.973 -10.14 -2.028
5.32 28.9 28.9 39.89 34.99 60.85 55.95 47.83 38.88 -77.08 -57.13 -4.057 34.99 38.88 15.89 -1.014 0
5.325 16.9 19.95 31.95 19.95 55.95 55.95 63.89 49.86 -23.16 -15.04 -31.1 25.86 69.98 17.92 7.944 0.8451
5.33 2.873 6.93 15.89 4.902 46.99 43.95 71.84 56.96 20.96 18.93 -34.14 12.85 72.85 15.89 17.92 5.916
5.335 -17.07 -8.113 -3.043 -10.14 26.88 23.83 69.98 58.99 62.88 46.99 -22.14 1.859 31.95 7.944 27.89 13.86
5.34 -35.16 -31.1 -29.07 -29.07 5.916 1.859 59.84 51.89 87.89 61.86 -9.128 -15.04 -23.16 3.888 37.86 19.95
5.345 -45.13 -53.07 -51.05 -43.1 -10.14 -15.04 39.89 41.92 107.8 68.96 -1.014 -25.02 -71.16 1.859 45.98 21.97
5.35 -51.05 -63.05 -65.08 -55.1 -31.1 -31.1 17.92 27.89 121.9 68.96 -3.043 -27.04 -79.11 1.859 45.98 19.95
5.355 -53.07 -61.02 -69.13 -63.05 -49.02 -43.1 -2.028 9.973 128 57.98 -9.128 -23.16 -49.02 0.8451 39.89 15.89
5.36 -51.05 -55.1 -67.1 -67.1 -61.02 -51.05 -11.16 -3.043 132.9 43.95 -23.16 -21.13 -7.099 -11.16 27.89 9.973
5.365 -43.1 -47.16 -61.02 -63.05 -67.1 -57.13 -21.13 -19.1 131 25.86 -37.02 -19.1 7.944 -25.02 13.86 1.859
5.37 -31.1 -41.07 -53.07 -53.07 -67.1 -59.16 -27.04 -33.13 116 5.916 -49.02 -17.07 -2.028 -29.07 1.859 -3.043
5.375 -15.04 -33.13 -39.05 -35.16 -63.05 -59.16 -35.16 -45.13 89.92 -9.128 -49.02 -11.16 -27.04 -19.1 -5.071 -13.02
5.38 -1.014 -17.07 -25.02 -13.02 -59.16 -53.07 -43.1 -53.07 53.92 -27.04 -35.16 -2.028 -49.02 -3.043 -13.02 -19.1
5.385 8.958 -2.028 -11.16 5.916 -53.07 -47.16 -51.05 -59.16 13.86 -43.1 -11.16 15.89 -49.02 7.944 -21.13 -19.1
5.39 18.93 17.92 0.8451 23.83 -45.13 -37.02 -57.13 -63.05 -17.07 -59.16 7.944 29.92 -31.1 11.83 -31.1 -19.1
5.395 28.9 33.97 5.916 33.97 -37.02 -29.07 -59.16 -67.1 -45.13 -79.11 15.89 33.97 -11.16 7.944 -39.05 -21.13
5.4 36.85 39.89 15.89 39.89 -25.02 -21.13 -55.1 -67.1 -67.1 -99.05 3.888 29.92 -3.043 3.888 -47.16 -27.04
5.405 40.9 37.86 25.86 41.92 -13.02 -11.16 -49.02 -63.05 -87.05 -115.1 -13.02 23.83 -3.043 7.944 -53.07 -33.13
5.41 36.85 33.97 33.97 43.95 -5.071 0.8451 -41.07 -51.05 -113.1 -121 -31.1 19.95 -1.014 19.95 -55.1 -31.1
5.415 26.88 31.95 37.86 49.86 0.8451 5.916 -35.16 -31.1 -143.2 -113.1 -29.07 23.83 7.944 39.89 -55.1 -21.13
5.42 10.99 31.95 31.95 53.92 0.8451 17.92 -29.07 -7.099 -169 -91.11 -7.099 29.92 29.92 53.92 -49.02 -3.043
5.425 0.8451 27.89 17.92 53.92 -1.014 25.86 -19.1 5.916 -179 -62.03 13.86 29.92 49.86 57.98 -43.1 7.944
5.43 0.8451 17.92 0 46.99 1.859 31.95 -7.099 18.93 -163.1 -40.06 25.86 19.95 49.86 51.89 -35.16 15.89
5.435 0.8451 0 -9.128 31.95 0.8451 33.97 0 19.95 -123.1 -27.04 19.95 0 29.92 37.86 -29.07 13.86
5.44 -1.014 -15.04 -19.1 14.87 -1.014 25.86 8.958 16.9 -66.09 -16.06 0.8451 -13.02 3.888 23.83 -18.09 3.888
5.445 -9.128 -31.1 -21.13 0.8451 0 13.86 12.85 10.99 -6.085 -2.028 -14.03 -23.16 -11.16 9.973 -4.057 0
5.45 -23.16 -37.02 -17.07 -2.028 -9.128 -2.028 9.973 3.888 37.86 9.973 -23.16 -19.1 -19.1 0 7.944 -9.128
5.455 -33.13 -31.1 -7.099 6.93 -10.14 -7.099 10.99 0.8451 78.94 33.97 -10.14 -9.128 -15.04 0.8451 32.96 -10.14
5.46 -33.13 -15.04 5.916 16.9 -5.071 -11.16 10.99 0.8451 108.9 51.89 -1.014 0.8451 -6.085 0.8451 50.88 -8.113
5.465 -23.16 0.8451 23.83 23.83 -2.028 -3.043 11.83 -5.071 125.9 59.84 7.944 0 -2.028 -2.028 55.95 -7.099
5.47 -9.128 7.944 37.86 27.89 13.86 2.873 12.85 -7.099 133.9 54.93 7.944 0.8451 4.902 1.859 49.86 -2.028
5.475 0.8451 13.86 43.95 15.89 26.88 16.9 13.86 -6.085 123.9 39.89 -3.043 -3.043 12.85 7.944 33.97 -1.014
5.48 4.902 11.83 41.92 5.916 31.95 19.95 5.916 -5.071 106 19.95 -19.1 -5.071 19.95 13.86 13.86 0
5.485 0.8451 6.93 37.86 1.859 31.95 18.93 2.873 -3.043 84.85 1.859 -22.14 -2.028 28.9 12.85 4.902 -2.028
5.49 0.8451 4.902 31.95 -1.014 30.93 10.99 2.873 -6.085 61.86 -14.03 -17.07 -1.014 29.92 4.902 5.916 -6.085
5.495 0.8451 7.944 31.95 0 27.89 0 1.859 -17.07 35.83 -37.02 -2.028 1.859 23.83 0.8451 3.888 -17.07
5.5 6.93 15.89 30.93 6.93 24.85 -1.014 0.8451 -30.09 8.958 -60 28.9 6.93 15.89 -5.071 0 -23.16
5.505 14.87 21.97 26.88 12.85 19.95 0 1.859 -35.16 -18.09 -78.09 54.93 10.99 4.902 -1.014 -18.09 -26.03
5.51 16.9 11.83 20.96 22.99 18.93 3.888 -7.099 -31.1 -58.15 -86.04 60.85 13.86 1.859 4.902 -41.07 -19.1
5.515 10.99 0 18.93 30.93 17.92 18.93 -14.03 -15.04 -100.1 -76.06 48.85 10.99 -6.085 25.86 -54.09 -8.113
5.52 0.8451 -13.02 18.93 36.85 22.99 29.92 -18.09 1.859 -138.1 -58.15 20.96 4.902 -9.128 39.89 -58.15 1.859
5.525 -1.014 -25.02 19.95 31.95 27.89 35.83 -15.04 9.973 -167.2 -35.16 -3.043 -2.028 -9.128 41.92 -51.05 9.973
5.53 -5.071 -26.03 17.92 22.99 30.93 32.96 -8.113 16.9 -177.1 -18.09 -19.1 -4.057 0 34.99 -37.02 16.9
5.535 -13.02 -18.09 5.916 7.944 21.97 16.9 1.859 13.86 -164.1 -3.043 -14.03 -8.113 16.9 18.93 -28.06 17.92
5.54 -21.13 -13.02 -15.04 -5.071 5.916 0.8451 1.859 3.888 -131.2 -2.028 -5.071 -17.07 31.95 -2.028 -19.1 11.83
5.545 -37.02 -17.07 -43.1 -15.04 -10.14 -16.06 7.944 0 -79.11 7.944 -3.043 -25.02 34.99 -17.07 -3.043 2.873
5.55 -45.13 -31.1 -61.02 -17.07 -25.02 -30.09 8.958 -13.02 -19.1 14.87 -21.13 -31.1 14.87 -25.02 9.973 -2.028
5.555 -47.16 -43.1 -63.05 -13.02 -29.07 -39.05 11.83 -23.16 33.97 17.92 -55.1 -33.13 -15.04 -29.07 27.89 -11.16
5.56 -39.05 -49.02 -47.16 -6.085 -19.1 -41.07 10.99 -23.16 84.85 25.86 -84.01 -27.04 -44.12 -23.16 44.96 -4.057
5.565 -25.02 -39.05 -25.02 -2.028 -12 -37.02 8.958 -20.11 126.9 35.83 -82.15 -17.07 -59.16 -13.02 48.85 0.8451
5.57 -13.02 -19.1 -9.128 -5.071 -9.128 -29.07 -2.028 -11.16 152 43.95 -55.1 -7.099 -51.05 -1.014 35.83 11.83
5.575 -7.099 -1.014 -1.014 -10.14 -8.113 -21.13 -6.085 1.859 165 58.99 -16.06 -3.043 -31.1 0 18.93 16.9
5.58 -5.071 5.916 -1.014 -16.06 -14.03 -17.07 -16.06 8.958 158.9 64.91 2.873 -7.099 -11.16 3.888 4.902 9.973
5.585 -5.071 5.916 -5.071 -23.16 -23.16 -15.04 -21.13 13.86 137.9 57.98 -2.028 -11.16 -1.014 1.859 -2.028 -2.028
5.59 0.8451 0 -9.128 -22.14 -26.03 -15.04 -17.07 14.87 107 42.93 -23.16 -15.04 -2.028 0.8451 1.859 -1.014
5.595 10.99 -1.014 -7.099 -19.1 -23.16 -11.16 -5.071 11.83 71.84 14.87 -41.07 -13.02 0 -13.02 9.973 -2.028
5.6 22.99 0.8451 -1.014 -13.02 -13.02 -5.071 0 5.916 37.86 -9.128 -33.13 -9.128 1.859 -37.02 11.83 5.916
5.605 28.9 1.859 7.944 -3.043 -3.043 0.8451 5.916 -2.028 3.888 -37.02 0.8451 -3.043 5.916 -67.1 3.888 7.944
