    T[sec] Fp1 Fp2  F7  F3  F4  F8  T3  C3  C4  T4  T5  P3  P4  T6  O1  O2
41 208.1 208.1 208.1 208.1 208.1 208.1 208.1 208.1 208.1 208.1 208.1 208.1 208.1 208.1 208.1 208.1
0.625 13.92 13.92 28.96 30.99 20.93 4.979 26.93 10.97 -2.032 39.93 -1.016 -33.02 -14.02 25 -29.06 -34.04
0.63 28.96 21.95 44.91 31.91 26.93 26.93 35.97 4.979 3.963 47.96 3.963 -29.06 0.9145 35.97 -21.03 -24.08
0.635 34.95 32.92 46.94 41.97 45.93 38.92 28.96 19.92 21.95 63 0 -6.097 23.98 44 -1.016 -1.016
0.64 19.92 16.97 26.93 40.95 42.98 27.94 0 19.92 28.96 65.95 -15.04 -10.06 21.95 40.95 -1.016 -2.032
0.645 32.92 14.94 28.96 41.97 31.91 32.92 6.91 16.97 22.96 61.98 1.931 0 30.99 54.97 2.947 -1.016
0.65 46.94 25 39.93 55.99 40.95 34.95 30.99 32.92 30.99 63 12.9 19.92 45.93 63 26.93 17.99
0.655 39.93 19.92 50.91 63 38.92 26.93 46.94 42.98 32.92 63.91 25 29.98 40.95 58.94 22.96 20.93
0.66 48.98 28.96 67.98 74.99 37.9 26.93 63.91 52.94 31.91 54.97 47.96 38.92 44.91 58.94 32.92 23.98
0.665 50.91 38.92 63 86.98 46.94 25.91 63.91 63.91 35.97 55.99 41.97 50.91 53.96 50.91 48.98 41.97
0.67 39.93 31.91 49.99 83.93 47.96 30.99 45.93 55.99 35.97 57.92 25.91 35.97 49.99 33.94 34.95 41.97
0.675 40.95 34.95 55.99 76.92 40.95 44 44 48.98 32.92 46.94 27.94 28.96 55.99 21.95 26.93 39.93
0.68 32.92 36.99 48.98 64.93 38.92 44 49.99 45.93 33.94 33.94 29.98 34.95 59.95 8.942 36.99 45.93
0.685 9.958 15.95 26.93 41.97 19.92 29.98 41.97 30.99 26.93 14.94 23.98 21.95 36.99 -1.016 25 37.9
0.69 0.9145 0.9145 7.926 13.92 -3.048 7.926 23.98 11.99 9.958 0.9145 17.99 5.995 7.926 3.963 10.97 11.99
0.695 -2.032 -15.04 0.9145 1.931 -11.08 -6.097 9.958 3.963 -2.032 0.9145 3.963 0 -3.048 13.92 12.9 -2.032
0.7 1.931 -38 -15.04 0.9145 -6.097 -22.05 -7.011 0 -2.032 -2.032 -15.04 -4.064 -11.08 11.99 2.947 -5.081
0.705 1.931 -39.02 -8.027 0 -4.064 -41.05 -11.08 -10.06 -12.09 -2.032 -33.02 -17.07 -18.09 0.9145 -5.081 -25.1
0.71 22.96 -12.09 4.979 8.942 0 -47.05 -3.048 -13.01 -25.1 1.931 -37.09 -22.05 -23.07 15.95 -7.011 -35.06
0.715 30.99 0 0.9145 4.979 1.931 -42.07 -17.07 -21.03 -21.03 1.931 -43.08 -42.07 -40.04 18.9 -23.07 -53.04
0.72 33.94 -2.032 7.926 0.9145 -3.048 -40.04 -17.07 -24.08 -22.05 -4.064 -39.02 -59.04 -50.09 17.99 -43.08 -73.06
0.725 41.97 5.995 20.93 10.97 -2.032 -19 0.9145 -8.027 -24.08 14.94 -21.03 -45.01 -34.04 28.96 -31.09 -65.03
0.73 33.94 -1.016 0 11.99 15.95 -5.081 -1.016 1.931 -1.016 31.91 -7.011 -21.03 -11.08 25.91 -13.01 -41.05
0.735 21.95 -17.07 -3.048 11.99 23.98 0.9145 -2.032 7.926 11.99 23.98 -3.048 -2.032 3.963 13.92 -1.016 -19
0.74 14.94 -22.05 -2.032 8.942 21.95 11.99 3.963 7.926 19.92 26.93 0.9145 18.9 18.9 25 14.94 -5.081
0.745 0.9145 -36.07 -20.02 -11.08 11.99 6.91 -3.048 -3.048 27.94 19.92 -2.032 17.99 19.92 20.93 14.94 -1.016
0.75 -16.05 -53.04 -23.07 -26.01 -1.016 -1.016 -2.032 -14.02 21.95 12.9 0 14.94 26.93 8.942 12.9 -2.032
0.755 -28.04 -69.1 -24.08 -32.01 -13.01 7.926 -2.032 -16.05 11.99 20.93 0 7.926 30.99 8.942 20.93 9.958
0.76 -38 -80.07 -32.01 -38 -21.03 -1.016 -17.07 -21.03 5.995 12.9 -7.011 0 25 1.931 14.94 11.99
0.765 -35.06 -91.04 -24.08 -33.02 -29.06 -18.09 -15.04 -26.01 -2.032 -12.09 -16.05 -1.016 11.99 -19 16.97 9.958
0.77 -37.09 -93.08 -21.03 -25.1 -39.02 -22.05 -23.07 -25.1 -21.03 -33.02 -33.02 -5.081 -1.016 -29.06 8.942 0
0.775 -37.09 -79.05 -23.07 -21.03 -33.02 -27.03 -41.05 -23.07 -31.09 -27.03 -45.01 -9.043 -7.011 -33.02 -5.081 -5.081
0.78 -22.05 -60.05 -18.09 -22.05 -25.1 -7.011 -37.09 -25.1 -31.09 -8.027 -41.05 -2.032 1.931 -23.07 0.9145 0.9145
0.785 -18.09 -53.04 -33.02 -30.08 -25.1 4.979 -47.05 -30.08 -19 1.931 -30.08 -8.027 -1.016 -12.09 4.979 0
0.79 -13.01 -48.06 -29.06 -25.1 -13.01 14.94 -47.05 -28.04 -4.064 1.931 -20.02 -7.011 7.926 -9.043 10.97 5.995
0.795 -3.048 -43.08 -17.07 -13.01 -2.032 30.99 -19 -13.01 0.9145 7.926 -5.081 5.995 19.92 -2.032 28.96 23.98
0.8 -10.06 -53.04 -25.1 0 9.958 30.99 -9.043 2.947 7.926 4.979 -2.032 14.94 26.93 8.942 36.99 31.91
0.805 -19 -50.09 -22.05 3.963 33.94 39.93 -9.043 18.9 14.94 19.92 -6.097 11.99 29.98 6.91 28.96 38.92
0.81 2.947 -29.06 -9.043 2.947 42.98 58.94 -2.032 13.92 9.958 41.97 1.931 2.947 28.96 21.95 16.97 31.91
0.815 21.95 -21.03 -2.032 0 38.92 49.99 2.947 -2.032 11.99 32.92 0.9145 -22.05 11.99 30.99 -5.081 2.947
0.82 23.98 -17.07 9.958 17.99 46.94 45.93 3.963 0.9145 15.95 32.92 -18.09 -47.05 3.963 26.93 -31.09 -7.011
0.825 32.92 -9.043 14.94 21.95 41.97 39.93 -2.032 -2.032 9.958 38.92 -38 -64.02 -3.048 26.93 -63.1 -21.03
0.83 30.99 -24.08 0.9145 12.9 23.98 9.958 -25.1 -18.09 1.931 7.926 -50.09 -80.07 -22.05 18.9 -83.02 -44.1
0.835 11.99 -29.06 -2.032 8.942 17.99 -1.016 -30.08 -19 -7.011 1.931 -55.07 -72.04 -28.04 3.963 -75.09 -45.01
0.84 16.97 -21.03 -1.016 0.9145 4.979 7.926 -27.03 -21.03 -23.07 5.995 -37.09 -52.03 -26.01 5.995 -57 -45.01
0.845 36.99 -21.03 0 0.9145 0 0 -5.081 -13.01 -26.01 -2.032 -13.01 -22.05 -22.05 14.94 -23.07 -38
0.85 29.98 -15.04 17.99 25.91 27.94 19.92 21.95 17.99 -9.043 14.94 -7.011 11.99 -2.032 20.93 16.97 -5.081
0.855 23.98 -13.01 13.92 27.94 34.95 40.95 23.98 26.93 2.947 38.92 -6.097 19.92 14.94 14.94 30.99 2.947
0.86 15.95 -25.1 -1.016 7.926 11.99 9.958 11.99 9.958 3.963 12.9 -1.016 7.926 3.963 -2.032 20.93 -3.048
0.865 -12.09 -41.05 -7.011 -8.027 -9.043 -11.08 5.995 0.9145 -2.032 0 -7.011 -6.097 0.9145 -22.05 12.9 -2.032
0.87 -24.08 -53.04 -13.01 -24.08 -26.01 -7.011 -7.011 -23.07 -15.04 -7.011 -19 -32.01 0.9145 -25.1 0.9145 1.931
0.875 -9.043 -49.08 -8.027 -40.04 -39.02 -2.032 -6.097 -43.08 -27.03 -21.03 -21.03 -44.1 0 -17.07 -3.048 -3.048
0.88 -4.064 -28.04 5.995 -36.07 -33.02 13.92 1.931 -34.04 -25.1 -9.043 -12.09 -34.04 2.947 -6.097 -1.016 -1.016
0.885 2.947 -19 12.9 -19 -17.07 31.91 4.979 -22.05 -15.04 8.942 -14.02 -28.04 13.92 -4.064 -1.016 1.931
0.89 7.926 -17.07 15.95 -9.043 -18.09 27.94 0 -20.02 -9.043 0 -12.09 -29.06 5.995 -8.027 -17.07 -12.09
0.895 0.9145 -23.07 10.97 -7.011 -16.05 3.963 -2.032 -17.07 -9.043 -18.09 -17.07 -24.08 -3.048 -8.027 -23.07 -22.05
0.9 -2.032 -39.02 -2.032 0 -8.027 -1.016 -15.04 -3.048 -7.011 -17.07 -29.06 -16.05 -4.064 -13.01 -9.043 -17.07
0.905 -7.011 -42.07 -15.04 -23.07 -19 -9.043 -23.07 -14.02 -8.027 -21.03 -38 -23.07 -19 -22.05 -11.08 -34.04
0.91 -16.05 -39.02 -25.1 -50.09 -33.02 -18.09 -31.09 -30.08 -17.07 -30.08 -30.08 -24.08 -32.01 -18.09 -19 -47.05
0.915 -5.081 -39.02 -19 -41.05 -21.03 -6.097 -21.03 -25.1 -23.07 -9.043 -29.06 -13.01 -23.07 -15.04 0.9145 -31.09
0.92 -5.081 -44.1 -13.01 -35.06 -23.07 -6.097 -21.03 -28.04 -26.01 -13.01 -28.04 -27.03 -37.09 -13.01 -3.048 -44.1
0.925 -20.02 -43.08 -17.07 -50.09 -41.05 -34.04 -19 -44.1 -43.08 -48.06 -22.05 -50.09 -76.01 -22.05 -31.09 -79.05
0.93 -14.02 -36.07 -2.032 -26.01 -39.02 -43.08 -3.048 -35.06 -63.1 -46.03 -25.1 -58.02 -90.03 -32.01 -35.06 -93.08
0.935 -19 -33.02 3.963 -13.01 -45.01 -45.01 0.9145 -29.06 -65.03 -45.01 -27.03 -85.05 -107.1 -35.06 -65.03 -119.1
0.94 -23.07 -29.06 0 -19 -51.01 -46.03 -3.048 -35.06 -63.1 -53.04 -23.07 -107.1 -119.1 -31.09 -101 -137.1
0.945 -3.048 -29.06 1.931 1.931 -21.03 -22.05 0.9145 -22.05 -54.06 -10.06 -24.08 -89.01 -83.02 -15.04 -83.02 -103
0.95 -2.032 -42.07 -10.06 1.931 -5.081 -9.043 -13.01 -25.1 -33.02 0.9145 -37.09 -86.07 -60.05 -7.011 -75.09 -75.09
0.955 -22.05 -59.04 -32.01 -32.01 -15.04 -25.1 -25.1 -38 -27.03 -22.05 -40.04 -77.02 -48.06 -18.09 -65.03 -57
0.96 -28.04 -61.07 -33.02 -30.08 -11.08 -18.09 -19 -28.04 -35.06 -20.02 -32.01 -36.07 -10.06 -20.02 -19 -11.08
0.965 -33.02 -66.05 -22.05 -29.06 -11.08 -14.02 -11.08 -17.07 -23.07 -19 -15.04 -11.08 9.958 -20.02 10.97 15.95
0.97 -30.08 -56.09 -14.02 -24.08 -11.08 -20.02 5.995 -3.048 -7.011 -29.06 0 12.9 22.96 -26.01 38.92 33.94
0.975 -19 -43.08 -1.016 -3.048 -5.081 -9.043 21.95 13.92 -1.016 -1.016 15.95 39.93 37.9 -15.04 70.93 55.99
0.98 -13.01 -43.08 -2.032 0 -3.048 -1.016 25.91 21.95 5.995 9.958 23.98 41.97 39.93 -11.08 74.99 59.95
0.985 -12.09 -40.04 -1.016 0 -4.064 0 35.97 22.96 4.979 -2.032 23.98 34.95 34.95 -18.09 68.99 51.92
0.99 -13.01 -30.08 0.9145 -1.016 -11.08 9.958 29.98 22.96 -2.032 -2.032 21.95 19.92 28.96 -4.064 54.97 44
0.995 -10.06 -25.1 0.9145 1.931 -6.097 11.99 13.92 11.99 1.931 -4.064 15.95 1.931 14.94 -3.048 34.95 28.96
1 1.931 -21.03 0.9145 -2.032 1.931 0 11.99 6.91 0.9145 -12.09 1.931 -6.097 8.942 -16.05 22.96 14.94
1.005 6.91 -18.09 0 -2.032 2.947 -5.081 0.9145 2.947 -2.032 0.9145 -9.043 -14.02 1.931 -4.064 6.91 1.931
1.01 5.995 -25.1 -9.043 1.931 9.958 -2.032 -15.04 -4.064 0 3.963 -17.07 -27.03 -5.081 1.931 -7.011 -2.032
1.015 7.926 -27.03 -15.04 1.931 15.95 1.931 -19 -9.043 -2.032 -9.043 -35.06 -35.06 -11.08 -7.011 -25.1 -9.043
1.02 1.931 -31.09 -31.09 -23.07 -1.016 -15.04 -41.05 -27.03 -15.04 -25.1 -53.04 -67.06 -35.06 -5.081 -57 -35.06
1.025 -16.05 -44.1 -52.03 -41.05 -18.09 -30.08 -57 -46.03 -30.08 -35.06 -61.07 -96.02 -57 -28.04 -75.09 -63.1
1.03 -30.08 -59.04 -57 -47.05 -32.01 -43.08 -53.04 -53.04 -59.04 -46.03 -63.1 -96.02 -76.01 -59.04 -73.06 -84.03
1.035 -33.02 -70.01 -48.06 -51.01 -61.07 -57 -45.01 -61.07 -90.03 -56.09 -41.05 -95.01 -111.1 -59.04 -71.03 -114
1.04 -31.09 -65.03 -33.02 -44.1 -69.1 -66.05 -31.09 -57 -99.07 -59.04 -15.04 -89.01 -127 -55.07 -59.04 -135
1.045 -18.09 -57 -25.1 -30.08 -58.02 -81.09 -19 -41.05 -99.07 -74.08 -9.043 -70.01 -134 -53.04 -41.05 -138.1
1.05 -2.032 -56.09 -34.04 -34.04 -53.04 -100.1 -13.01 -35.06 -96.02 -80.07 -15.04 -67.06 -134 -43.08 -41.05 -132.1
1.055 -1.016 -47.05 -31.09 -30.08 -28.04 -77.02 -6.097 -21.03 -77.02 -42.07 -18.09 -64.02 -101 -27.03 -37.09 -106.1
1.06 -1.016 -36.07 -32.01 -19 -2.032 -36.07 -15.04 -7.011 -52.03 -4.064 -33.02 -59.04 -63.1 -7.011 -35.06 -75.09
1.065 6.91 -29.06 -23.07 -14.02 0 -17.07 -18.09 -9.043 -27.03 1.931 -36.07 -60.05 -32.01 1.931 -43.08 -47.05
1.07 15.95 -16.05 -1.016 -10.06 12.9 -1.016 -17.07 -9.043 -1.016 9.958 -30.08 -50.09 1.931 19.92 -31.09 -10.06
1.075 17.99 -18.09 -4.064 -8.027 20.93 11.99 -28.04 -5.081 22.96 9.958 -30.08 -32.01 31.91 29.98 -11.08 18.9
1.08 20.93 -36.07 -19 -14.02 25 15.95 -24.08 -2.032 36.99 0.9145 -25.1 -9.043 46.94 18.9 8.942 46.94
1.085 19.92 -39.02 -11.08 -12.09 28.96 30.99 0 0.9145 33.94 30.99 -4.064 2.947 65.95 23.98 34.95 66.96
1.09 20.93 -35.06 -11.08 -10.06 34.95 44.91 0.9145 5.995 35.97 56.9 1.931 10.97 64.93 44 46.94 63.91
1.095 19.92 -49.08 -13.01 -12.09 29.98 17.99 6.91 0.9145 44 28.96 6.91 6.91 45.93 14.94 44.91 47.96
1.1 2.947 -51.01 -9.043 -22.05 15.95 -3.048 19.92 -4.064 31.91 12.9 9.958 -2.032 35.97 3.963 44.91 34.95
1.105 -5.081 -47.05 -11.08 -22.05 9.958 -15.04 0.9145 -2.032 21.95 4.979 6.91 -1.016 17.99 2.947 40.95 19.92
1.11 -2.032 -53.04 -13.01 -18.09 0 -24.08 -4.064 -5.081 5.995 -12.09 5.995 0 2.947 -15.04 36.99 5.995
1.115 5.995 -43.08 0.9145 -16.05 -12.09 -17.07 4.979 -11.08 -11.08 -1.016 10.97 -10.06 -1.016 -7.011 26.93 -10.06
1.12 8.942 -38 -5.081 -14.02 -10.06 -15.04 0 -4.064 -12.09 -1.016 -2.032 -25.1 -24.08 0 6.91 -40.04
1.125 -1.016 -60.05 -24.08 -26.01 -24.08 -51.01 -22.05 -21.03 -28.04 -49.08 -26.01 -66.05 -71.03 -35.06 -27.03 -78.04
1.13 -23.07 -64.02 -33.02 -48.06 -42.07 -74.08 -31.09 -45.01 -64.02 -67.06 -50.09 -104.1 -113.1 -45.01 -67.06 -118.1
1.135 -42.07 -61.07 -39.02 -50.09 -49.08 -89.01 -52.03 -53.04 -85.05 -73.06 -68.08 -130.1 -138.1 -45.01 -95.01 -145
1.14 -55.07 -78.04 -46.03 -67.06 -62.09 -104.1 -79.05 -77.02 -110 -92.06 -81.09 -159 -161.1 -61.07 -119.1 -169.1
1.145 -65.03 -81.09 -47.05 -88.1 -82 -109 -82 -105.1 -127 -84.03 -90.03 -180.1 -173 -65.03 -135 -178
1.15 -74.08 -92.06 -56.09 -94.09 -85.05 -112.1 -91.04 -111.1 -118.1 -96.02 -95.01 -183 -164 -73.06 -131.1 -170.1
1.155 -72.04 -109 -65.03 -98.06 -88.1 -103 -97.04 -115 -123.1 -100.1 -91.04 -176.1 -146 -77.02 -125.1 -156.1
1.16 -51.01 -99.07 -61.07 -86.07 -77.02 -84.03 -69.1 -103 -113.1 -67.06 -71.03 -143.1 -103 -53.04 -99.07 -115
1.165 -25.1 -84.03 -46.03 -55.07 -45.01 -65.03 -39.02 -59.04 -70.01 -42.07 -45.01 -97.04 -45.01 -31.09 -61.07 -60.05
1.17 -10.06 -73.06 -31.09 -33.02 -16.05 -41.05 -27.03 -33.02 -39.02 -12.09 -29.06 -62.09 0 -15.04 -33.02 -14.02
1.175 -6.097 -52.03 -16.05 -11.08 4.979 -22.05 -17.07 -8.027 -6.097 9.958 -25.1 -36.07 19.92 0 -7.011 17.99
1.18 -3.048 -41.05 -5.081 0.9145 19.92 -7.011 -11.08 7.926 15.95 -2.032 -25.1 -27.03 25.91 -3.048 -1.016 35.97
1.185 0 -35.06 -1.016 0 19.92 8.942 -13.01 3.963 13.92 -2.032 -17.07 -21.03 29.98 1.931 2.947 37.9
1.19 17.99 -25.1 5.995 0.9145 29.98 13.92 -1.016 14.94 29.98 9.958 -7.011 -9.043 39.93 16.97 20.93 48.98
1.195 20.93 -24.08 2.947 5.995 32.92 13.92 3.963 25 46.94 0 -1.016 0 44 16.97 25 49.99
1.2 3.963 -45.01 -17.07 -3.048 17.99 6.91 -7.011 10.97 35.97 4.979 -9.043 1.931 40.95 2.947 20.93 44.91
1.205 -14.02 -59.04 -33.02 -8.027 4.979 -11.08 -19 5.995 29.98 -4.064 -23.07 0 28.96 -17.07 16.97 32.92
1.21 -21.03 -58.02 -36.07 -16.05 -5.081 -15.04 -13.01 2.947 6.91 -24.08 -27.03 -11.08 8.942 -20.02 8.942 7.926
1.215 -12.09 -54.06 -36.07 -25.1 -14.02 -6.097 -13.01 -8.027 -10.06 -8.027 -23.07 -20.02 1.931 -2.032 -1.016 -7.011
1.22 -5.081 -53.04 -25.1 -13.01 -5.081 -17.07 -13.01 -5.081 -7.011 -1.016 -25.1 -33.02 -13.01 -2.032 -5.081 -21.03
1.225 -5.081 -53.04 -29.06 -9.043 0.9145 -29.06 -17.07 -11.08 -15.04 -9.043 -35.06 -55.07 -41.05 -2.032 -23.07 -43.08
1.23 -18.09 -72.04 -54.06 -30.08 -15.04 -39.02 -47.05 -45.01 -35.06 -22.05 -51.01 -81.09 -68.08 -5.081 -53.04 -73.06
1.235 -26.01 -80.07 -58.02 -42.07 -31.09 -59.04 -59.04 -57 -57 -52.03 -53.04 -99.07 -102 -26.01 -69.1 -107.1
1.24 -11.08 -53.04 -38 -37.09 -36.07 -72.04 -35.06 -44.1 -82 -69.1 -43.08 -100.1 -131.1 -19 -67.06 -139
1.245 0.9145 -35.06 -30.08 -27.03 -36.07 -68.08 -33.02 -36.07 -94.09 -48.06 -41.05 -94.09 -141 -13.01 -67.06 -155.1
1.25 2.947 -24.08 -15.04 -2.032 -23.07 -68.08 -27.03 -18.09 -82 -30.08 -39.02 -80.07 -128 -9.043 -63.1 -153
1.255 3.963 -16.05 -3.048 14.94 -8.027 -66.05 -15.04 -6.097 -64.02 -34.04 -41.05 -74.08 -108 1.931 -55.07 -135
1.26 -13.01 -39.02 -21.03 5.995 -11.08 -50.09 -41.05 -19 -47.05 -41.05 -39.02 -75.09 -79.05 -6.097 -53.04 -103
1.265 -33.02 -51.01 -35.06 -7.011 -17.07 -35.06 -43.08 -25.1 -39.02 -37.09 -21.03 -57 -45.01 -13.01 -37.09 -63.1
1.27 -38 -58.02 -29.06 -6.097 -19 -20.02 -19 -10.06 -34.04 -26.01 -5.081 -28.04 -10.06 -11.08 -1.016 -15.04
1.275 -47.05 -75.09 -44.1 -11.08 -22.05 0 -23.07 -10.06 -24.08 -3.048 -13.01 -16.05 15.95 -17.07 8.942 19.92
1.28 -50.09 -66.05 -44.1 -28.04 -28.04 16.97 -21.03 -23.07 -15.04 11.99 -13.01 -5.081 34.95 -15.04 18.9 45.93
1.285 -49.08 -59.04 -29.06 -31.09 -35.06 6.91 -11.08 -25.1 -5.081 0.9145 -13.01 -1.016 33.94 -10.06 26.93 57.92
1.29 -59.04 -67.06 -28.04 -31.09 -40.04 4.979 -23.07 -22.05 -4.064 -11.08 -21.03 0 33.94 -15.04 30.99 59.95
1.295 -50.09 -52.03 -26.01 -28.04 -40.04 21.95 -17.07 -15.04 -7.011 0.9145 -3.048 15.95 44.91 -6.097 46.94 67.98
1.3 -37.09 -52.03 -14.02 -2.032 -19 25 0.9145 7.926 1.931 7.926 6.91 44 66.96 0 70.93 83.93
1.305 -28.04 -58.02 -6.097 12.9 1.931 29.98 4.979 27.94 20.93 23.98 0.9145 53.96 76.92 3.963 78.95 88
1.31 -11.08 -20.02 -1.016 14.94 4.979 45.93 7.926 30.99 30.99 40.95 12.9 58.94 76.92 19.92 72.96 79.97
1.315 -6.097 -15.04 -3.048 19.92 13.92 34.95 4.979 39.93 46.94 29.98 9.958 55.99 67.98 30.99 60.97 70.93
1.32 -12.09 -21.03 -3.048 15.95 10.97 20.93 1.931 33.94 35.97 23.98 -2.032 35.97 41.97 23.98 44.91 47.96
1.325 0.9145 -11.08 -6.097 3.963 -1.016 18.9 0.9145 10.97 10.97 23.98 -7.011 8.942 22.96 22.96 20.93 19.92
1.33 0.9145 -30.08 -18.09 2.947 3.963 0.9145 -11.08 3.963 0 17.99 -24.08 -9.043 10.97 13.92 0.9145 0
1.335 -19 -40.04 -22.05 -4.064 1.931 -9.043 -27.03 -11.08 -15.04 7.926 -59.04 -49.08 -14.02 4.979 -29.06 -35.06
1.34 -17.07 -23.07 -31.09 -23.07 -14.02 -28.04 -49.08 -43.08 -32.01 -7.011 -73.06 -89.01 -50.09 1.931 -81.09 -78.04
1.345 -28.04 -32.01 -41.05 -28.04 -20.02 -52.03 -70.01 -61.07 -43.08 -33.02 -80.07 -103 -77.02 -3.048 -107.1 -107.1
1.35 -27.03 -25.1 -27.03 -19 -22.05 -74.08 -53.04 -55.07 -66.05 -51.01 -77.02 -107.1 -101 -7.011 -119.1 -130.1
1.355 -1.016 -4.064 -6.097 4.979 -21.03 -79.05 -33.02 -33.02 -77.02 -53.04 -55.07 -97.04 -108 -12.09 -111.1 -141
1.36 -3.048 -8.027 -6.097 36.99 1.931 -78.04 -19 9.958 -65.03 -39.02 -24.08 -57 -98.06 -9.043 -73.06 -125.1
1.365 -10.06 -5.081 0.9145 41.97 10.97 -64.02 1.931 34.95 -48.06 -25.1 -11.08 -16.05 -76.01 0 -29.06 -103
1.37 -4.064 -7.011 1.931 37.9 6.91 -44.1 1.931 37.9 -25.1 -19 -6.097 3.963 -49.08 0.9145 4.979 -67.06
1.375 -14.02 -21.03 -9.043 29.98 5.995 -24.08 2.947 44 -10.06 -13.01 0 37.9 -19 -1.016 46.94 -20.02
1.38 -11.08 -8.027 -3.048 25 8.942 -13.01 7.926 44.91 -3.048 -20.02 8.942 54.97 10.97 5.995 74.99 9.958
1.385 10.97 10.97 6.91 42.98 18.9 -1.016 8.942 51.92 -1.016 -15.04 12.9 55.99 40.95 7.926 82.92 44
1.39 25.91 26.93 18.9 54.97 33.94 18.9 11.99 55.99 13.92 9.958 20.93 63.91 63 25.91 88.91 73.97
1.395 36.99 28.96 30.99 52.94 48.98 35.97 15.95 61.98 35.97 31.91 11.99 71.94 90.94 46.94 92.98 91.96
1.4 35.97 11.99 18.9 47.96 50.91 50.91 3.963 54.97 58.94 49.99 -1.016 70.93 109.9 39.93 92.98 107.9
1.405 9.958 -7.011 -15.04 23.98 27.94 50.91 -5.081 35.97 63.91 49.99 -5.081 63.91 93.99 36.99 82.92 101.9
1.41 0.9145 -20.02 -42.07 6.91 10.97 34.95 -15.04 27.94 51.92 25.91 -5.081 59.95 78.95 35.97 70.93 83.93
1.415 1.931 -21.03 -42.07 5.995 4.979 34.95 -17.07 20.93 38.92 15.95 -7.011 50.91 75.9 17.99 60.97 77.94
1.42 -1.016 -20.02 -43.08 0 -1.016 36.99 -7.011 10.97 26.93 26.93 -1.016 32.92 58.94 7.926 48.98 67.98
1.425 -2.032 -31.09 -51.01 -7.011 -9.043 23.98 -1.016 5.995 15.95 19.92 -2.032 19.92 45.93 0 32.92 49.99
1.43 -9.043 -43.08 -55.07 -17.07 -17.07 18.9 -9.043 0.9145 1.931 11.99 -11.08 3.963 29.98 -16.05 16.97 27.94
1.435 -23.07 -42.07 -59.04 -34.04 -34.04 8.942 -23.07 -22.05 -6.097 0 -29.06 -22.05 -1.016 -22.05 -11.08 -2.032
1.44 -20.02 -46.03 -63.1 -46.03 -47.05 -12.09 -39.02 -40.04 -32.01 -26.01 -47.05 -54.06 -32.01 -15.04 -43.08 -35.06
1.445 -13.01 -49.08 -56.09 -51.01 -42.07 -12.09 -51.01 -54.06 -50.09 -26.01 -71.03 -76.01 -49.08 -7.011 -67.06 -57
1.45 0.9145 -35.06 -56.09 -57 -34.04 -16.05 -61.07 -66.05 -50.09 -11.08 -91.04 -114 -69.1 5.995 -101 -85.05
1.455 2.947 -44.1 -60.05 -56.09 -37.09 -37.09 -69.1 -73.06 -57 -20.02 -99.07 -149.1 -102 2.947 -137.1 -127
1.46 2.947 -50.09 -44.1 -50.09 -39.02 -49.08 -63.1 -71.03 -69.1 -36.07 -103 -155.1 -122 -3.048 -153 -155.1
1.465 -1.016 -41.05 -31.09 -41.05 -37.09 -63.1 -49.08 -55.07 -71.03 -59.04 -89.01 -143.1 -123.1 -17.07 -141 -153
1.47 -11.08 -41.05 -27.03 -25.1 -37.09 -67.06 -37.09 -29.06 -73.06 -67.06 -65.03 -109 -105.1 -27.03 -105.1 -129
1.475 -7.011 -39.02 -18.09 -4.064 -23.07 -25.1 -17.07 -2.032 -64.02 -32.01 -45.01 -51.01 -50.09 -12.09 -49.08 -69.1
1.48 1.931 -25.1 -23.07 0.9145 -3.048 12.9 -11.08 6.91 -24.08 2.947 -27.03 -9.043 12.9 2.947 0.9145 -2.032
1.485 1.931 -36.07 -36.07 0 4.979 45.93 -19 7.926 11.99 23.98 -15.04 4.979 61.98 5.995 22.96 53.96
1.49 -14.02 -62.09 -34.04 -3.048 8.942 67.98 -13.01 0 31.91 33.94 -7.011 25 93.99 7.926 46.94 93.99
1.495 -28.04 -68.08 -28.04 -9.043 10.97 53.96 -5.081 4.979 56.9 20.93 5.995 35.97 108.9 -1.016 63 112
1.5 -43.08 -68.08 -27.03 -11.08 2.947 44.91 0 16.97 54.97 7.926 21.95 44.91 101.9 -13.01 74.99 113.9
1.505 -41.05 -63.1 -21.03 -1.016 -1.016 54.97 17.99 23.98 39.93 31.91 27.94 61.98 99.99 -5.081 88.91 112
1.51 -25.1 -55.07 -15.04 0.9145 -5.081 37.9 23.98 23.98 37.9 29.98 21.95 59.95 89.93 -1.016 88.91 106
1.515 -24.08 -53.04 -18.09 -3.048 -14.02 27.94 5.995 16.97 34.95 12.9 3.963 47.96 80.98 -16.05 82.92 95.92
1.52 -28.04 -58.02 -30.08 -8.027 -18.09 27.94 -9.043 5.995 19.92 9.958 -5.081 44.91 73.97 -7.011 74.99 81.9
1.525 -21.03 -58.02 -35.06 -22.05 -21.03 7.926 -25.1 -4.064 10.97 -2.032 -11.08 28.96 52.94 -4.064 56.9 55.99
1.53 -3.048 -33.02 -25.1 -17.07 -19 20.93 -21.03 -1.016 3.963 1.931 -9.043 27.94 41.97 3.963 44.91 35.97
1.535 18.9 -10.06 -12.09 4.979 0 41.97 -3.048 15.95 7.926 41.97 0.9145 38.92 47.96 25.91 46.94 23.98
1.54 15.95 -13.01 0 17.99 7.926 4.979 1.931 26.93 19.92 28.96 -7.011 22.96 20.93 10.97 28.96 -1.016
1.545 14.94 -2.032 7.926 27.94 3.963 -17.07 4.979 34.95 7.926 2.947 -21.03 -1.016 -5.081 -1.016 2.947 -23.07
1.55 26.93 1.931 0 32.92 13.92 -11.08 -7.011 34.95 0.9145 13.92 -26.01 -13.01 -5.081 19.92 -21.03 -30.08
1.555 38.92 -1.016 -14.02 22.96 34.95 -1.016 -30.08 14.94 7.926 28.96 -47.05 -46.03 -11.08 41.97 -65.03 -42.07
1.56 67.98 6.91 -15.04 11.99 48.98 18.9 -43.08 -10.06 17.99 52.94 -66.05 -83.02 -7.011 66.96 -113.1 -50.09
1.565 86.98 15.95 -14.02 2.947 63.91 39.93 -52.03 -25.1 38.92 77.94 -73.06 -111.1 1.931 76.92 -143.1 -50.09
1.57 66.96 0 0 -1.016 69.91 21.95 -54.06 -35.06 44 51.92 -84.03 -139 -12.09 53.96 -165 -61.07
1.575 54.97 6.91 7.926 0 45.93 5.995 -42.07 -44.1 25.91 18.9 -79.05 -152 -33.02 38.92 -173 -79.05
1.58 54.97 25.91 12.9 15.95 38.92 0.9145 -22.05 -24.08 12.9 21.95 -47.05 -120 -25.1 31.91 -127 -66.05
1.585 42.98 12.9 17.99 29.98 37.9 -2.032 1.931 1.931 5.995 25 -24.08 -64.02 -16.05 13.92 -59.04 -44.1
1.59 42.98 10.97 17.99 32.92 17.99 -11.08 17.99 19.92 -1.016 14.94 -5.081 -18.09 -20.02 6.91 -13.01 -33.02
1.595 44.91 16.97 29.98 35.97 7.926 -8.027 32.92 29.98 1.931 20.93 10.97 11.99 -10.06 3.963 25 -16.05
1.6 34.95 -1.016 28.96 33.94 6.91 -8.027 34.95 36.99 1.931 13.92 3.963 32.92 -7.011 0.9145 48.98 0
1.605 30.99 -18.09 5.995 11.99 -5.081 -7.011 18.9 16.97 -5.081 -1.016 0.9145 26.93 -1.016 -4.064 40.95 5.995
1.61 20.93 -16.05 -1.016 0.9145 -3.048 -3.048 16.97 11.99 -5.081 13.92 12.9 39.93 20.93 -1.016 58.94 29.98
1.615 16.97 -21.03 1.931 0.9145 0 1.931 14.94 25.91 4.979 21.95 15.95 61.98 46.94 0 82.92 54.97
1.62 9.958 -28.04 -17.07 1.931 -1.016 6.91 1.931 34.95 17.99 6.91 20.93 73.97 59.95 0 90.94 63
1.625 0.9145 -17.07 -10.06 4.979 8.942 19.92 10.97 46.94 35.97 12.9 23.98 90.94 73.97 1.931 108.9 76.92
1.63 6.91 -23.07 -4.064 16.97 19.92 31.91 19.92 52.94 46.94 33.94 18.9 103.9 89.93 1.931 125 88.91
1.635 12.9 -26.01 -13.01 9.958 19.92 39.93 20.93 46.94 53.96 38.92 13.92 100.9 89.93 6.91 123 85.96
1.64 9.958 -15.04 3.963 19.92 25.91 26.93 29.98 47.96 57.92 38.92 21.95 105 88.91 6.91 119 84.95
1.645 14.94 -20.02 10.97 26.93 20.93 11.99 29.98 51.92 49.99 33.94 23.98 94.91 75.9 1.931 105 69.91
1.65 11.99 -27.03 -1.016 27.94 7.926 8.942 13.92 55.99 45.93 15.95 15.95 63.91 55.99 -9.043 72.96 45.93
1.655 0 -16.05 7.926 42.98 11.99 5.995 11.99 64.93 36.99 8.942 3.963 42.98 52.94 -10.06 50.91 39.93
1.66 10.97 -6.097 12.9 44.91 26.93 11.99 15.95 55.99 33.94 33.94 -1.016 16.97 55.99 3.963 22.96 35.97
1.665 38.92 -2.032 18.9 41.97 40.95 25.91 21.95 40.95 46.94 46.94 -13.01 -11.08 52.94 28.96 -11.08 21.95
1.67 44 7.926 31.91 47.96 65.95 11.99 19.92 37.9 59.95 31.91 -21.03 -31.09 41.97 44 -41.05 5.995
1.675 51.92 1.931 27.94 44 75.9 0.9145 9.958 27.94 59.95 29.98 -29.06 -43.08 19.92 41.97 -57 -15.04
1.68 57.92 0 23.98 35.97 68.99 6.91 0.9145 28.96 52.94 29.98 -31.09 -34.04 7.926 31.91 -49.08 -33.02
1.685 38.92 -4.064 25 47.96 70.93 -2.032 -9.043 42.98 44.91 20.93 -29.06 -1.016 16.97 25 -17.07 -17.07
1.69 32.92 -8.027 20.93 47.96 70.93 13.92 -1.016 45.93 37.9 44 -15.04 34.95 41.97 25.91 25 15.95
1.695 34.95 -4.064 36.99 58.94 66.96 44 11.99 57.92 53.96 67.98 0 64.93 69.91 21.95 64.93 53.96
1.7 13.92 -3.048 47.96 72.96 57.92 32.92 17.99 70.93 64.93 40.95 9.958 77.94 86.98 10.97 92.98 81.9
1.705 12.9 -5.081 38.92 64.93 41.97 25.91 25.91 64.93 60.97 30.99 19.92 81.9 90.94 2.947 100.9 91.96
1.71 19.92 -5.081 47.96 55.99 35.97 39.93 44 61.98 61.98 44 39.93 93.99 101.9 3.963 113 103.9
1.715 1.931 -9.043 57.92 55.99 39.93 39.93 55.99 65.95 69.91 39.93 53.96 115.9 118 7.926 131 124
1.72 0 -18.09 40.95 46.94 33.94 49.99 61.98 65.95 69.91 48.98 59.95 113 113 4.979 132.9 126
1.725 -2.032 -24.08 28.96 34.95 21.95 46.94 53.96 51.92 63.91 44.91 59.95 89.93 88 -10.06 126.9 115.9
1.73 -8.027 -31.09 13.92 27.94 7.926 17.99 31.91 34.95 41.97 4.979 40.95 70.93 70.93 -26.01 111 101.9
1.735 1.931 -36.07 1.931 19.92 0.9145 5.995 16.97 20.93 14.94 -9.043 18.9 45.93 50.91 -29.06 88.91 79.97
1.74 10.97 -32.01 5.995 14.94 0 15.95 21.95 16.97 3.963 0.9145 19.92 40.95 46.94 -29.06 72.96 73.97
1.745 0.9145 -26.01 25.91 11.99 -2.032 4.979 40.95 14.94 2.947 -1.016 30.99 47.96 35.97 -29.06 72.96 63.91
1.75 1.931 -23.07 21.95 11.99 -15.04 -4.064 39.93 19.92 -1.016 -17.07 27.94 25.91 1.931 -27.03 52.94 25.91
1.755 23.98 -23.07 0 1.931 -19 -19 19.92 7.926 -9.043 -17.07 19.92 -2.032 -21.03 -21.03 28.96 -5.081
1.76 25 -22.05 -4.064 -4.064 -13.01 -39.02 0 -12.09 -21.03 -20.02 3.963 -20.02 -30.08 -1.016 8.942 -25.1
1.765 46.94 -17.07 -4.064 0.9145 0.9145 -29.06 -10.06 -20.02 -25.1 -7.011 -8.027 -52.03 -36.07 16.97 -21.03 -51.01
1.77 67.98 -8.027 -1.016 -1.016 12.9 -7.011 -22.05 -26.01 -16.05 19.92 -18.09 -79.05 -39.02 34.95 -61.07 -69.1
1.775 65.95 -5.081 1.931 0.9145 19.92 -6.097 -25.1 -39.02 -9.043 31.91 -29.06 -95.01 -53.04 37.9 -89.01 -81.09
1.78 76.92 -9.043 2.947 13.92 27.94 -7.011 -27.03 -26.01 -9.043 25.91 -48.06 -102 -60.05 28.96 -103 -93.08
1.785 73.97 -15.04 -10.06 12.9 28.96 -16.05 -40.04 -23.07 -10.06 14.94 -54.06 -100.1 -63.1 11.99 -107.1 -95.01
1.79 44 -30.08 -16.05 -1.016 10.97 -33.02 -36.07 -38 -20.02 1.931 -47.05 -87.08 -62.09 1.931 -91.04 -90.03
1.795 26.93 -39.02 -12.09 -4.064 0 -31.09 -28.04 -38 -26.01 -12.09 -45.01 -77.02 -65.03 -10.06 -79.05 -97.04
1.8 15.95 -53.04 -26.01 -15.04 -11.08 -21.03 -41.05 -41.05 -27.03 -18.09 -34.04 -72.04 -67.06 -17.07 -73.06 -92.06
1.805 3.963 -62.09 -25.1 -29.06 -18.09 -25.1 -36.07 -40.04 -24.08 -9.043 -24.08 -57 -56.09 -10.06 -51.01 -69.1
1.81 13.92 -50.09 -6.097 0 -1.016 -13.01 -13.01 -11.08 -11.08 7.926 -20.02 -25.1 -18.09 -2.032 -23.07 -34.04
1.815 21.95 -42.07 0.9145 6.91 0 -7.011 -14.02 0 0 12.9 -12.09 -6.097 7.926 0.9145 0.9145 -2.032
1.82 9.958 -50.09 -7.011 -5.081 -2.032 -13.01 -8.027 -1.016 16.97 4.979 0.9145 -3.048 14.94 3.963 8.942 10.97
1.825 6.91 -54.06 -14.02 -11.08 -4.064 -12.09 -6.097 -3.048 18.9 3.963 -3.048 1.931 12.9 -6.097 12.9 12.9
1.83 6.91 -55.07 -25.1 -28.04 -7.011 -1.016 -36.07 -19 12.9 -1.016 -10.06 -5.081 9.958 -13.01 6.91 8.942
1.835 6.91 -60.05 -21.03 -31.09 -9.043 0.9145 -41.05 -18.09 12.9 -2.032 -9.043 0 18.9 -10.06 12.9 21.95
1.84 20.93 -45.01 -3.048 0 0 7.926 -20.02 0.9145 14.94 23.98 -10.06 17.99 37.9 -13.01 30.99 36.99
1.845 18.9 -40.04 0 9.958 0.9145 0.9145 -22.05 7.926 18.9 7.926 -7.011 21.95 42.98 -8.027 40.95 40.95
1.85 1.931 -56.09 0.9145 7.926 0.9145 0.9145 -14.02 14.94 25 0.9145 -3.048 17.99 34.95 -3.048 42.98 40.95
1.855 0.9145 -50.09 5.995 10.97 1.931 -5.081 6.91 15.95 21.95 20.93 4.979 14.94 25.91 -4.064 34.95 25
1.86 0.9145 -38 12.9 0.9145 -3.048 -11.08 9.958 15.95 17.99 -2.032 18.9 0 -1.016 -1.016 18.9 -4.064
1.865 -3.048 -42.07 29.98 1.931 -8.027 -31.09 20.93 20.93 8.942 -11.08 22.96 -13.01 -32.01 -4.064 -1.016 -33.02
1.87 0 -27.03 44.91 23.98 -11.08 -49.08 33.94 17.99 -15.04 -12.09 26.93 -38 -67.06 -19 -27.03 -74.08
1.875 4.979 -11.08 42.98 32.92 -20.02 -65.03 25 16.97 -42.07 -46.03 9.958 -67.06 -113.1 -26.01 -57 -121
1.88 0 -26.01 38.92 39.93 -20.02 -77.02 8.942 14.94 -62.09 -56.09 0.9145 -77.02 -138.1 -29.06 -75.09 -144.1
1.885 0 -21.03 36.99 34.95 -18.09 -70.01 14.94 7.926 -78.04 -36.07 6.91 -66.05 -127 -27.03 -77.02 -147
1.89 6.91 -23.07 28.96 27.94 -17.07 -47.05 11.99 8.942 -69.1 -37.09 10.97 -46.03 -100.1 -22.05 -49.08 -127
1.895 0 -39.02 21.95 25.91 -5.081 -28.04 0 17.99 -41.05 -23.07 3.963 -11.08 -51.01 -15.04 0.9145 -67.06
1.9 3.963 -42.07 17.99 22.96 10.97 9.958 -1.016 21.95 -10.06 25.91 14.94 15.95 17.99 0.9145 38.92 7.926
1.905 18.9 -39.02 4.979 17.99 27.94 59.95 -1.016 28.96 35.97 61.98 22.96 46.94 82.92 30.99 74.99 75.9
1.91 12.9 -52.03 -8.027 12.9 45.93 75.9 -9.043 44.91 81.9 80.98 13.92 74.99 132.9 49.99 105 138
1.915 3.963 -61.07 -21.03 0 51.92 81.9 -15.04 39.93 101.9 89.93 11.99 77.94 157.9 44 111 170
1.92 -7.011 -67.06 -29.06 -13.01 33.94 72.96 -11.08 15.95 101.9 67.98 5.995 57.92 138 7.926 100.9 156
1.925 -37.09 -84.03 -29.06 -29.06 0.9145 20.93 -16.05 -6.097 70.93 27.94 -4.064 25.91 91.96 -31.09 72.96 119.9
1.93 -54.06 -92.06 -15.04 -44.1 -37.09 0.9145 -19 -38 17.99 -1.016 -5.081 -10.06 52.94 -57 34.95 81.9
1.935 -63.1 -82 -8.027 -53.04 -70.01 -7.011 -4.064 -56.09 -10.06 -13.01 12.9 -41.05 14.94 -65.03 2.947 35.97
1.94 -72.04 -73.06 -17.07 -53.04 -85.05 -33.02 -9.043 -48.06 -37.09 -34.04 12.9 -56.09 -10.06 -70.01 -7.011 11.99
1.945 -61.07 -70.01 -22.05 -58.02 -83.02 -40.04 -19 -55.07 -59.04 -46.03 -3.048 -73.06 -19 -70.01 -23.07 3.963
1.95 -40.04 -58.02 -22.05 -66.05 -71.03 -23.07 -13.01 -75.09 -61.07 -30.08 -7.011 -84.03 -16.05 -56.09 -39.02 0.9145
1.955 -19 -57 -25.1 -65.03 -49.08 -19 -21.03 -77.02 -51.01 -13.01 -15.04 -81.09 -11.08 -31.09 -49.08 -2.032
1.96 0 -61.07 -25.1 -65.03 -27.03 -1.016 -49.08 -73.06 -35.06 -7.011 -45.01 -85.05 -3.048 -17.07 -59.04 0
1.965 0 -50.09 -10.06 -57 -12.09 4.979 -59.04 -70.01 -18.09 0.9145 -53.04 -96.02 -14.02 -2.032 -71.03 -12.09
1.97 0 -21.03 1.931 -32.01 0.9145 0.9145 -49.08 -48.06 -12.09 4.979 -53.04 -93.08 -36.07 4.979 -71.03 -29.06
1.975 34.95 10.97 36.99 1.931 10.97 2.947 -31.09 -27.03 -13.01 1.931 -55.07 -95.01 -48.06 11.99 -83.02 -48.06
1.98 50.91 30.99 69.91 27.94 25 12.9 0 -14.02 -9.043 20.93 -27.03 -101 -51.01 25 -103 -68.08
1.985 58.94 28.96 60.97 41.97 38.92 6.91 1.931 -6.097 -1.016 39.93 -15.04 -92.06 -51.01 28.96 -103 -78.04
1.99 63.91 5.995 44 25 33.94 5.995 -16.05 -12.09 0 37.9 -34.04 -105.1 -63.1 26.93 -113.1 -93.08
1.995 29.98 -21.03 21.95 2.947 25.91 -1.016 -35.06 -23.07 -2.032 35.97 -51.01 -115 -73.06 15.95 -123.1 -107.1
2 9.958 -33.02 -2.032 -15.04 17.99 -11.08 -35.06 -35.06 -9.043 29.98 -49.08 -105.1 -71.03 7.926 -113.1 -105.1
2.005 18.9 -30.08 -1.016 -25.1 10.97 -8.027 -25.1 -30.08 -12.09 15.95 -31.09 -90.03 -55.07 10.97 -101 -94.09
2.01 10.97 -34.04 8.942 -6.097 20.93 -3.048 0.9145 -3.048 3.963 16.97 -1.016 -59.04 -20.02 3.963 -73.06 -60.05
2.015 3.963 -41.05 7.926 -2.032 19.92 -8.027 6.91 7.926 22.96 11.99 8.942 -28.04 6.91 -7.011 -35.06 -19
2.02 7.926 -41.05 23.98 -1.016 9.958 -12.09 13.92 15.95 25.91 0.9145 15.95 -13.01 15.95 -21.03 -15.04 -1.016
2.025 2.947 -28.04 42.98 32.92 26.93 -7.011 27.94 45.93 35.97 0.9145 23.98 1.931 32.92 -23.07 8.942 25
2.03 3.963 -17.07 40.95 39.93 31.91 -2.032 26.93 56.9 36.99 2.947 30.99 12.9 39.93 -19 26.93 41.97
2.035 25 -2.032 47.96 37.9 26.93 -2.032 30.99 46.94 33.94 1.931 33.94 7.926 29.98 -1.016 26.93 36.99
2.04 27.94 0 49.99 54.97 40.95 18.9 34.95 54.97 41.97 10.97 35.97 12.9 37.9 9.958 38.92 42.98
2.045 17.99 -5.081 34.95 35.97 34.95 19.92 19.92 44 39.93 16.97 31.91 11.99 34.95 2.947 48.98 44
2.05 1.931 -10.06 36.99 17.99 17.99 23.98 19.92 30.99 33.94 12.9 32.92 6.91 25 -1.016 40.95 32.92
2.055 4.979 -10.06 39.93 39.93 38.92 50.91 35.97 55.99 32.92 30.99 41.97 25 40.95 1.931 52.94 46.94
2.06 11.99 -8.027 26.93 47.96 48.98 58.94 35.97 79.97 37.9 44 36.99 32.92 44 -1.016 63 60.97
2.065 22.96 -8.027 37.9 44 38.92 45.93 42.98 66.96 35.97 29.98 19.92 13.92 19.92 -3.048 38.92 40.95
2.07 34.95 0 42.98 54.97 44.91 49.99 38.92 57.92 25.91 34.95 8.942 -1.016 13.92 9.958 18.9 22.96
2.075 37.9 6.91 32.92 39.93 46.94 53.96 6.91 30.99 23.98 46.94 0 -27.03 3.963 17.99 0.9145 8.942
2.08 33.94 9.958 33.94 5.995 38.92 50.91 -11.08 -5.081 19.92 34.95 -19 -67.06 -8.027 23.98 -41.05 -11.08
2.085 41.97 0.9145 20.93 0.9145 36.99 57.92 -10.06 -24.08 7.926 46.94 -28.04 -85.05 -13.01 37.9 -65.03 -28.04
2.09 38.92 1.931 8.942 0 34.95 35.97 -8.027 -21.03 7.926 50.91 -30.08 -91.04 -13.01 29.98 -73.06 -34.04
2.095 4.979 -8.027 17.99 -9.043 10.97 -5.081 -4.064 -24.08 1.931 9.958 -39.02 -111.1 -41.05 1.931 -103 -60.05
2.1 -3.048 -20.02 10.97 -13.01 0 -20.02 -1.016 -27.03 -13.01 0.9145 -32.01 -112.1 -47.05 0.9145 -111.1 -72.04
2.105 0.9145 -22.05 1.931 -1.016 4.979 -14.02 -11.08 -21.03 -12.09 12.9 -25.1 -88.1 -30.08 -3.048 -91.04 -56.09
2.11 3.963 -18.09 8.942 -1.016 9.958 -5.081 -27.03 -16.05 -3.048 0.9145 -32.01 -72.04 -24.08 -5.081 -79.05 -46.03
2.115 15.95 -17.07 8.942 -3.048 14.94 0.9145 -15.04 -9.043 -2.032 12.9 -27.03 -55.07 -8.027 8.942 -63.1 -33.02
2.12 11.99 -16.05 7.926 0.9145 20.93 0.9145 -2.032 0.9145 15.95 26.93 -21.03 -28.04 5.995 9.958 -37.09 -18.09
2.125 -10.06 -10.06 11.99 0 18.9 -1.016 -2.032 6.91 25.91 3.963 -11.08 -29.06 3.963 0 -47.05 -14.02
2.13 -19 -13.01 16.97 0 19.92 0.9145 14.94 12.9 26.93 8.942 6.91 -24.08 21.95 7.926 -35.06 -2.032
2.135 -6.097 -10.06 26.93 25 34.95 23.98 29.98 33.94 37.9 34.95 27.94 5.995 52.94 9.958 0.9145 38.92
2.14 -17.07 -1.016 27.94 40.95 35.97 26.93 25.91 49.99 47.96 29.98 31.91 21.95 67.98 -2.032 28.96 59.95
2.145 -19 -1.016 23.98 28.96 37.9 20.93 36.99 49.99 48.98 35.97 34.95 40.95 76.92 3.963 56.9 75.9
2.15 -10.06 -10.06 16.97 20.93 26.93 33.94 39.93 44 47.96 50.91 37.9 61.98 78.95 1.931 88.91 88.91
2.155 -10.06 -10.06 8.942 19.92 12.9 36.99 27.94 40.95 44.91 30.99 44 56.9 61.98 2.947 86.98 76.92
2.16 -1.016 -1.016 17.99 25.91 17.99 25.91 44 47.96 35.97 19.92 61.98 63.91 51.92 9.958 100.9 71.94
2.165 11.99 7.926 35.97 48.98 23.98 16.97 61.98 65.95 27.94 27.94 83.93 89.93 44.91 11.99 120.9 67.98
2.17 1.931 17.99 37.9 60.97 19.92 -3.048 56.9 70.93 27.94 7.926 84.95 81.9 15.95 0.9145 113 39.93
2.175 1.931 25 38.92 59.95 26.93 -18.09 53.96 64.93 10.97 1.931 65.95 66.96 1.931 4.979 100.9 16.97
2.18 16.97 34.95 47.96 49.99 25 1.931 54.97 48.98 -3.048 12.9 53.96 55.99 -3.048 20.93 84.95 8.942
2.185 28.96 38.92 44.91 36.99 16.97 9.958 44 29.98 0.9145 8.942 29.98 21.95 -16.05 31.91 48.98 -6.097
2.19 41.97 45.93 49.99 46.94 33.94 27.94 33.94 28.96 -4.064 14.94 15.95 10.97 -1.016 56.9 30.99 1.931
2.195 54.97 52.94 52.94 60.97 59.95 63 27.94 40.95 6.91 54.97 15.95 22.96 38.92 80.98 38.92 38.92
2.2 39.93 25.91 39.93 61.98 61.98 69.91 21.95 41.97 45.93 67.98 7.926 11.99 53.96 69.91 26.93 45.93
2.205 21.95 11.99 35.97 65.95 67.98 71.94 17.99 44 59.95 69.91 1.931 11.99 69.91 57.92 22.96 57.92
2.21 12.9 18.9 44.91 63 61.98 84.95 25.91 48.98 57.92 92.98 7.926 22.96 76.92 55.99 30.99 65.95
2.215 -1.016 6.91 46.94 46.94 37.9 75.9 31.91 41.97 63.91 74.99 3.963 14.94 52.94 36.99 16.97 45.93
2.22 -3.048 1.931 42.98 39.93 22.96 53.96 22.96 38.92 42.98 34.95 8.942 13.92 39.93 31.91 12.9 34.95
2.225 -9.043 8.942 33.94 42.98 20.93 40.95 18.9 37.9 25 25 18.9 15.95 34.95 35.97 22.96 32.92
2.23 -14.02 -4.064 29.98 28.96 10.97 23.98 19.92 26.93 23.98 11.99 18.9 10.97 15.95 17.99 12.9 20.93
2.235 -28.04 -14.02 25.91 30.99 6.91 7.926 25 23.98 10.97 -3.048 30.99 13.92 8.942 8.942 20.93 14.94
2.24 -39.02 -11.08 25 44 23.98 20.93 31.91 44 0 7.926 33.94 33.94 21.95 4.979 48.98 27.94
2.245 -43.08 -23.07 15.95 39.93 27.94 31.91 41.97 53.96 11.99 17.99 33.94 45.93 29.98 -2.032 70.93 44
2.25 -32.01 -28.04 11.99 38.92 17.99 30.99 39.93 52.94 9.958 7.926 44.91 52.94 42.98 3.963 82.92 52.94
2.255 -13.01 -13.01 16.97 45.93 18.9 37.9 38.92 60.97 12.9 20.93 36.99 53.96 53.96 17.99 84.95 60.97
2.26 -12.09 -13.01 22.96 37.9 12.9 39.93 34.95 55.99 25 25.91 25 38.92 47.96 9.958 66.96 55.99
2.265 -23.07 -13.01 28.96 27.94 -1.016 26.93 23.98 39.93 9.958 11.99 21.95 23.98 23.98 2.947 48.98 31.91
2.27 -11.08 0 38.92 39.93 -1.016 35.97 30.99 45.93 0 20.93 18.9 31.91 19.92 5.995 56.9 26.93
2.275 -2.032 5.995 35.97 45.93 9.958 48.98 38.92 46.94 -1.016 22.96 23.98 40.95 18.9 8.942 66.96 35.97
2.28 -1.016 6.91 38.92 44 14.94 45.93 44 36.99 0 11.99 36.99 37.9 14.94 17.99 58.94 33.94
2.285 14.94 15.95 55.99 52.94 32.92 45.93 56.9 46.94 3.963 22.96 44.91 44 26.93 29.98 54.97 33.94
2.29 16.97 20.93 53.96 60.97 49.99 54.97 60.97 66.96 28.96 38.92 49.99 51.92 44 35.97 52.94 46.94
2.295 4.979 11.99 37.9 49.99 51.92 47.96 45.93 61.98 34.95 42.98 49.99 45.93 45.93 38.92 44.91 45.93
2.3 17.99 14.94 39.93 45.93 49.99 47.96 42.98 49.99 36.99 50.91 41.97 36.99 50.91 45.93 42.98 49.99
2.305 21.95 3.963 20.93 40.95 41.97 53.96 32.92 38.92 44 42.98 23.98 27.94 55.99 36.99 30.99 52.94
2.31 -1.016 -4.064 11.99 15.95 22.96 51.92 7.926 4.979 31.91 27.94 4.979 -1.016 38.92 21.95 2.947 35.97
2.315 -4.064 -4.064 23.98 9.958 5.995 44.91 1.931 0.9145 13.92 18.9 0 -15.04 27.94 12.9 -5.081 23.98
2.32 1.931 -1.016 23.98 29.98 3.963 36.99 7.926 13.92 7.926 11.99 15.95 -6.097 23.98 6.91 2.947 26.93
2.325 -4.064 4.979 19.92 31.91 8.942 22.96 16.97 13.92 0.9145 20.93 25.91 -1.016 11.99 11.99 2.947 14.94
2.33 2.947 13.92 29.98 44 21.95 22.96 31.91 27.94 3.963 29.98 33.94 6.91 19.92 30.99 16.97 22.96
2.335 20.93 20.93 45.93 69.91 44 50.91 51.92 53.96 25.91 42.98 37.9 41.97 49.99 48.98 44.91 45.93
2.34 14.94 30.99 49.99 61.98 48.98 67.98 45.93 42.98 39.93 59.95 30.99 59.95 63 53.96 63 57.92
2.345 17.99 25.91 50.91 48.98 45.93 57.92 34.95 32.92 45.93 50.91 25.91 69.91 67.98 50.91 80.98 69.91
2.35 27.94 10.97 47.96 53.96 39.93 49.99 34.95 41.97 48.98 34.95 41.97 88.91 74.99 39.93 111 83.93
2.355 20.93 11.99 31.91 39.93 33.94 39.93 31.91 31.91 40.95 34.95 45.93 88 69.91 28.96 111 77.94
2.36 8.942 14.94 39.93 38.92 27.94 46.94 32.92 38.92 38.92 30.99 49.99 81.9 69.91 25.91 105 82.92
2.365 8.942 15.95 53.96 56.9 34.95 59.95 42.98 64.93 39.93 34.95 52.94 99.99 78.95 17.99 113 91.96
2.37 2.947 14.94 40.95 51.92 25 57.92 39.93 56.9 37.9 39.93 38.92 89.93 58.94 15.95 94.91 69.91
2.375 -2.032 -7.011 19.92 33.94 15.95 42.98 16.97 42.98 30.99 22.96 11.99 63 32.92 12.9 63 45.93
2.38 -15.04 -41.05 2.947 21.95 8.942 29.98 1.931 23.98 14.94 20.93 -2.032 39.93 23.98 7.926 48.98 32.92
2.385 -25.1 -47.05 -4.064 -2.032 1.931 26.93 -17.07 -7.011 -2.032 27.94 -11.08 9.958 19.92 6.91 25 21.95
2.39 -12.09 -31.09 0.9145 -11.08 10.97 45.93 -30.08 -25.1 2.947 29.98 -10.06 -2.032 27.94 25.91 6.91 31.91
2.395 -7.011 -31.09 -1.016 -15.04 14.94 49.99 -28.04 -32.01 14.94 34.95 -14.02 -3.048 35.97 31.91 2.947 40.95
2.4 0 -36.07 -7.011 -14.02 7.926 38.92 -21.03 -38 17.99 29.98 -15.04 -4.064 26.93 19.92 2.947 32.92
2.405 1.931 -33.02 -3.048 0.9145 1.931 27.94 -1.016 -25.1 5.995 11.99 -3.048 0.9145 17.99 11.99 -1.016 21.95
2.41 -15.04 -23.07 1.931 11.99 -3.048 6.91 15.95 -2.032 -3.048 1.931 15.95 7.926 7.926 -2.032 4.979 19.92
2.415 -20.02 -10.06 27.94 32.92 -6.097 -1.016 38.92 19.92 -14.02 -1.016 42.98 19.92 0 -12.09 14.94 10.97
2.42 1.931 0.9145 55.99 44.91 0 1.931 49.99 36.99 -15.04 -7.011 63 25 -9.043 -1.016 8.942 0.9145
2.425 -7.011 -6.097 33.94 28.96 -2.032 -6.097 38.92 23.98 -2.032 -8.027 48.98 5.995 -22.05 -5.081 -3.048 -14.02
2.43 -7.011 -19 22.96 19.92 -4.064 -1.016 32.92 4.979 -6.097 4.979 32.92 0 -19 -9.043 -9.043 -20.02
2.435 6.91 -6.097 38.92 26.93 -1.016 19.92 44 5.995 -13.01 26.93 29.98 12.9 -1.016 4.979 0.9145 -7.011
2.44 4.979 2.947 32.92 28.96 3.963 22.96 45.93 14.94 -1.016 26.93 29.98 28.96 18.9 19.92 10.97 5.995
2.445 13.92 17.99 45.93 41.97 23.98 31.91 53.96 31.91 9.958 25.91 35.97 53.96 41.97 27.94 34.95 33.94
2.45 53.96 35.97 65.95 57.92 47.96 55.99 57.92 45.93 33.94 44 37.9 69.91 63.91 49.99 50.91 57.92
2.455 63 44 60.97 68.99 68.99 67.98 44 56.9 66.96 52.94 27.94 72.96 80.98 56.9 50.91 69.91
2.46 49.99 49.99 67.98 82.92 71.94 74.99 37.9 66.96 78.95 70.93 27.94 83.93 90.94 40.95 60.97 81.9
2.465 44.91 38.92 63 74.99 52.94 73.97 33.94 61.98 75.9 69.91 21.95 84.95 79.97 25.91 60.97 82.92
2.47 25 10.97 36.99 61.98 28.96 44.91 23.98 60.97 63 21.95 17.99 75.9 49.99 1.931 52.94 68.99
2.475 6.91 0 32.92 55.99 10.97 19.92 23.98 58.94 32.92 1.931 29.98 74.99 30.99 -10.06 56.9 49.99
2.48 9.958 -12.09 25.91 35.97 0.9145 15.95 25.91 44.91 6.91 0.9145 25.91 63.91 10.97 -15.04 58.94 32.92
2.485 11.99 -13.01 21.95 37.9 0 16.97 31.91 39.93 -3.048 -1.016 21.95 63.91 7.926 -5.081 60.97 27.94
2.49 5.995 -9.043 21.95 44 13.92 27.94 33.94 37.9 -7.011 15.95 23.98 69.91 15.95 7.926 60.97 29.98
2.495 10.97 -22.05 -2.032 23.98 22.96 41.97 7.926 16.97 4.979 36.99 5.995 52.94 28.96 14.94 46.94 41.97
2.5 18.9 -32.01 -14.02 20.93 40.95 51.92 -3.048 11.99 21.95 33.94 -3.048 40.95 55.99 21.95 40.95 68.99
2.505 21.95 -17.07 0 32.92 53.96 58.94 -2.032 18.9 34.95 40.95 3.963 41.97 84.95 28.96 34.95 84.95
2.51 27.94 1.931 15.95 37.9 61.98 80.98 7.926 27.94 61.98 61.98 9.958 41.97 103.9 35.97 22.96 97.95
2.515 46.94 26.93 36.99 63 78.95 91.96 29.98 44 88 67.98 3.963 46.94 113.9 41.97 20.93 98.97
2.52 49.99 35.97 45.93 79.97 75.9 75.9 38.92 55.99 93.99 52.94 12.9 37.9 93.99 40.95 -1.016 69.91
2.525 36.99 15.95 26.93 60.97 60.97 59.95 17.99 54.97 84.95 41.97 9.958 23.98 63.91 21.95 -9.043 48.98
2.53 17.99 -9.043 19.92 51.92 47.96 47.96 12.9 55.99 59.95 33.94 -1.016 26.93 50.91 1.931 0.9145 44
2.535 0 -24.08 27.94 50.91 23.98 45.93 22.96 53.96 29.98 19.92 18.9 44 41.97 -2.032 25 37.9
2.54 -11.08 -29.06 23.98 44 11.99 60.97 27.94 59.95 31.91 29.98 30.99 69.91 49.99 -2.032 56.9 54.97
2.545 -18.09 -39.02 14.94 34.95 6.91 63 28.96 50.91 32.92 25 10.97 81.9 50.91 -10.06 82.92 65.95
2.55 -25.1 -48.06 -1.016 12.9 -9.043 42.98 3.963 27.94 12.9 1.931 3.963 63.91 25.91 -19 70.93 44.91
2.555 -18.09 -41.05 -4.064 0 -16.05 35.97 -19 10.97 1.931 -7.011 5.995 53.96 15.95 -15.04 60.97 44.91
2.56 0 -27.03 -4.064 1.931 -4.064 23.98 -14.02 8.942 -2.032 -9.043 1.931 46.94 8.942 -11.08 63 37.9
2.565 14.94 -4.064 0 19.92 2.947 11.99 1.931 18.9 -4.064 -10.06 6.91 51.92 -2.032 1.931 54.97 18.9
2.57 37.9 20.93 31.91 47.96 30.99 18.9 23.98 55.99 7.926 1.931 25 68.99 9.958 16.97 60.97 23.98
2.575 44.91 30.99 53.96 75.9 50.91 21.95 49.99 82.92 26.93 6.91 14.94 77.94 17.99 15.95 60.97 20.93
2.58 38.92 19.92 46.94 73.97 46.94 21.95 38.92 74.99 28.96 13.92 0.9145 60.97 12.9 13.92 34.95 9.958
2.585 34.95 7.926 36.99 46.94 42.98 37.9 11.99 40.95 26.93 27.94 1.931 41.97 11.99 29.98 14.94 10.97
2.59 19.92 -16.05 1.931 8.942 27.94 36.99 -3.048 1.931 31.91 21.95 -3.048 15.95 3.963 19.92 4.979 4.979
2.595 0.9145 -43.08 -36.07 -20.02 2.947 28.96 -30.08 -30.08 12.9 10.97 -24.08 0.9145 -2.032 -1.016 -5.081 0
2.6 -5.081 -51.01 -37.09 -39.02 -1.016 30.99 -35.06 -43.08 0.9145 5.995 -30.08 -9.043 1.931 -3.048 -7.011 2.947
2.605 -11.08 -46.03 -23.07 -38 -13.01 25.91 -32.01 -49.08 -7.011 -5.081 -38 -19 5.995 -13.01 -17.07 3.963
2.61 -11.08 -35.06 -25.1 -21.03 -11.08 27.94 -38 -43.08 -9.043 1.931 -54.06 -36.07 16.97 -9.043 -41.05 11.99
2.615 0 -23.07 -10.06 -10.06 2.947 49.99 -29.06 -38 0 21.95 -47.05 -55.07 35.97 -2.032 -61.07 25
2.62 -2.032 -23.07 -13.01 -13.01 5.995 45.93 -22.05 -43.08 15.95 16.97 -38 -75.09 33.94 1.931 -81.09 15.95
2.625 4.979 -24.08 -22.05 -16.05 0.9145 33.94 -29.06 -43.08 15.95 19.92 -35.06 -64.02 23.98 1.931 -77.02 10.97
2.63 7.926 -19 -1.016 -15.04 11.99 40.95 -3.048 -33.02 21.95 35.97 -9.043 -31.09 31.91 19.92 -41.05 15.95
2.635 1.931 -23.07 1.931 -12.09 13.92 34.95 7.926 -24.08 36.99 30.99 13.92 1.931 34.95 20.93 -9.043 18.9
2.64 -10.06 -32.01 -14.02 -1.016 12.9 29.98 3.963 -2.032 37.9 31.91 29.98 44.91 44 9.958 25 40.95
2.645 -20.02 -40.04 -4.064 15.95 28.96 47.96 39.93 30.99 38.92 48.98 47.96 88.91 72.96 -1.016 72.96 69.91
2.65 -31.09 -47.05 -2.032 15.95 13.92 47.96 49.99 33.94 39.93 29.98 65.95 95.92 67.98 -13.01 82.92 63.91
2.655 -17.07 -35.06 9.958 19.92 -3.048 34.95 33.94 37.9 31.91 7.926 67.98 93.99 55.99 -9.043 88.91 51.92
2.66 1.931 -18.09 37.9 23.98 1.931 47.96 55.99 40.95 28.96 17.99 67.98 93.99 58.94 0 102.9 56.9
2.665 -2.032 -18.09 28.96 13.92 -4.064 44 47.96 20.93 26.93 12.9 53.96 68.99 44.91 0 76.92 48.98
2.67 1.931 -16.05 10.97 5.995 -10.06 25 19.92 16.97 2.947 1.931 29.98 55.99 21.95 -1.016 63 38.92
2.675 8.942 -12.09 8.942 2.947 2.947 27.94 31.91 17.99 -5.081 19.92 9.958 50.91 17.99 5.995 56.9 32.92
2.68 3.963 -17.07 -2.032 0 0 20.93 9.958 0.9145 -4.064 10.97 0.9145 19.92 1.931 0.9145 16.97 7.926
2.685 8.942 -7.011 -1.016 0 -4.064 1.931 -17.07 -4.064 -10.06 -4.064 -5.081 0 -20.02 2.947 -3.048 -9.043
2.69 13.92 -1.016 9.958 -2.032 -5.081 1.931 -3.048 -9.043 -11.08 0.9145 -11.08 -7.011 -19 3.963 -9.043 -11.08
2.695 1.931 -3.048 7.926 0 -9.043 5.995 -9.043 -17.07 -7.011 -1.016 -23.07 -21.03 -21.03 -1.016 -29.06 -17.07
2.7 1.931 1.931 12.9 4.979 -9.043 -1.016 -15.04 -9.043 -13.01 -2.032 -29.06 -28.04 -30.08 0 -41.05 -33.02
2.705 11.99 2.947 20.93 14.94 1.931 -6.097 1.931 0.9145 -9.043 0.9145 -27.03 -19 -27.03 2.947 -35.06 -33.02
2.71 26.93 13.92 27.94 23.98 19.92 -2.032 7.926 2.947 -2.032 4.979 -13.01 -14.02 -12.09 8.942 -39.02 -25.1
2.715 33.94 23.98 52.94 37.9 33.94 0.9145 21.95 12.9 7.926 15.95 0.9145 -5.081 0.9145 21.95 -33.02 -17.07
2.72 40.95 26.93 55.99 44.91 39.93 3.963 41.97 28.96 15.95 10.97 5.995 2.947 8.942 27.94 -25.1 -7.011
2.725 44 18.9 38.92 37.9 40.95 18.9 27.94 32.92 25.91 11.99 4.979 0 21.95 27.94 -23.07 0.9145
2.73 35.97 9.958 25.91 23.98 39.93 30.99 13.92 27.94 31.91 23.98 -1.016 -5.081 25.91 25.91 -33.02 3.963
2.735 44 3.963 3.963 15.95 37.9 47.96 3.963 19.92 35.97 17.99 -13.01 -7.011 37.9 21.95 -33.02 19.92
2.74 50.91 12.9 2.947 8.942 37.9 59.95 -13.01 4.979 41.97 32.92 -9.043 -12.09 50.91 21.95 -27.03 44
2.745 26.93 11.99 16.97 7.926 29.98 51.92 -11.08 0 47.96 46.94 -8.027 -18.09 44.91 14.94 -23.07 47.96
2.75 1.931 0 17.99 14.94 18.9 37.9 -7.011 0 35.97 15.95 -16.05 -15.04 29.98 0.9145 -11.08 44.91
2.755 5.995 -13.01 13.92 5.995 13.92 36.99 -19 -5.081 19.92 19.92 -11.08 -9.043 25.91 1.931 4.979 44
2.76 10.97 -21.03 15.95 -3.048 9.958 45.93 -5.081 -12.09 19.92 30.99 -1.016 -4.064 25 8.942 8.942 33.94
2.765 14.94 -21.03 12.9 -4.064 16.97 44 13.92 -5.081 21.95 9.958 14.94 8.942 28.96 2.947 22.96 32.92
2.77 29.98 -10.06 20.93 1.931 25.91 40.95 26.93 4.979 26.93 13.92 36.99 26.93 27.94 6.91 34.95 35.97
2.775 23.98 2.947 35.97 5.995 23.98 21.95 44 20.93 37.9 2.947 44.91 34.95 7.926 0 26.93 17.99
2.78 12.9 8.942 37.9 27.94 23.98 1.931 56.9 44 25 -29.06 38.92 42.98 -2.032 -17.07 26.93 11.99
2.785 25.91 10.97 45.93 34.95 17.99 1.931 56.9 53.96 1.931 -26.01 39.93 48.98 -4.064 -19 34.95 12.9
2.79 23.98 7.926 44.91 26.93 3.963 2.947 48.98 47.96 -2.032 -18.09 37.9 41.97 -7.011 -10.06 25 5.995
2.795 8.942 -3.048 32.92 19.92 3.963 9.958 41.97 37.9 1.931 -14.02 36.99 35.97 -1.016 -11.08 22.96 8.942
2.8 0 -22.05 18.9 0.9145 -2.032 16.97 20.93 14.94 0 5.995 30.99 20.93 0 0.9145 14.94 15.95
2.805 -9.043 -38 -9.043 -21.03 -12.09 4.979 -11.08 -9.043 0 0.9145 12.9 -1.016 -10.06 -4.064 -5.081 -2.032
2.81 -26.01 -49.08 -28.04 -41.05 -13.01 0 -14.02 -22.05 -7.011 -5.081 1.931 -14.02 -16.05 -24.08 -19 -12.09
2.815 -14.02 -36.07 -14.02 -39.02 -20.02 2.947 -11.08 -23.07 -30.08 1.931 -3.048 -20.02 -17.07 -22.05 -27.03 -13.01
2.82 -1.016 -19 -6.097 -31.09 -23.07 -6.097 -16.05 -20.02 -35.06 -17.07 -11.08 -36.07 -46.03 -22.05 -45.01 -42.07
2.825 9.958 0 3.963 -17.07 -12.09 -34.04 -3.048 -21.03 -45.01 -34.04 -10.06 -51.01 -64.02 -26.01 -65.03 -54.06
2.83 27.94 14.94 28.96 -18.09 -13.01 -46.03 -1.016 -28.04 -60.05 -37.09 -4.064 -74.08 -77.02 -9.043 -85.05 -63.1
2.835 34.95 19.92 16.97 -27.03 -19 -59.04 -15.04 -37.09 -56.09 -54.06 -20.02 -103 -92.06 -5.081 -117.1 -86.07
2.84 17.99 0 -1.016 -38 -17.07 -56.09 -18.09 -49.08 -52.03 -48.06 -29.06 -103 -73.06 -16.05 -117.1 -75.09
2.845 7.926 -6.097 -3.048 -38 -19 -17.07 -18.09 -53.04 -41.05 -24.08 -9.043 -80.07 -40.04 -5.081 -91.04 -36.07
2.85 -4.064 -22.05 -13.01 -35.06 -13.01 4.979 -16.05 -37.09 -20.02 -9.043 -1.016 -48.06 -10.06 0.9145 -49.08 -3.048
2.855 -13.01 -36.07 -9.043 -29.06 -5.081 17.99 0.9145 -22.05 -1.016 8.942 18.9 -12.09 11.99 -15.04 -3.048 23.98
2.86 -11.08 -42.07 0 -28.04 -11.08 22.96 0.9145 -16.05 -2.032 17.99 32.92 0.9145 19.92 -16.05 18.9 33.94
2.865 -18.09 -49.08 -6.097 -42.07 -26.01 -1.016 -5.081 -19 -13.01 -3.048 20.93 -1.016 2.947 -32.01 26.93 25
2.87 -26.01 -47.05 -5.081 -43.08 -37.09 -22.05 -5.081 -30.08 -31.09 -16.05 16.97 0.9145 -4.064 -52.03 32.92 15.95
2.875 -25.1 -31.09 5.995 -27.03 -31.09 -8.027 -5.081 -23.07 -35.06 -27.03 25.91 5.995 -1.016 -39.02 36.99 21.95
2.88 -9.043 1.931 33.94 -6.097 -8.027 3.963 9.958 0 -19 -27.03 30.99 13.92 3.963 -14.02 40.95 32.92
2.885 20.93 31.91 63 19.92 15.95 19.92 35.97 16.97 3.963 -1.016 34.95 27.94 18.9 0.9145 42.98 37.9
2.89 34.95 36.99 63 38.92 37.9 23.98 33.94 38.92 27.94 16.97 31.91 28.96 22.96 17.99 40.95 39.93
2.895 21.95 25.91 44 25.91 37.9 0.9145 27.94 35.97 31.91 3.963 25.91 25.91 7.926 5.995 32.92 25.91
2.9 7.926 19.92 33.94 15.95 21.95 -2.032 35.97 33.94 21.95 3.963 41.97 39.93 7.926 -1.016 42.98 21.95
2.905 -3.048 0.9145 18.9 11.99 10.97 -1.016 33.94 38.92 17.99 1.931 46.94 47.96 9.958 -5.081 58.94 18.9
2.91 -14.02 -2.032 16.97 -2.032 0.9145 -3.048 27.94 26.93 7.926 -12.09 35.97 36.99 -2.032 -13.01 46.94 -2.032
2.915 0.9145 0 32.92 -3.048 -5.081 0 41.97 16.97 0.9145 -3.048 36.99 23.98 -9.043 -9.043 30.99 -15.04
2.92 1.931 -3.048 15.95 0.9145 -7.011 -14.02 25.91 8.942 -1.016 -10.06 14.94 -8.027 -36.07 -18.09 0.9145 -41.05
2.925 -15.04 -14.02 -6.097 -26.01 -23.07 -68.08 -9.043 -23.07 -25.1 -55.07 -13.01 -67.06 -85.05 -40.04 -59.04 -89.01
2.93 -8.027 -16.05 -12.09 -40.04 -27.03 -69.1 -17.07 -51.01 -53.04 -56.09 -25.1 -94.09 -94.09 -40.04 -91.04 -103
2.935 -1.016 -27.03 -19 -41.05 -21.03 -59.04 -27.03 -63.1 -57 -47.05 -41.05 -115 -89.01 -29.06 -103 -95.01
2.94 -2.032 -21.03 -17.07 -43.08 -9.043 -55.07 -47.05 -69.1 -51.01 -41.05 -53.04 -129 -83.02 -19 -121 -89.01
2.945 14.94 -4.064 6.91 -19 14.94 -14.02 -21.03 -42.07 -28.04 -1.016 -29.06 -96.02 -36.07 -1.016 -93.08 -44.1
2.95 18.9 0 16.97 0.9145 34.95 0 -5.081 -14.02 4.979 12.9 -11.08 -69.1 -4.064 4.979 -61.07 -9.043
2.955 5.995 0.9145 9.958 5.995 39.93 -15.04 -19 -3.048 17.99 -4.064 -9.043 -62.09 -16.05 -1.016 -61.07 -12.09
2.96 -3.048 -11.08 3.963 1.931 37.9 -8.027 -5.081 0.9145 10.97 1.931 -5.081 -37.09 -11.08 -8.027 -39.02 -1.016
2.965 -10.06 -20.02 -1.016 -1.016 20.93 -7.011 0 0.9145 4.979 -3.048 -3.048 -22.05 -21.03 -13.01 -15.04 -4.064
2.97 -15.04 -9.043 1.931 -2.032 3.963 -17.07 0 1.931 -1.016 -9.043 0.9145 -15.04 -31.09 -6.097 -7.011 -15.04
2.975 -3.048 0.9145 17.99 6.91 15.95 6.91 9.958 13.92 5.995 13.92 1.931 13.92 -1.016 0.9145 20.93 1.931
2.98 1.931 3.963 27.94 11.99 19.92 11.99 17.99 11.99 19.92 1.931 -1.016 21.95 7.926 -3.048 36.99 11.99
2.985 0.9145 -1.016 18.9 11.99 22.96 1.931 -2.032 16.97 18.9 -7.011 -5.081 16.97 7.926 -4.064 28.96 14.94
2.99 1.931 -4.064 9.958 11.99 37.9 21.95 -1.016 25 19.92 12.9 -5.081 34.95 36.99 0 44.91 44.91
2.995 0 0.9145 2.947 1.931 28.96 31.91 -1.016 7.926 26.93 18.9 -2.032 35.97 48.98 -1.016 44.91 61.98
3 -5.081 3.963 1.931 -2.032 17.99 28.96 7.926 7.926 23.98 21.95 17.99 33.94 47.96 0 36.99 59.95
3.005 0.9145 6.91 13.92 5.995 25.91 35.97 19.92 22.96 27.94 32.92 25.91 42.98 56.9 0.9145 44.91 68.99
3.01 -12.09 0 4.979 4.979 14.94 12.9 18.9 14.94 27.94 7.926 13.92 25 33.94 -14.02 28.96 41.97
3.015 -25.1 -11.08 -3.048 0.9145 -1.016 0.9145 3.963 14.94 4.979 0 8.942 5.995 2.947 -12.09 2.947 7.926
3.02 -19 -9.043 0.9145 5.995 -1.016 6.91 0.9145 22.96 -1.016 12.9 2.947 -2.032 -1.016 -3.048 -9.043 -4.064
3.025 -27.03 -4.064 -11.08 -3.048 -13.01 -13.01 -5.081 0.9145 -11.08 0 -4.064 -28.04 -34.04 -15.04 -37.09 -37.09
3.03 -21.03 1.931 -3.048 -21.03 -36.07 -28.04 0.9145 -11.08 -43.08 -12.09 0.9145 -59.04 -72.04 -8.027 -67.06 -74.08
3.035 -10.06 7.926 4.979 -9.043 -34.04 -33.02 3.963 -8.027 -60.05 -30.08 -3.048 -69.1 -90.03 -12.09 -73.06 -92.06
3.04 -33.02 1.931 -1.016 -18.09 -44.1 -67.06 -9.043 -17.07 -77.02 -60.05 -16.05 -88.1 -118.1 -34.04 -83.02 -112.1
3.045 -45.01 -3.048 -11.08 -37.09 -59.04 -68.08 -15.04 -32.01 -104.1 -57 -12.09 -89.01 -124.1 -32.01 -95.01 -121
3.05 -37.09 -4.064 -1.016 -20.02 -43.08 -42.07 1.931 -16.05 -90.03 -27.03 -3.048 -64.02 -87.08 -23.07 -83.02 -90.03
3.055 -39.02 -6.097 -6.097 -19 -37.09 -25.1 -1.016 -19 -55.07 -20.02 0.9145 -45.01 -50.09 -25.1 -57 -55.07
3.06 -27.03 -1.016 0 -30.08 -36.07 6.91 4.979 -27.03 -38 -2.032 21.95 -20.02 -10.06 -1.016 -33.02 -18.09
3.065 -21.03 -6.097 12.9 -13.01 -11.08 35.97 21.95 0.9145 -1.016 16.97 36.99 7.926 28.96 13.92 2.947 23.98
3.07 -45.01 -22.05 0.9145 -16.05 -9.043 20.93 4.979 -1.016 8.942 15.95 33.94 22.96 37.9 1.931 30.99 44.91
3.075 -51.01 -39.02 -13.01 -29.06 -15.04 16.97 -2.032 1.931 -4.064 15.95 32.92 27.94 30.99 2.947 36.99 47.96
3.08 -57 -52.03 -21.03 -18.09 -6.097 13.92 3.963 11.99 -1.016 18.9 16.97 36.99 36.99 0 56.9 58.94
3.085 -80.07 -55.07 -32.01 -37.09 -28.04 0.9145 -13.01 -8.027 -14.02 -4.064 7.926 31.91 14.94 -18.09 60.97 46.94
3.09 -79.05 -50.09 -29.06 -67.06 -54.06 -2.032 -15.04 -41.05 -43.08 -26.01 9.958 13.92 -8.027 -16.05 36.99 20.93
3.095 -77.02 -58.02 -23.07 -57 -53.04 -1.016 0 -34.04 -49.08 -21.03 10.97 10.97 -6.097 -17.07 40.95 23.98
3.1 -89.01 -67.06 -15.04 -47.05 -58.02 -8.027 0 -32.01 -49.08 -16.05 18.9 11.99 -5.081 -25.1 42.98 20.93
3.105 -93.08 -63.1 -11.08 -41.05 -55.07 0 3.963 -24.08 -48.06 -9.043 22.96 13.92 1.931 -18.09 32.92 19.92
3.11 -82 -52.03 0 -16.05 -28.04 16.97 16.97 2.947 -21.03 9.958 23.98 26.93 29.98 -6.097 44.91 49.99
3.115 -63.1 -24.08 11.99 -7.011 -11.08 25.91 13.92 8.942 -2.032 25 27.94 34.95 44.91 8.942 44.91 60.97
3.12 -23.07 1.931 19.92 -2.032 1.931 36.99 17.99 9.958 11.99 35.97 31.91 29.98 44 31.91 16.97 51.92
3.125 18.9 25.91 36.99 27.94 42.98 49.99 46.94 37.9 34.95 58.94 39.93 37.9 64.93 53.96 28.96 63.91
3.13 25.91 40.95 59.95 51.92 63.91 35.97 55.99 46.94 57.92 66.96 39.93 40.95 64.93 63 36.99 54.97
3.135 14.94 46.94 60.97 47.96 63 32.92 47.96 42.98 64.93 53.96 29.98 30.99 49.99 63 10.97 22.96
3.14 29.98 49.99 65.95 51.92 65.95 37.9 55.99 53.96 57.92 47.96 29.98 33.94 45.93 63.91 14.94 13.92
3.145 37.9 44 57.92 52.94 61.98 20.93 51.92 53.96 51.92 41.97 23.98 35.97 28.96 55.99 10.97 0.9145
3.15 29.98 37.9 33.94 38.92 49.99 1.931 28.96 45.93 30.99 31.91 9.958 23.98 0.9145 44.91 -11.08 -27.03
3.155 34.95 36.99 34.95 35.97 48.98 3.963 27.94 41.97 4.979 31.91 15.95 16.97 -13.01 47.96 -5.081 -34.04
3.16 9.958 23.98 25.91 21.95 29.98 -6.097 19.92 20.93 -2.032 9.958 11.99 5.995 -31.09 30.99 -9.043 -37.09
3.165 -13.01 4.979 7.926 0.9145 3.963 -5.081 3.963 -5.081 -19 0.9145 1.931 -4.064 -38 11.99 -25.1 -36.07
3.17 1.931 1.931 16.97 -4.064 2.947 29.98 19.92 -10.06 -26.01 22.96 17.99 5.995 -2.032 28.96 -3.048 -2.032
3.175 -4.064 -8.027 0.9145 -3.048 8.942 44.91 15.95 -12.09 0 32.92 13.92 14.94 22.96 20.93 8.942 30.99
3.18 -45.01 -35.06 -23.07 -21.03 -1.016 25.91 -13.01 -27.03 7.926 33.94 -5.081 0 25.91 -1.016 0.9145 29.98
3.185 -43.08 -37.09 -17.07 -23.07 -7.011 19.92 -21.03 -31.09 -2.032 25.91 -2.032 0.9145 25.91 -2.032 -1.016 25.91
3.19 -32.01 -32.01 -20.02 -22.05 -15.04 4.979 -19 -24.08 0.9145 -4.064 0.9145 1.931 12.9 -3.048 0.9145 17.99
3.195 -38 -28.04 -20.02 -20.02 -27.03 -1.016 -19 -17.07 -5.081 -22.05 -13.01 -2.032 -1.016 -18.09 -5.081 7.926
3.2 -27.03 -19 -2.032 -9.043 -20.02 8.942 -2.032 -6.097 -14.02 -11.08 -1.016 1.931 1.931 -5.081 -1.016 8.942
3.205 -41.05 -27.03 -19 -17.07 -22.05 4.979 -2.032 -3.048 -12.09 -16.05 4.979 2.947 -1.016 -17.07 4.979 2.947
3.21 -64.02 -40.04 -35.06 -32.01 -31.09 -10.06 -21.03 -10.06 -15.04 -16.05 -4.064 0 -8.027 -37.09 -1.016 -4.064
3.215 -43.08 -44.1 -27.03 -38 -30.08 -13.01 -24.08 -27.03 -32.01 -14.02 2.947 -8.027 -22.05 -16.05 -7.011 -18.09
3.22 -11.08 -33.02 -23.07 -43.08 -25.1 -18.09 -21.03 -37.09 -39.02 -21.03 1.931 -17.07 -33.02 -2.032 -21.03 -31.09
3.225 -11.08 -19 -9.043 -37.09 -17.07 -35.06 -21.03 -41.05 -37.09 -23.07 -15.04 -37.09 -45.01 -13.01 -33.02 -41.05
3.23 -4.064 -12.09 1.931 -30.08 -21.03 -40.04 -27.03 -48.06 -41.05 -22.05 -16.05 -52.03 -56.09 -5.081 -51.01 -58.02
3.235 1.931 -2.032 -8.027 -21.03 -14.02 -21.03 -22.05 -38 -36.07 -13.01 -8.027 -49.08 -45.01 1.931 -51.01 -54.06
3.24 2.947 14.94 2.947 -2.032 -1.016 -2.032 -2.032 -13.01 -14.02 3.963 -3.048 -30.08 -13.01 7.926 -35.06 -23.07
3.245 15.95 15.95 15.95 5.995 7.926 14.94 3.963 -3.048 -1.016 13.92 5.995 -13.01 0 26.93 -27.03 -7.011
3.25 37.9 25.91 16.97 17.99 28.96 39.93 10.97 4.979 8.942 31.91 16.97 1.931 19.92 49.99 -11.08 6.91
3.255 34.95 29.98 21.95 25 46.94 42.98 18.9 12.9 25 45.93 11.99 13.92 27.94 44.91 -3.048 11.99
3.26 42.98 23.98 12.9 18.9 41.97 33.94 7.926 2.947 25.91 37.9 5.995 6.91 11.99 41.97 -13.01 -1.016
3.265 56.9 25 4.979 16.97 44.91 36.99 1.931 10.97 23.98 34.95 9.958 17.99 16.97 44 -3.048 1.931
3.27 38.92 25.91 18.9 22.96 46.94 35.97 15.95 26.93 30.99 33.94 2.947 19.92 19.92 25.91 -1.016 1.931
3.275 10.97 6.91 17.99 9.958 25 16.97 9.958 19.92 18.9 5.995 -2.032 4.979 0 14.94 -9.043 -4.064
3.28 0.9145 -2.032 7.926 0 12.9 7.926 -12.09 3.963 10.97 0.9145 -15.04 -2.032 -3.048 9.958 -11.08 -5.081
3.285 -14.02 -12.09 8.942 -5.081 5.995 7.926 -7.011 -8.027 0 12.9 -17.07 -10.06 -6.097 -1.016 -19 -12.09
3.29 -16.05 -11.08 8.942 -20.02 -11.08 19.92 0 -26.01 -7.011 11.99 -7.011 -8.027 -13.01 -2.032 -17.07 -13.01
3.295 -10.06 -10.06 7.926 -16.05 -11.08 29.98 0.9145 -11.08 -6.097 15.95 8.942 8.942 1.931 4.979 6.91 3.963
3.3 -11.08 -9.043 12.9 -3.048 -2.032 28.96 14.94 9.958 0 25 29.98 37.9 16.97 1.931 22.96 20.93
3.305 -7.011 -7.011 10.97 -4.064 -3.048 11.99 27.94 23.98 0.9145 7.926 45.93 53.96 16.97 11.99 38.92 23.98
3.31 3.963 0.9145 6.91 3.963 10.97 0.9145 14.94 39.93 18.9 0.9145 44 69.91 25 29.98 56.9 30.99
3.315 20.93 12.9 31.91 32.92 41.97 0 33.94 61.98 36.99 19.92 38.92 80.98 39.93 32.92 63 37.9
3.32 28.96 27.94 44.91 38.92 44 7.926 41.97 63 47.96 19.92 37.9 78.95 39.93 29.98 56.9 37.9
3.325 16.97 22.96 30.99 37.9 37.9 3.963 25.91 54.97 49.99 12.9 21.95 60.97 34.95 12.9 46.94 40.95
3.33 5.995 2.947 25.91 29.98 25 5.995 26.93 41.97 36.99 9.958 5.995 44.91 31.91 -3.048 32.92 39.93
3.335 -8.027 -10.06 11.99 -2.032 -6.097 10.97 21.95 19.92 14.94 -7.011 2.947 30.99 17.99 -16.05 16.97 20.93
3.34 -26.01 -27.03 -10.06 -20.02 -34.04 7.926 5.995 2.947 -2.032 -21.03 -4.064 11.99 3.963 -33.02 4.979 9.958
3.345 -40.04 -44.1 -16.05 -24.08 -44.1 2.947 1.931 -1.016 -25.1 -22.05 -5.081 13.92 1.931 -49.08 12.9 10.97
3.35 -54.06 -49.08 -26.01 -46.03 -69.1 0.9145 -15.04 -18.09 -43.08 -37.09 -3.048 4.979 -23.07 -57 6.91 -3.048
3.355 -56.09 -53.04 -41.05 -60.05 -86.07 -12.09 -22.05 -42.07 -66.05 -47.05 -11.08 -7.011 -47.05 -52.03 -1.016 -27.03
3.36 -49.08 -57 -32.01 -49.08 -76.01 -15.04 -18.09 -39.02 -76.01 -43.08 -14.02 -9.043 -51.01 -45.01 2.947 -28.04
3.365 -51.01 -61.07 -29.06 -55.07 -73.06 -24.08 -35.06 -43.08 -73.06 -49.08 -21.03 -21.03 -59.04 -40.04 -7.011 -39.02
3.37 -30.08 -50.09 -38 -56.09 -56.09 -16.05 -28.04 -39.02 -58.02 -31.09 -23.07 -26.01 -49.08 -21.03 -15.04 -34.04
3.375 -25.1 -39.02 -38 -43.08 -32.01 1.931 -14.02 -24.08 -34.04 -3.048 -26.01 -15.04 -19 -7.011 -1.016 -10.06
3.38 -40.04 -48.06 -51.01 -60.05 -37.09 0 -43.08 -40.04 -15.04 -12.09 -40.04 -26.01 -18.09 -17.07 -13.01 -14.02
3.385 -29.06 -39.02 -55.07 -67.06 -33.02 -7.011 -45.01 -53.04 -23.07 -17.07 -39.02 -33.02 -21.03 -15.04 -37.09 -21.03
3.39 -23.07 -21.03 -31.09 -41.05 -15.04 -1.016 -23.07 -37.09 -21.03 -9.043 -23.07 -13.01 -3.048 -12.09 -11.08 0.9145
3.395 -29.06 -22.05 -19 -30.08 -12.09 -5.081 -28.04 -33.02 -12.09 -24.08 -16.05 -10.06 -6.097 -22.05 -1.016 -1.016
3.4 -10.06 -16.05 -5.081 -22.05 -13.01 -8.027 -11.08 -30.08 -19 -22.05 -2.032 -4.064 1.931 -21.03 0.9145 2.947
3.405 -17.07 -21.03 -5.081 -15.04 -18.09 -1.016 10.97 -21.03 -16.05 -14.02 -1.016 6.91 10.97 -31.09 32.92 14.94
3.41 -41.05 -41.05 -26.01 -33.02 -38 -12.09 -8.027 -28.04 -14.02 -37.09 -4.064 0 -5.081 -51.01 22.96 6.91
3.415 -30.08 -42.07 -26.01 -38 -45.01 -15.04 -15.04 -27.03 -31.09 -44.1 3.963 0.9145 -14.02 -48.06 10.97 -1.016
3.42 -20.02 -18.09 -20.02 -26.01 -35.06 1.931 5.995 -8.027 -29.06 -28.04 11.99 12.9 -10.06 -31.09 26.93 -2.032
3.425 -27.03 -17.07 -27.03 -25.1 -29.06 -7.011 1.931 -5.081 -17.07 -27.03 1.931 3.963 -31.09 -25.1 18.9 -9.043
3.43 -19 -27.03 -21.03 -23.07 -23.07 -23.07 -5.081 -13.01 -25.1 -17.07 -15.04 -13.01 -43.08 -15.04 -7.011 -33.02
3.435 -17.07 -23.07 -29.06 -34.04 -21.03 -11.08 -17.07 -32.01 -36.07 -2.032 -37.09 -33.02 -42.07 -8.027 -23.07 -47.05
3.44 -17.07 -19 -33.02 -48.06 -27.03 -10.06 -45.01 -53.04 -34.04 1.931 -47.05 -49.08 -48.06 -10.06 -35.06 -49.08
3.445 -2.032 -16.05 -18.09 -49.08 -27.03 -11.08 -57 -56.09 -35.06 -3.048 -47.05 -53.04 -42.07 -1.016 -41.05 -47.05
3.45 2.947 1.931 -24.08 -48.06 -18.09 2.947 -45.01 -55.07 -27.03 -5.081 -37.09 -42.07 -21.03 0 -33.02 -31.09
3.455 5.995 -2.032 -15.04 -38 -5.081 5.995 -33.02 -30.08 0 1.931 -25.1 -17.07 -2.032 1.931 -11.08 -3.048
3.46 4.979 -14.02 0 -10.06 4.979 -6.097 -27.03 -2.032 3.963 -1.016 -27.03 0.9145 5.995 -3.048 -1.016 9.958
3.465 11.99 -7.011 -3.048 -7.011 11.99 -1.016 -11.08 3.963 0 -2.032 -19 11.99 11.99 0.9145 6.91 17.99
3.47 25.91 9.958 9.958 0 11.99 7.926 1.931 13.92 9.958 7.926 0 29.98 3.963 3.963 30.99 23.98
3.475 17.99 1.931 15.95 14.94 3.963 -11.08 1.931 16.97 12.9 -8.027 0.9145 29.98 -16.05 1.931 28.96 3.963
3.48 4.979 1.931 -1.016 -5.081 -11.08 -23.07 -2.032 -4.064 -7.011 -27.03 -3.048 7.926 -47.05 -7.011 6.91 -29.06
3.485 1.931 -1.016 1.931 -15.04 -24.08 -23.07 0 -11.08 -30.08 -34.04 0 4.979 -57 -26.01 4.979 -39.02
3.49 -17.07 -11.08 0.9145 -11.08 -35.06 -22.05 -1.016 -3.048 -41.05 -41.05 -9.043 0 -47.05 -37.09 6.91 -35.06
3.495 -16.05 -8.027 -6.097 -29.06 -45.01 0.9145 0.9145 -14.02 -43.08 -25.1 -13.01 -3.048 -26.01 -31.09 -1.016 -27.03
3.5 -2.032 1.931 -4.064 -29.06 -38 12.9 0 -8.027 -24.08 -18.09 -4.064 6.91 -1.016 -30.08 12.9 -2.032
3.505 -7.011 -13.01 -10.06 -9.043 -23.07 2.947 -10.06 2.947 -3.048 -30.08 -15.04 20.93 18.9 -32.01 32.92 26.93
3.51 0.9145 -13.01 -10.06 -11.08 -15.04 1.931 -15.04 8.942 0 -23.07 -14.02 28.96 22.96 -23.07 34.95 32.92
3.515 20.93 4.979 -1.016 -4.064 -7.011 4.979 -2.032 20.93 0 -16.05 -1.016 47.96 28.96 -17.07 50.91 38.92
3.52 9.958 6.91 -2.032 0.9145 -3.048 2.947 -4.064 30.99 3.963 -20.02 2.947 51.92 21.95 -20.02 63 35.97
3.525 -4.064 1.931 -9.043 -9.043 -23.07 -8.027 -4.064 17.99 -4.064 -23.07 4.979 35.97 0.9145 -30.08 46.94 9.958
3.53 -18.09 -11.08 -14.02 -33.02 -51.01 -22.05 -1.016 1.931 -25.1 -39.02 5.995 17.99 -20.02 -49.08 42.98 0
3.535 -41.05 -31.09 -22.05 -41.05 -66.05 -16.05 -12.09 -8.027 -45.01 -38 -3.048 6.91 -30.08 -54.06 34.95 -10.06
3.54 -41.05 -36.07 -28.04 -53.04 -78.04 -7.011 -19 -13.01 -49.08 -13.01 -10.06 -8.027 -35.06 -37.09 8.942 -23.07
3.545 -26.01 -26.01 -44.1 -72.04 -83.02 -7.011 -21.03 -31.09 -48.06 -1.016 -20.02 -32.01 -49.08 -21.03 -11.08 -46.03
3.55 -32.01 -34.04 -71.03 -69.1 -64.02 -8.027 -41.05 -33.02 -38 1.931 -42.07 -50.09 -61.07 -15.04 -29.06 -65.03
3.555 -32.01 -40.04 -86.07 -60.05 -45.01 -35.06 -47.05 -35.06 -34.04 -16.05 -54.06 -62.09 -73.06 -23.07 -41.05 -80.07
3.56 -15.04 -30.08 -76.01 -59.04 -42.07 -43.08 -47.05 -43.08 -51.01 -31.09 -48.06 -58.02 -81.09 -17.07 -47.05 -95.01
3.565 -11.08 -19 -58.02 -49.08 -18.09 -26.01 -38 -34.04 -45.01 -16.05 -39.02 -38 -66.05 -8.027 -35.06 -82
3.57 -4.064 -7.011 -50.09 -27.03 5.995 -12.09 -33.02 -7.011 -15.04 0.9145 -33.02 -21.03 -38 1.931 -23.07 -56.09
3.575 10.97 1.931 -43.08 -11.08 23.98 -2.032 -26.01 1.931 2.947 17.99 -24.08 -3.048 -9.043 20.93 -13.01 -31.09
3.58 17.99 -2.032 -38 -1.016 47.96 10.97 -16.05 26.93 39.93 30.99 -24.08 11.99 23.98 22.96 -1.016 5.995
3.585 8.942 -2.032 -39.02 0.9145 47.96 2.947 -10.06 34.95 57.92 18.9 -30.08 21.95 42.98 1.931 4.979 32.92
3.59 12.9 1.931 -26.01 -7.011 21.95 0 -1.016 22.96 45.93 15.95 -18.09 26.93 42.98 -1.016 6.91 32.92
3.595 13.92 15.95 -26.01 -11.08 13.92 14.94 1.931 22.96 44 26.93 -13.01 20.93 48.98 0 0.9145 40.95
3.6 0 0.9145 -54.06 -23.07 6.91 4.979 -21.03 8.942 46.94 2.947 -31.09 -2.032 34.95 -18.09 -7.011 33.94
3.605 -8.027 -14.02 -66.05 -39.02 -5.081 -5.081 -43.08 -10.06 27.94 -11.08 -45.01 -27.03 17.99 -15.04 -17.07 19.92
3.61 -1.016 -21.03 -61.07 -53.04 -1.016 0 -59.04 -25.1 19.92 -1.016 -65.03 -43.08 9.958 -9.043 -23.07 21.95
3.615 0 -22.05 -70.01 -69.1 -4.064 -7.011 -85.05 -51.01 14.94 0 -89.01 -56.09 -3.048 -12.09 -37.09 3.963
3.62 4.979 -14.02 -52.03 -65.03 -5.081 -27.03 -79.05 -50.09 1.931 -3.048 -87.08 -45.01 -13.01 -7.011 -31.09 -13.01
3.625 21.95 5.995 -33.02 -24.08 11.99 -35.06 -49.08 -16.05 6.91 -4.064 -61.07 -19 -16.05 -10.06 -5.081 -17.07
3.63 9.958 3.963 -45.01 -9.043 3.963 -49.08 -45.01 -7.011 1.931 -33.02 -47.05 -5.081 -35.06 -31.09 6.91 -29.06
3.635 -2.032 -7.011 -39.02 -5.081 -13.01 -70.01 -37.09 -3.048 -17.07 -59.04 -39.02 1.931 -53.04 -49.08 22.96 -43.08
3.64 -1.016 -10.06 -36.07 -2.032 -18.09 -64.02 -33.02 0 -35.06 -51.01 -29.06 6.91 -49.08 -51.01 32.92 -33.02
3.645 -9.043 -31.09 -63.1 -32.01 -39.02 -59.04 -55.07 -14.02 -44.1 -40.04 -43.08 -7.011 -56.09 -54.06 10.97 -37.09
3.65 -10.06 -42.07 -62.09 -46.03 -53.04 -68.08 -41.05 -25.1 -49.08 -53.04 -47.05 -20.02 -61.07 -55.07 -5.081 -45.01
3.655 -4.064 -22.05 -54.06 -37.09 -53.04 -55.07 -21.03 -28.04 -47.05 -57 -31.09 -31.09 -54.06 -53.04 -15.04 -39.02
3.66 -15.04 -21.03 -71.03 -50.09 -63.1 -38 -31.09 -49.08 -44.1 -52.03 -23.07 -57 -56.09 -52.03 -39.02 -39.02
3.665 -25.1 -29.06 -61.07 -58.02 -65.03 -33.02 -27.03 -56.09 -46.03 -52.03 -21.03 -71.03 -54.06 -54.06 -47.05 -33.02
3.67 -25.1 -29.06 -43.08 -39.02 -47.05 -13.01 -19 -41.05 -39.02 -27.03 -9.043 -65.03 -31.09 -47.05 -35.06 -7.011
3.675 -33.02 -43.08 -57 -45.01 -39.02 -1.016 -27.03 -39.02 -29.06 -1.016 -19 -55.07 -19 -43.08 -27.03 0
3.68 -36.07 -50.09 -54.06 -54.06 -41.05 -21.03 -15.04 -40.04 -29.06 -18.09 -25.1 -40.04 -26.01 -46.03 -17.07 -9.043
3.685 -18.09 -34.04 -40.04 -36.07 -29.06 -28.04 -5.081 -23.07 -29.06 -24.08 -9.043 -8.027 -26.01 -42.07 0.9145 -7.011
3.69 0.9145 -25.1 -48.06 -21.03 -14.02 -19 -14.02 0.9145 -17.07 -1.016 -10.06 17.99 -11.08 -22.05 16.97 -1.016
3.695 5.995 -21.03 -35.06 -11.08 -1.016 -14.02 -2.032 17.99 0 0.9145 -10.06 37.9 1.931 -9.043 26.93 12.9
3.7 6.91 -22.05 -25.1 10.97 18.9 -2.032 3.963 42.98 21.95 8.942 -9.043 56.9 26.93 -7.011 36.99 34.95
3.705 -5.081 -28.04 -51.01 10.97 16.97 6.91 -2.032 41.97 27.94 11.99 -20.02 54.97 36.99 -21.03 36.99 46.94
3.71 -15.04 -21.03 -51.01 -7.011 -2.032 -1.016 -3.048 13.92 17.99 -7.011 -17.07 39.93 27.94 -26.01 25 33.94
3.715 -11.08 -17.07 -37.09 -5.081 -1.016 9.958 -5.081 11.99 15.95 -9.043 -9.043 35.97 27.94 -23.07 32.92 35.97
3.72 -10.06 -16.05 -45.01 -8.027 -2.032 15.95 -27.03 8.942 15.95 6.91 -23.07 32.92 30.99 -13.01 34.95 44
3.725 -3.048 -15.04 -40.04 -25.1 -4.064 13.92 -24.08 -8.027 15.95 11.99 -20.02 25.91 23.98 -6.097 18.9 32.92
3.73 -4.064 -22.05 -34.04 -26.01 1.931 7.926 -14.02 -13.01 20.93 10.97 -12.09 14.94 6.91 -8.027 12.9 20.93
3.735 -9.043 -25.1 -47.05 -31.09 -3.048 -8.027 -31.09 -23.07 5.995 1.931 -17.07 -1.016 -7.011 -17.07 0.9145 3.963
3.74 1.931 -15.04 -36.07 -41.05 -12.09 -37.09 -18.09 -46.03 -5.081 -11.08 -2.032 -29.06 -29.06 -16.05 -15.04 -24.08
3.745 -6.097 -9.043 -23.07 -43.08 -15.04 -58.02 -6.097 -51.01 -14.02 -34.04 -3.048 -58.02 -54.06 -27.03 -25.1 -47.05
3.75 -17.07 -13.01 -39.02 -52.03 -29.06 -80.07 -23.07 -65.03 -35.06 -51.01 -30.08 -86.07 -82 -52.03 -43.08 -72.04
3.755 -6.097 1.931 -36.07 -57 -43.08 -89.01 -21.03 -90.03 -53.04 -49.08 -32.01 -102 -100.1 -58.02 -73.06 -91.04
3.76 -9.043 0 -37.09 -52.03 -48.06 -94.09 -16.05 -83.02 -59.04 -65.03 -27.03 -104.1 -116 -77.02 -77.02 -103
3.765 -19 -7.011 -56.09 -52.03 -65.03 -111.1 -32.01 -83.02 -78.04 -87.08 -42.07 -103 -128 -101 -81.09 -110
3.77 -8.027 -12.09 -56.09 -61.07 -77.02 -118.1 -34.04 -83.02 -95.01 -90.03 -51.01 -99.07 -123.1 -93.08 -87.08 -112.1
3.775 -21.03 -27.03 -58.02 -67.06 -79.05 -112.1 -45.01 -77.02 -92.06 -87.08 -68.08 -96.02 -121 -87.08 -89.01 -114
3.78 -35.06 -43.08 -71.03 -82 -83.02 -104.1 -65.03 -87.08 -103 -87.08 -80.07 -96.02 -120 -78.04 -95.01 -108
3.785 -21.03 -42.07 -60.05 -84.03 -83.02 -85.05 -61.07 -88.1 -104.1 -61.07 -73.06 -82 -106.1 -61.07 -89.01 -93.08
3.79 -28.04 -51.01 -58.02 -76.01 -76.01 -68.08 -57 -71.03 -89.01 -47.05 -60.05 -68.08 -93.08 -64.02 -67.06 -72.04
3.795 -52.03 -67.06 -69.1 -78.04 -81.09 -66.05 -57 -74.08 -91.04 -59.04 -57 -64.02 -85.05 -76.01 -55.07 -64.02
3.8 -44.1 -57 -56.09 -72.04 -86.07 -56.09 -37.09 -63.1 -91.04 -45.01 -48.06 -54.06 -67.06 -70.01 -41.05 -48.06
3.805 -37.09 -42.07 -52.03 -54.06 -73.06 -41.05 -29.06 -44.1 -74.08 -25.1 -39.02 -42.07 -50.09 -61.07 -33.02 -33.02
3.81 -23.07 -31.09 -53.04 -50.09 -59.04 -34.04 -21.03 -47.05 -61.07 -17.07 -28.04 -40.04 -40.04 -46.03 -33.02 -32.01
3.815 5.995 -7.011 -34.04 -29.06 -35.06 -14.02 -9.043 -31.09 -36.07 1.931 -18.09 -24.08 -17.07 -25.1 -29.06 -16.05
3.82 16.97 -4.064 -26.01 -2.032 -9.043 -2.032 -8.027 0.9145 0 4.979 -15.04 -9.043 -2.032 -17.07 -15.04 2.947
3.825 5.995 -11.08 -26.01 2.947 -5.081 -11.08 -4.064 0.9145 14.94 0.9145 -20.02 -1.016 -1.016 -19 -13.01 2.947
3.83 17.99 7.926 0 22.96 -1.016 -10.06 4.979 13.92 19.92 9.958 -13.01 18.9 10.97 0 0.9145 17.99
3.835 34.95 26.93 16.97 63.91 23.98 0 5.995 56.9 35.97 39.93 -10.06 48.98 34.95 14.94 38.92 45.93
3.84 41.97 25.91 5.995 60.97 27.94 0.9145 1.931 47.96 39.93 35.97 -24.08 54.97 36.99 14.94 46.94 52.94
3.845 34.95 31.91 3.963 53.96 29.98 0.9145 -6.097 35.97 40.95 32.92 -21.03 44.91 36.99 21.95 34.95 49.99
3.85 19.92 21.95 1.931 59.95 44.91 5.995 -8.027 54.97 49.99 44 -28.04 44 45.93 6.91 40.95 56.9
3.855 5.995 5.995 -13.01 44 37.9 6.91 -5.081 41.97 49.99 39.93 -45.01 27.94 39.93 0.9145 22.96 41.97
3.86 2.947 4.979 -14.02 22.96 29.98 3.963 -4.064 23.98 46.94 48.98 -46.03 8.942 32.92 4.979 0.9145 26.93
3.865 3.963 -1.016 -26.01 17.99 32.92 1.931 -18.09 26.93 47.96 53.96 -52.03 -7.011 33.94 0 -3.048 30.99
3.87 0 -24.08 -43.08 -6.097 12.9 -5.081 -35.06 -2.032 35.97 32.92 -63.1 -42.07 10.97 -21.03 -33.02 11.99
3.875 -17.07 -27.03 -49.08 -33.02 -13.01 -23.07 -41.05 -41.05 3.963 11.99 -55.07 -77.02 -25.1 -29.06 -67.06 -29.06
3.88 -27.03 -23.07 -49.08 -37.09 -15.04 -40.04 -35.06 -39.02 -19 1.931 -45.01 -83.02 -55.07 -42.07 -71.03 -57
3.885 -23.07 -26.01 -47.05 -34.04 -18.09 -52.03 -26.01 -35.06 -45.01 -1.016 -48.06 -72.04 -76.01 -51.01 -65.03 -76.01
3.89 -28.04 -34.04 -51.01 -44.1 -36.07 -73.06 -35.06 -46.03 -59.04 -20.02 -47.05 -68.08 -96.02 -47.05 -65.03 -95.01
3.895 -37.09 -47.05 -65.03 -53.04 -44.1 -84.03 -44.1 -43.08 -61.07 -35.06 -32.01 -65.03 -89.01 -53.04 -53.04 -86.07
3.9 -41.05 -47.05 -54.06 -45.01 -48.06 -63.1 -34.04 -36.07 -55.07 -19 -20.02 -43.08 -57 -46.03 -31.09 -62.09
3.905 -42.07 -38 -48.06 -52.03 -55.07 -44.1 -23.07 -43.08 -45.01 -4.064 -7.011 -32.01 -42.07 -26.01 -19 -45.01
3.91 -32.01 -34.04 -60.05 -64.02 -47.05 -23.07 -19 -42.07 -29.06 6.91 0.9145 -22.05 -18.09 -20.02 -5.081 -21.03
3.915 -21.03 -39.02 -53.04 -53.04 -25.1 0 -11.08 -27.03 -11.08 35.97 0.9145 -1.016 9.958 -9.043 8.942 11.99
3.92 -13.01 -35.06 -55.07 -45.01 -21.03 7.926 -17.07 -25.1 1.931 44 -1.016 -2.032 23.98 3.963 14.94 29.98
3.925 -10.06 -23.07 -56.09 -48.06 -17.07 6.91 -19 -26.01 14.94 46.94 1.931 -1.016 38.92 12.9 16.97 45.93
3.93 -9.043 -3.048 -25.1 -20.02 3.963 29.98 0 -2.032 25.91 78.95 9.958 13.92 64.93 22.96 30.99 71.94
3.935 -1.016 4.979 -8.027 -8.027 14.94 37.9 5.995 1.931 36.99 77.94 5.995 11.99 51.92 19.92 30.99 72.96
3.94 2.947 -2.032 -13.01 -17.07 8.942 25 7.926 -5.081 29.98 59.95 1.931 0 38.92 2.947 16.97 56.9
3.945 0 -11.08 -8.027 -1.016 14.94 13.92 17.99 4.979 16.97 54.97 7.926 9.958 38.92 -2.032 18.9 53.96
3.95 -3.048 0.9145 -1.016 0 -1.016 -3.048 13.92 9.958 7.926 32.92 13.92 12.9 18.9 -1.016 18.9 36.99
3.955 -7.011 7.926 -1.016 -5.081 -17.07 -10.06 13.92 0 0.9145 27.94 17.99 5.995 3.963 3.963 8.942 17.99
3.96 -15.04 0 3.963 -1.016 -13.01 -3.048 21.95 7.926 0.9145 47.96 21.95 1.931 5.995 7.926 2.947 11.99
3.965 -8.027 0.9145 0 -3.048 -18.09 -2.032 13.92 0.9145 1.931 52.94 7.926 -7.011 -6.097 10.97 -7.011 -3.048
3.97 -4.064 -4.064 -12.09 -18.09 -20.02 -1.016 7.926 -7.011 -2.032 57.92 0.9145 -23.07 -17.07 9.958 -27.03 -22.05
3.975 -17.07 -10.06 -17.07 -10.06 -7.011 -14.02 11.99 -2.032 -9.043 42.98 -1.016 -30.08 -17.07 7.926 -35.06 -28.04
3.98 -25.1 5.995 -7.011 -9.043 -17.07 -28.04 3.963 -11.08 -25.1 13.92 0.9145 -41.05 -51.01 1.931 -49.08 -53.04
3.985 -20.02 8.942 0.9145 -14.02 -26.01 -25.1 1.931 -19 -38 9.958 0.9145 -51.01 -75.09 1.931 -63.1 -76.01
3.99 -21.03 -2.032 2.947 -5.081 -23.07 -30.08 3.963 -20.02 -46.03 13.92 1.931 -60.05 -75.09 1.931 -71.03 -82
3.995 -20.02 1.931 -3.048 -5.081 -29.06 -32.01 -1.016 -22.05 -45.01 21.95 -5.081 -65.03 -77.02 0 -75.09 -88.1
4 -25.1 -5.081 -23.07 -12.09 -25.1 -35.06 -15.04 -31.09 -40.04 17.99 -23.07 -65.03 -70.01 -3.048 -79.05 -81.09
4.005 -39.02 -15.04 -36.07 -24.08 -22.05 -57 -21.03 -32.01 -42.07 3.963 -35.06 -65.03 -57 -6.097 -85.05 -64.02
4.01 -32.01 0 -24.08 -31.09 -26.01 -52.03 -23.07 -40.04 -47.05 6.91 -25.1 -54.06 -59.04 3.963 -81.09 -61.07
4.015 -4.064 4.979 -1.016 -14.02 -7.011 -36.07 -9.043 -19 -29.06 25.91 -10.06 -25.1 -39.02 22.96 -57 -39.02
4.02 17.99 13.92 10.97 15.95 8.942 -23.07 7.926 11.99 -8.027 42.98 8.942 0.9145 -2.032 35.97 -25.1 -3.048
4.025 30.99 48.98 25.91 41.97 29.98 -4.064 31.91 42.98 3.963 63.91 39.93 37.9 19.92 40.95 4.979 12.9
4.03 38.92 59.95 34.95 63.91 45.93 0.9145 44 68.99 23.98 64.93 46.94 63 39.93 40.95 30.99 32.92
4.035 41.97 60.97 39.93 66.96 50.91 12.9 50.91 78.95 30.99 67.98 54.97 80.98 55.99 44 48.98 50.91
4.04 46.94 73.97 49.99 63 58.94 49.99 59.95 75.9 48.98 106 81.9 107 79.97 59.95 72.96 70.93
4.045 51.92 58.94 51.92 74.99 82.92 72.96 58.94 92.98 86.98 133.9 78.95 123 118 73.97 94.91 107
4.05 50.91 44 36.99 79.97 91.96 90.94 53.96 100.9 112 134.9 68.99 128.9 142 82.92 108.9 137
4.055 50.91 52.94 29.98 75.9 106 111 57.92 96.94 124 147.9 65.95 127.9 153.9 94.91 107 146.9
4.06 57.92 53.96 28.96 79.97 108.9 103.9 41.97 88 132.9 137 48.98 111 149 93.99 90.94 147.9
4.065 66.96 58.94 29.98 64.93 93.99 86.98 27.94 75.9 119.9 123 38.92 99.99 124 80.98 76.92 130
4.07 70.93 79.97 38.92 55.99 88.91 86.98 33.94 66.96 106 128.9 47.96 94.91 112 79.97 64.93 113.9
4.075 63.91 67.98 42.98 60.97 76.92 75.9 33.94 68.99 96.94 115.9 47.96 89.93 106 68.99 60.97 107
4.08 39.93 35.97 27.94 46.94 51.92 63.91 33.94 61.98 78.95 79.97 39.93 79.97 74.99 39.93 48.98 88
4.085 2.947 14.94 19.92 29.98 25.91 48.98 35.97 46.94 49.99 69.91 39.93 65.95 45.93 18.9 34.95 58.94
4.09 -15.04 2.947 14.94 25.91 7.926 30.99 21.95 34.95 22.96 51.92 40.95 46.94 25.91 3.963 22.96 40.95
4.095 -20.02 -1.016 0.9145 6.91 -6.097 17.99 13.92 17.99 2.947 39.93 29.98 29.98 7.926 -7.011 4.979 18.9
4.1 -17.07 11.99 -2.032 -3.048 -17.07 14.94 11.99 0 -7.011 41.97 29.98 15.95 1.931 -2.032 -7.011 0
4.105 -13.01 16.97 0 0 -13.01 14.94 11.99 0 -5.081 42.98 36.99 12.9 11.99 9.958 -5.081 -1.016
4.11 -14.02 -1.016 1.931 -4.064 -4.064 17.99 11.99 0.9145 2.947 47.96 29.98 9.958 7.926 3.963 -3.048 -1.016
4.115 -2.032 3.963 12.9 0 6.91 18.9 15.95 2.947 10.97 56.9 25.91 11.99 4.979 12.9 -3.048 0.9145
4.12 5.995 19.92 29.98 23.98 23.98 17.99 29.98 21.95 15.95 59.95 29.98 21.95 15.95 27.94 0.9145 5.995
4.125 19.92 21.95 13.92 29.98 27.94 18.9 31.91 27.94 25.91 59.95 27.94 29.98 23.98 27.94 6.91 13.92
4.13 37.9 36.99 17.99 25.91 26.93 19.92 25.91 25.91 31.91 60.97 33.94 34.95 32.92 32.92 8.942 22.96
4.135 34.95 49.99 46.94 45.93 34.95 26.93 47.96 42.98 42.98 50.91 65.95 51.92 56.9 32.92 30.99 41.97
4.14 28.96 52.94 67.98 59.95 46.94 28.96 65.95 59.95 57.92 57.92 81.9 65.95 64.93 25 48.98 58.94
4.145 46.94 74.99 94.91 68.99 60.97 25.91 79.97 71.94 64.93 79.97 88 69.91 63.91 39.93 52.94 60.97
4.15 53.96 95.92 109.9 86.98 71.94 27.94 103.9 82.92 71.94 82.92 88 79.97 72.96 56.9 64.93 67.98
4.155 46.94 88 76.92 72.96 67.98 26.93 83.93 72.96 78.95 88.91 71.94 75.9 66.96 52.94 64.93 63.91
4.16 37.9 77.94 53.96 45.93 55.99 19.92 47.96 49.99 69.91 91.96 61.98 61.98 51.92 41.97 50.91 47.96
4.165 23.98 69.91 63.91 39.93 49.99 15.95 59.95 49.99 57.92 67.98 71.94 67.98 45.93 27.94 56.9 41.97
4.17 10.97 60.97 63.91 30.99 36.99 18.9 59.95 48.98 45.93 56.9 82.92 66.96 32.92 17.99 54.97 31.91
4.175 8.942 56.9 63 30.99 25.91 15.95 49.99 49.99 37.9 63 81.9 54.97 25 12.9 44.91 27.94
4.18 13.92 55.99 70.93 49.99 32.92 19.92 74.99 67.98 33.94 50.91 76.92 61.98 36.99 13.92 56.9 46.94
4.185 18.9 54.97 59.95 50.91 28.96 32.92 64.93 57.92 29.98 46.94 63 54.97 42.98 16.97 46.94 52.94
4.19 30.99 56.9 61.98 38.92 28.96 35.97 44.91 36.99 31.91 57.92 56.9 32.92 39.93 17.99 22.96 42.98
4.195 30.99 54.97 68.99 34.95 35.97 25.91 58.94 31.91 25.91 47.96 47.96 20.93 33.94 18.9 14.94 32.92
4.2 23.98 45.93 44.91 5.995 19.92 22.96 41.97 3.963 13.92 37.9 29.98 0.9145 9.958 20.93 -9.043 7.926
4.205 7.926 29.98 29.98 -9.043 5.995 0.9145 17.99 -11.08 1.931 33.94 25.91 -25.1 -13.01 7.926 -41.05 -17.07
4.21 2.947 32.92 35.97 0.9145 4.979 -20.02 32.92 0 -3.048 19.92 22.96 -20.02 -22.05 -2.032 -39.02 -26.01
4.215 19.92 47.96 36.99 5.995 1.931 -7.011 32.92 1.931 -17.07 28.96 26.93 -9.043 -24.08 13.92 -33.02 -32.01
4.22 18.9 41.97 37.9 3.963 -1.016 -1.016 25.91 -1.016 -12.09 38.92 35.97 -1.016 -25.1 13.92 -27.03 -35.06
4.225 1.931 25.91 20.93 9.958 -2.032 -6.097 33.94 11.99 -9.043 35.97 23.98 -2.032 -13.01 6.91 -9.043 -27.03
4.23 3.963 17.99 6.91 0 1.931 11.99 28.96 5.995 -17.07 52.94 8.942 3.963 -2.032 17.99 -7.011 -14.02
4.235 1.931 1.931 5.995 -13.01 -5.081 4.979 7.926 -10.06 -4.064 40.95 1.931 -7.011 -8.027 10.97 -23.07 -21.03
4.24 -2.032 7.926 11.99 -14.02 0 -13.01 5.995 -13.01 0.9145 12.9 -1.016 -15.04 -16.05 0.9145 -27.03 -28.04
4.245 16.97 29.98 26.93 -13.01 1.931 -8.027 10.97 -20.02 -12.09 25 -2.032 -14.02 -12.09 18.9 -25.1 -20.02
4.25 11.99 25 22.96 -20.02 0.9145 -2.032 0.9145 -23.07 -4.064 33.94 5.995 -22.05 -8.027 21.95 -29.06 -8.027
4.255 5.995 25 16.97 -3.048 8.942 -2.032 12.9 -5.081 0 28.96 13.92 -21.03 1.931 11.99 -23.07 0
4.26 28.96 41.97 36.99 12.9 14.94 25.91 29.98 6.91 0 55.99 26.93 0 20.93 27.94 -9.043 28.96
4.265 32.92 37.9 46.94 15.95 20.93 21.95 33.94 13.92 19.92 56.9 37.9 16.97 31.91 27.94 -3.048 34.95
4.27 25.91 33.94 45.93 28.96 28.96 3.963 45.93 29.98 39.93 44.91 48.98 35.97 27.94 16.97 10.97 20.93
4.275 28.96 37.9 56.9 42.98 36.99 20.93 66.96 45.93 40.95 74.99 52.94 65.95 42.98 35.97 40.95 32.92
4.28 22.96 33.94 47.96 37.9 46.94 41.97 61.98 47.96 55.99 84.95 56.9 75.9 51.92 39.93 52.94 39.93
4.285 25 30.99 33.94 37.9 46.94 45.93 56.9 44 58.94 63 64.93 70.93 45.93 27.94 56.9 36.99
4.29 40.95 45.93 55.99 41.97 50.91 55.99 65.95 45.93 53.96 72.96 63 79.97 53.96 41.97 68.99 51.92
4.295 48.98 47.96 60.97 44.91 58.94 46.94 56.9 47.96 58.94 72.96 54.97 77.94 52.94 47.96 68.99 58.94
4.3 45.93 37.9 44 46.94 52.94 23.98 37.9 55.99 53.96 46.94 50.91 59.95 37.9 32.92 56.9 42.98
4.305 42.98 29.98 40.95 49.99 50.91 27.94 41.97 57.92 39.93 56.9 44 48.98 41.97 29.98 50.91 44.91
4.31 36.99 37.9 36.99 42.98 46.94 39.93 31.91 46.94 38.92 59.95 40.95 35.97 42.98 25.91 32.92 44.91
4.315 33.94 38.92 25 23.98 32.92 31.91 16.97 23.98 40.95 44.91 29.98 3.963 29.98 15.95 2.947 25.91
4.32 29.98 38.92 26.93 16.97 30.99 26.93 25 9.958 40.95 55.99 11.99 0 28.96 23.98 -3.048 25
4.325 34.95 44 32.92 17.99 38.92 16.97 25 2.947 40.95 63 1.931 1.931 20.93 30.99 -13.01 12.9
4.33 47.96 41.97 23.98 10.97 32.92 1.931 7.926 1.931 29.98 46.94 4.979 -11.08 -4.064 30.99 -25.1 -19
4.335 53.96 41.97 25.91 13.92 37.9 -2.032 19.92 1.931 18.9 48.98 9.958 -9.043 -12.09 36.99 -23.07 -29.06
4.34 49.99 51.92 40.95 17.99 42.98 3.963 28.96 5.995 19.92 54.97 14.94 5.995 -14.02 39.93 -15.04 -26.01
4.345 55.99 59.95 36.99 15.95 31.91 -1.016 17.99 9.958 19.92 41.97 17.99 9.958 -19 32.92 -9.043 -27.03
4.35 54.97 65.95 39.93 29.98 37.9 11.99 29.98 28.96 25 46.94 21.95 29.98 -3.048 31.91 2.947 -7.011
4.355 53.96 69.91 54.97 47.96 44.91 25.91 42.98 53.96 31.91 54.97 26.93 47.96 14.94 35.97 18.9 8.942
4.36 63 68.99 47.96 50.91 38.92 20.93 25 54.97 27.94 47.96 34.95 36.99 12.9 29.98 16.97 8.942
4.365 49.99 55.99 27.94 37.9 37.9 19.92 13.92 35.97 33.94 41.97 19.92 19.92 23.98 27.94 4.979 15.95
4.37 37.9 37.9 25 25.91 47.96 32.92 3.963 19.92 41.97 51.92 0.9145 9.958 44 28.96 0.9145 35.97
4.375 38.92 20.93 12.9 10.97 51.92 41.97 -6.097 -2.032 39.93 67.98 -11.08 -4.064 53.96 26.93 -5.081 36.99
4.38 30.99 12.9 0 -2.032 42.98 45.93 -8.027 -22.05 44 69.91 -20.02 -22.05 49.99 29.98 -17.07 32.92
4.385 22.96 2.947 0 -6.097 30.99 28.96 -2.032 -23.07 44 54.97 -24.08 -26.01 34.95 26.93 -21.03 25
4.39 21.95 0 0 -7.011 12.9 3.963 -2.032 -13.01 19.92 38.92 -10.06 -23.07 9.958 9.958 -11.08 14.94
4.395 8.942 6.91 -10.06 -6.097 0.9145 -3.048 -2.032 -2.032 5.995 12.9 -2.032 -2.032 1.931 -4.064 0.9145 5.995
4.4 4.979 12.9 1.931 4.979 -1.016 -6.097 11.99 20.93 -2.032 1.931 6.91 26.93 8.942 -25.1 28.96 15.95
4.405 1.931 11.99 13.92 19.92 0 0 27.94 41.97 -7.011 11.99 23.98 49.99 19.92 -35.06 56.9 25.91
4.41 1.931 15.95 15.95 15.95 -1.016 13.92 33.94 35.97 3.963 19.92 33.94 55.99 23.98 -21.03 60.97 29.98
4.415 9.958 7.926 7.926 10.97 0 13.92 19.92 20.93 18.9 6.91 21.95 49.99 26.93 -10.06 54.97 29.98
4.42 9.958 1.931 -3.048 -1.016 1.931 12.9 3.963 1.931 10.97 8.942 13.92 27.94 20.93 -2.032 44.91 21.95
4.425 12.9 6.91 -20.02 -22.05 2.947 7.926 -7.011 -20.02 9.958 9.958 1.931 1.931 1.931 3.963 18.9 2.947
4.43 18.9 -1.016 -32.01 -24.08 6.91 -10.06 -21.03 -25.1 4.979 -1.016 -19 -26.01 -11.08 -1.016 2.947 -12.09
4.435 7.926 1.931 -31.09 -27.03 -2.032 -19 -21.03 -38 -14.02 0.9145 -31.09 -57 -26.01 -12.09 -33.02 -35.06
4.44 10.97 4.979 -22.05 -39.02 -16.05 -28.04 -25.1 -53.04 -32.01 -2.032 -33.02 -76.01 -52.03 -17.07 -63.1 -52.03
4.445 17.99 0 -17.07 -29.06 -15.04 -42.07 -29.06 -47.05 -39.02 -25.1 -37.09 -77.02 -57 -29.06 -69.1 -55.07
4.45 9.958 5.995 -5.081 -17.07 -17.07 -35.06 -19 -41.05 -45.01 -23.07 -29.06 -73.06 -49.08 -23.07 -69.1 -51.01
4.455 15.95 15.95 0 -4.064 -4.064 -27.03 -11.08 -22.05 -26.01 -4.064 -19 -63.1 -36.07 -6.097 -63.1 -43.08
4.46 30.99 12.9 1.931 6.91 10.97 -17.07 -17.07 3.963 0.9145 13.92 -17.07 -38 -13.01 3.963 -37.09 -18.09
4.465 20.93 10.97 -2.032 -5.081 14.94 1.931 -15.04 -7.011 11.99 38.92 -9.043 -20.02 10.97 14.94 -19 -1.016
4.47 11.99 0 -11.08 -27.03 13.92 10.97 -19 -19 23.98 41.97 0 -11.08 19.92 13.92 -7.011 5.995
4.475 10.97 -12.09 -24.08 -22.05 16.97 3.963 -25.1 -10.06 23.98 29.98 0 2.947 19.92 1.931 12.9 12.9
4.48 0.9145 -12.09 -24.08 -18.09 9.958 -1.016 -13.01 -8.027 13.92 20.93 0 2.947 21.95 -1.016 18.9 12.9
4.485 3.963 0 -16.05 -9.043 0.9145 -9.043 0 -6.097 8.942 8.942 -4.064 -1.016 0 -1.016 6.91 -1.016
4.49 22.96 8.942 -11.08 0.9145 0 -16.05 1.931 5.995 0.9145 5.995 -7.011 4.979 -14.02 -1.016 8.942 -15.04
4.495 20.93 14.94 -4.064 -1.016 -5.081 -17.07 0.9145 1.931 -4.064 10.97 -2.032 5.995 -21.03 5.995 16.97 -18.09
4.5 1.931 1.931 -22.05 -10.06 -8.027 -32.01 -9.043 -11.08 -9.043 -4.064 -19 -1.016 -41.05 -5.081 18.9 -29.06
4.505 -4.064 -14.02 -43.08 -20.02 -13.01 -47.05 -24.08 -15.04 -38 -23.07 -24.08 -2.032 -62.09 -18.09 20.93 -32.01
4.51 -6.097 -16.05 -37.09 -29.06 -10.06 -36.07 -24.08 -10.06 -47.05 -14.02 -14.02 2.947 -47.05 -5.081 32.92 -16.05
4.515 -11.08 -19 -50.09 -31.09 -4.064 -31.09 -26.01 -12.09 -30.08 -6.097 -28.04 0 -33.02 -11.08 22.96 -5.081
4.52 -3.048 -17.07 -52.03 -30.08 -13.01 -22.05 -20.02 -15.04 -28.04 4.979 -16.05 -6.097 -22.05 -15.04 12.9 -1.016
4.525 0 -18.09 -42.07 -25.1 -9.043 -17.07 -20.02 -19 -9.043 17.99 0 -18.09 -1.016 -6.097 2.947 2.947
4.53 -15.04 -26.01 -55.07 -29.06 -2.032 -21.03 -33.02 -26.01 9.958 9.958 -26.01 -41.05 4.979 -15.04 -17.07 1.931
4.535 -2.032 1.931 -44.1 -19 0.9145 -5.081 -18.09 -27.03 1.931 17.99 -20.02 -42.07 9.958 -12.09 -33.02 -1.016
4.54 19.92 21.95 -16.05 -4.064 13.92 6.91 0 -1.016 16.97 28.96 -6.097 -34.04 25 5.995 -31.09 5.995
4.545 13.92 13.92 -32.01 0.9145 18.9 -15.04 -14.02 1.931 30.99 4.979 -34.04 -50.09 1.931 -7.011 -53.04 -11.08
4.55 10.97 10.97 -31.09 -1.016 2.947 -42.07 -8.027 -2.032 1.931 -4.064 -36.07 -52.03 -29.06 -21.03 -67.06 -42.07
4.555 14.94 12.9 -13.01 1.931 1.931 -61.07 1.931 0.9145 -22.05 -21.03 -22.05 -55.07 -54.06 -18.09 -65.03 -60.05
4.56 3.963 1.931 -32.01 -14.02 -16.05 -90.03 -23.07 -17.07 -35.06 -62.09 -43.08 -68.08 -81.09 -39.02 -79.05 -87.08
4.565 0.9145 8.942 -24.08 -12.09 -29.06 -83.02 -26.01 -26.01 -62.09 -56.09 -34.04 -57 -83.02 -43.08 -63.1 -84.03
4.57 4.979 16.97 -1.016 0 -18.09 -55.07 -15.04 -11.08 -53.04 -39.02 -19 -36.07 -58.02 -37.09 -33.02 -55.07
4.575 -3.048 0.9145 -24.08 -5.081 -16.05 -43.08 -30.08 -20.02 -28.04 -42.07 -42.07 -46.03 -39.02 -43.08 -37.09 -41.05
4.58 -8.027 -1.016 -18.09 -1.016 -5.081 -4.064 -25.1 -18.09 -23.07 -6.097 -43.08 -36.07 -3.048 -30.08 -21.03 -12.09
4.585 6.91 14.94 -2.032 4.979 12.9 25.91 -15.04 -9.043 5.995 23.98 -43.08 -24.08 29.98 -1.016 -3.048 18.9
4.59 23.98 5.995 -33.02 -9.043 23.98 30.99 -51.01 -23.07 44 25.91 -65.03 -33.02 37.9 5.995 -19 17.99
4.595 32.92 8.942 -44.1 -9.043 32.92 44 -67.06 -15.04 51.92 48.98 -63.1 -12.09 50.91 25 -1.016 25
4.6 10.97 -4.064 -46.03 -16.05 38.92 33.94 -55.07 1.931 53.96 51.92 -59.04 0 41.97 11.99 14.94 28.96
4.605 -17.07 -39.02 -77.02 -47.05 8.942 3.963 -59.04 -18.09 28.96 16.97 -67.06 -21.03 6.91 -18.09 0.9145 0
4.61 -21.03 -43.08 -77.02 -57 -13.01 5.995 -55.07 -29.06 -11.08 1.931 -57 -23.07 -7.011 -23.07 0.9145 -5.081
4.615 -29.06 -43.08 -65.03 -61.07 -29.06 -6.097 -47.05 -35.06 -25.1 -21.03 -43.08 -27.03 -25.1 -49.08 6.91 -9.043
4.62 -30.08 -44.1 -70.01 -75.09 -48.06 -26.01 -47.05 -55.07 -38 -50.09 -35.06 -40.04 -50.09 -65.03 -5.081 -26.01
4.625 -23.07 -27.03 -57 -63.1 -44.1 -21.03 -39.02 -42.07 -52.03 -44.1 -21.03 -33.02 -52.03 -54.06 -1.016 -27.03
4.63 -46.03 -28.04 -44.1 -58.02 -48.06 -44.1 -25.1 -31.09 -50.09 -57 -11.08 -28.04 -61.07 -75.09 6.91 -28.04
4.635 -50.09 -36.07 -48.06 -64.02 -62.09 -47.05 -21.03 -38 -63.1 -61.07 -3.048 -30.08 -77.02 -73.06 2.947 -50.09
4.64 -31.09 -25.1 -49.08 -56.09 -57 -28.04 -21.03 -30.08 -68.08 -40.04 -1.016 -15.04 -76.01 -44.1 8.942 -57
4.645 -59.04 -39.02 -53.04 -60.05 -61.07 -59.04 -21.03 -28.04 -62.09 -60.05 -5.081 -17.07 -88.1 -72.04 10.97 -69.1
4.65 -79.05 -61.07 -63.1 -75.09 -77.02 -69.1 -17.07 -43.08 -77.02 -69.1 -11.08 -35.06 -105.1 -85.05 -7.011 -89.01
4.655 -59.04 -57 -73.06 -73.06 -69.1 -39.02 -21.03 -47.05 -81.09 -43.08 -21.03 -53.04 -93.08 -65.03 -25.1 -85.05
4.66 -52.03 -58.02 -80.07 -70.01 -63.1 -43.08 -33.02 -51.01 -75.09 -48.06 -35.06 -72.04 -82 -70.01 -47.05 -77.02
4.665 -23.07 -52.03 -62.09 -61.07 -49.08 -20.02 -31.09 -57 -71.03 -33.02 -31.09 -76.01 -66.05 -42.07 -59.04 -65.03
4.67 10.97 -19 -44.1 -26.01 -6.097 0.9145 -25.1 -22.05 -39.02 6.91 -26.01 -55.07 -23.07 -8.027 -39.02 -30.08
4.675 -1.016 -9.043 -34.04 -7.011 10.97 -25.1 -24.08 0 -1.016 -9.043 -22.05 -41.05 -7.011 -30.08 -25.1 -8.027
4.68 -10.06 -4.064 -15.04 -6.097 3.963 -31.09 -11.08 0 -2.032 -20.02 -3.048 -30.08 -8.027 -31.09 -21.03 -11.08
4.685 5.995 3.963 -3.048 0 8.942 -10.06 -1.016 8.942 9.958 -3.048 2.947 -13.01 3.963 -27.03 -3.048 -4.064
4.69 -2.032 0 -7.011 3.963 3.963 -20.02 -3.048 15.95 21.95 -23.07 0 0.9145 13.92 -39.02 6.91 1.931
4.695 1.931 0 3.963 0 3.963 0 0.9145 5.995 21.95 -5.081 5.995 5.995 23.98 -13.01 20.93 7.926
4.7 10.97 4.979 11.99 10.97 27.94 37.9 5.995 22.96 44 25 7.926 18.9 48.98 1.931 38.92 27.94
4.705 -1.016 -5.081 -14.02 12.9 34.95 14.94 0.9145 34.95 57.92 8.942 4.979 19.92 45.93 -10.06 36.99 32.92
4.71 -2.032 1.931 -17.07 1.931 22.96 16.97 0.9145 25 47.96 11.99 8.942 16.97 34.95 -5.081 30.99 22.96
4.715 13.92 9.958 0 15.95 27.94 30.99 19.92 39.93 47.96 25.91 17.99 29.98 37.9 -5.081 50.91 25.91
4.72 6.91 1.931 -4.064 27.94 25 1.931 9.958 50.91 47.96 0 16.97 31.91 33.94 -24.08 60.97 28.96
4.725 -4.064 -1.016 -12.09 8.942 8.942 -11.08 2.947 29.98 25.91 -10.06 6.91 16.97 12.9 -26.01 46.94 18.9
4.73 -13.01 -11.08 -13.01 1.931 2.947 -1.016 2.947 18.9 11.99 -3.048 -2.032 0.9145 1.931 -30.08 25 5.995
4.735 -27.03 -48.06 -50.09 -14.02 -16.05 -39.02 -25.1 2.947 0.9145 -37.09 -25.1 -28.04 -30.08 -44.1 -7.011 -14.02
4.74 -42.07 -55.07 -78.04 -54.06 -40.04 -59.04 -51.01 -33.02 -23.07 -52.03 -48.06 -58.02 -51.01 -46.03 -45.01 -36.07
4.745 -36.07 -42.07 -66.05 -68.08 -39.02 -44.1 -53.04 -48.06 -38 -39.02 -48.06 -66.05 -51.01 -44.1 -49.08 -34.04
4.75 -29.06 -34.04 -60.05 -57 -39.02 -45.01 -51.01 -51.01 -41.05 -49.08 -43.08 -73.06 -50.09 -41.05 -47.05 -34.04
4.755 -22.05 -14.02 -53.04 -55.07 -32.01 -21.03 -33.02 -55.07 -42.07 -28.04 -27.03 -74.08 -37.09 -35.06 -49.08 -28.04
4.76 -5.081 0.9145 -29.06 -44.1 -22.05 9.958 -10.06 -38 -33.02 0 -12.09 -66.05 -21.03 -20.02 -35.06 -19
4.765 -6.097 -15.04 -30.08 -35.06 -26.01 -3.048 -14.02 -33.02 -17.07 -15.04 -12.09 -72.04 -39.02 -20.02 -43.08 -33.02
4.77 -14.02 -22.05 -37.09 -36.07 -34.04 -13.01 -21.03 -29.06 -31.09 -37.09 -16.05 -71.03 -48.06 -25.1 -45.01 -46.03
4.775 -6.097 -9.043 -29.06 -29.06 -29.06 -3.048 -22.05 -23.07 -39.02 -19 -15.04 -62.09 -50.09 -19 -37.09 -50.09
4.78 1.931 0 -19 -8.027 -24.08 -3.048 -23.07 -13.01 -31.09 -13.01 -14.02 -53.04 -54.06 -13.01 -33.02 -56.09
4.785 8.942 7.926 -16.05 1.931 -2.032 7.926 -2.032 0 -19 7.926 -1.016 -32.01 -37.09 0 -25.1 -55.07
4.79 11.99 15.95 -13.01 6.91 14.94 19.92 6.91 14.94 1.931 29.98 18.9 -10.06 -13.01 6.91 -1.016 -47.05
4.795 1.931 -4.064 -17.07 3.963 10.97 5.995 9.958 13.92 26.93 12.9 23.98 -1.016 -19 1.931 -1.016 -46.03
4.8 -7.011 -24.08 -12.09 5.995 1.931 5.995 13.92 21.95 19.92 3.963 37.9 13.92 -12.09 3.963 16.97 -38
4.805 -6.097 -22.05 -14.02 8.942 3.963 -1.016 21.95 26.93 10.97 11.99 50.91 20.93 -1.016 -1.016 34.95 -18.09
4.81 -4.064 -21.03 -20.02 2.947 -1.016 -1.016 23.98 23.98 7.926 14.94 48.98 22.96 0 -1.016 44.91 -6.097
4.815 3.963 -6.097 -8.027 12.9 12.9 13.92 33.94 34.95 4.979 23.98 57.92 38.92 25 6.91 66.96 10.97
4.82 5.995 0 -3.048 25 25 15.95 42.98 46.94 17.99 19.92 60.97 48.98 41.97 0.9145 80.98 25.91
4.825 0 -6.097 -12.09 16.97 2.947 0 32.92 35.97 21.95 0 50.91 48.98 28.96 -4.064 72.96 25
4.83 1.931 -3.048 -8.027 15.95 -2.032 4.979 17.99 28.96 9.958 -8.027 44.91 49.99 23.98 0 66.96 22.96
4.835 1.931 0.9145 -9.043 23.98 1.931 2.947 19.92 35.97 9.958 -1.016 39.93 37.9 21.95 -2.032 58.94 23.98
4.84 7.926 0 -13.01 19.92 10.97 4.979 20.93 40.95 15.95 3.963 30.99 30.99 28.96 8.942 48.98 32.92
4.845 20.93 1.931 0 26.93 34.95 36.99 11.99 40.95 27.94 26.93 16.97 35.97 51.92 25 58.94 54.97
4.85 28.96 8.942 4.979 36.99 53.96 49.99 23.98 46.94 44 42.98 11.99 36.99 66.96 33.94 64.93 73.97
4.855 29.98 9.958 5.995 27.94 45.93 41.97 21.95 39.93 47.96 27.94 15.95 31.91 59.95 31.91 52.94 73.97
4.86 27.94 15.95 5.995 27.94 37.9 44.91 7.926 29.98 41.97 21.95 13.92 27.94 45.93 33.94 40.95 55.99
4.865 27.94 21.95 13.92 41.97 38.92 38.92 26.93 42.98 29.98 33.94 28.96 23.98 33.94 39.93 30.99 36.99
4.87 28.96 22.96 13.92 54.97 37.9 25.91 41.97 64.93 27.94 30.99 44 25 25 41.97 25 25.91
4.875 21.95 19.92 4.979 63.91 40.95 23.98 26.93 70.93 29.98 29.98 36.99 21.95 15.95 34.95 20.93 14.94
4.88 16.97 29.98 10.97 54.97 36.99 22.96 35.97 63 19.92 32.92 28.96 25.91 17.99 30.99 22.96 8.942
4.885 13.92 28.96 12.9 33.94 27.94 16.97 35.97 53.96 15.95 7.926 27.94 28.96 26.93 30.99 32.92 17.99
4.89 8.942 16.97 6.91 22.96 23.98 29.98 5.995 37.9 23.98 4.979 11.99 32.92 36.99 26.93 42.98 23.98
4.895 7.926 13.92 9.958 17.99 21.95 51.92 9.958 29.98 27.94 39.93 11.99 41.97 53.96 37.9 56.9 39.93
4.9 3.963 3.963 5.995 17.99 25.91 45.93 7.926 35.97 39.93 39.93 17.99 44 55.99 37.9 64.93 49.99
4.905 -4.064 -12.09 -4.064 10.97 14.94 22.96 -7.011 20.93 34.95 12.9 7.926 25.91 25 18.9 46.94 29.98
4.91 -7.011 -1.016 0.9145 6.91 -2.032 17.99 9.958 14.94 8.942 16.97 19.92 25.91 10.97 20.93 42.98 17.99
4.915 -1.016 4.979 6.91 14.94 2.947 13.92 21.95 31.91 3.963 0.9145 31.91 36.99 8.942 25.91 54.97 14.94
4.92 7.926 1.931 8.942 15.95 6.91 4.979 9.958 25.91 1.931 -4.064 31.91 34.95 0 25 44.91 0
4.925 10.97 10.97 20.93 27.94 16.97 19.92 37.9 34.95 -1.016 21.95 45.93 46.94 9.958 33.94 50.91 8.942
4.93 11.99 25.91 41.97 44 29.98 25.91 63.91 59.95 11.99 25.91 57.92 58.94 27.94 37.9 63 22.96
4.935 13.92 21.95 41.97 45.93 27.94 26.93 61.98 59.95 21.95 19.92 63.91 59.95 27.94 35.97 54.97 23.98
4.94 9.958 31.91 33.94 53.96 37.9 44 75.9 71.94 37.9 47.96 69.91 73.97 55.99 41.97 72.96 57.92
4.945 4.979 28.96 26.93 51.92 46.94 44 57.92 72.96 54.97 47.96 55.99 68.99 69.91 45.93 72.96 65.95
4.95 12.9 18.9 25 22.96 32.92 23.98 23.98 37.9 45.93 26.93 37.9 46.94 50.91 42.98 38.92 38.92
4.955 9.958 17.99 25.91 25 33.94 35.97 29.98 30.99 36.99 36.99 27.94 40.95 60.97 44 40.95 50.91
4.96 13.92 17.99 31.91 33.94 31.91 48.98 37.9 35.97 33.94 39.93 21.95 31.91 63.91 51.92 36.99 49.99
4.965 36.99 25 28.96 25 25 41.97 19.92 27.94 31.91 36.99 27.94 12.9 44.91 63 14.94 28.96
4.97 29.98 15.95 11.99 29.98 35.97 38.92 11.99 32.92 44.91 48.98 21.95 1.931 42.98 58.94 14.94 39.93
4.975 25.91 20.93 14.94 25.91 32.92 26.93 3.963 28.96 41.97 36.99 8.942 -20.02 28.96 50.91 -7.011 22.96
4.98 36.99 35.97 30.99 15.95 14.94 9.958 0.9145 11.99 22.96 16.97 7.926 -28.04 4.979 44.91 -31.09 -5.081
4.985 19.92 31.91 28.96 20.93 13.92 13.92 7.926 20.93 21.95 15.95 0.9145 -13.01 7.926 26.93 -17.07 1.931
4.99 17.99 26.93 33.94 25 10.97 21.95 20.93 25 15.95 15.95 2.947 0.9145 17.99 19.92 -7.011 6.91
4.995 29.98 28.96 30.99 18.9 0 17.99 15.95 23.98 4.979 7.926 14.94 9.958 3.963 12.9 0.9145 0
5 9.958 13.92 14.94 21.95 -2.032 16.97 15.95 34.95 0 4.979 13.92 29.98 1.931 0.9145 26.93 10.97
5.005 15.95 16.97 25 29.98 -4.064 12.9 31.91 44.91 -3.048 2.947 28.96 42.98 8.942 10.97 42.98 18.9
5.01 36.99 38.92 40.95 47.96 -4.064 7.926 41.97 60.97 -7.011 -2.032 55.99 57.92 10.97 25.91 56.9 17.99
5.015 30.99 39.93 59.95 57.92 6.91 16.97 50.91 78.95 6.91 1.931 57.92 65.95 25 29.98 68.99 30.99
5.02 37.9 42.98 85.96 61.98 21.95 31.91 61.98 76.92 20.93 19.92 63 63 45.93 33.94 64.93 47.96
5.025 40.95 39.93 76.92 61.98 30.99 38.92 63 72.96 36.99 29.98 63.91 51.92 48.98 35.97 58.94 46.94
5.03 25 26.93 52.94 51.92 38.92 45.93 51.92 64.93 44 44.91 51.92 47.96 46.94 31.91 50.91 44
5.035 37.9 28.96 52.94 45.93 48.98 46.94 59.95 56.9 44 56.9 58.94 50.91 54.97 52.94 48.98 46.94
5.04 49.99 37.9 46.94 51.92 54.97 25 59.95 60.97 55.99 42.98 51.92 44 49.99 58.94 46.94 40.95
5.045 49.99 44.91 40.95 42.98 48.98 13.92 41.97 53.96 48.98 39.93 32.92 31.91 33.94 48.98 30.99 23.98
5.05 49.99 50.91 44 34.95 40.95 21.95 28.96 34.95 35.97 37.9 25 27.94 27.94 45.93 14.94 12.9
5.055 45.93 37.9 28.96 32.92 35.97 17.99 17.99 32.92 39.93 25.91 18.9 21.95 25.91 36.99 4.979 11.99
5.06 52.94 33.94 28.96 35.97 40.95 25.91 13.92 37.9 36.99 42.98 31.91 34.95 30.99 38.92 4.979 15.95
5.065 57.92 40.95 52.94 49.99 56.9 36.99 35.97 54.97 47.96 50.91 58.94 60.97 52.94 54.97 22.96 38.92
5.07 49.99 39.93 63.91 69.91 63.91 32.92 53.96 80.98 66.96 46.94 65.95 73.97 60.97 52.94 44.91 51.92
5.075 52.94 56.9 70.93 72.96 58.94 37.9 57.92 85.96 67.98 63 71.94 78.95 58.94 44.91 46.94 42.98
5.08 49.99 63.91 65.95 65.95 55.99 42.98 59.95 77.94 65.95 53.96 79.97 77.94 57.92 47.96 40.95 39.93
5.085 53.96 49.99 61.98 60.97 61.98 37.9 57.92 76.92 74.99 48.98 67.98 74.99 63 53.96 44.91 42.98
5.09 78.95 56.9 70.93 63 72.96 47.96 51.92 77.94 75.9 58.94 67.98 70.93 72.96 66.96 38.92 54.97
5.095 76.92 64.93 68.99 69.91 80.98 54.97 47.96 72.96 78.95 45.93 61.98 60.97 79.97 70.93 32.92 67.98
5.1 59.95 37.9 55.99 61.98 69.91 39.93 31.91 59.95 77.94 27.94 41.97 44 71.94 49.99 28.96 63.91
5.105 61.98 35.97 53.96 55.99 59.95 36.99 27.94 44 63.91 29.98 35.97 31.91 65.95 31.91 16.97 61.98
5.11 59.95 55.99 55.99 67.98 67.98 45.93 33.94 51.92 61.98 31.91 35.97 34.95 73.97 35.97 12.9 70.93
5.115 56.9 52.94 58.94 79.97 78.95 59.95 27.94 72.96 76.92 44 23.98 44.91 81.9 44 30.99 75.9
5.12 67.98 60.97 74.99 91.96 83.93 63 29.98 85.96 83.93 50.91 23.98 58.94 76.92 46.94 42.98 76.92
5.125 56.9 68.99 68.99 90.94 82.92 51.92 33.94 93.99 81.9 30.99 31.91 68.99 58.94 46.94 48.98 63
5.13 51.92 41.97 57.92 74.99 63.91 25.91 27.94 86.98 66.96 20.93 35.97 75.9 34.95 42.98 64.93 33.94
5.135 74.99 48.98 72.96 70.93 58.94 16.97 47.96 84.95 50.91 25 53.96 91.96 25 48.98 80.98 23.98
5.14 81.9 83.93 83.93 81.9 63.91 23.98 71.94 93.99 47.96 31.91 75.9 106 29.98 55.99 86.98 25.91
5.145 71.94 81.9 69.91 77.94 65.95 25.91 63.91 95.92 51.92 31.91 83.93 103.9 33.94 45.93 94.91 25.91
5.15 64.93 66.96 72.96 68.99 55.99 23.98 67.98 84.95 44 26.93 85.96 92.98 32.92 31.91 88.91 29.98
5.155 44.91 56.9 70.93 60.97 44 27.94 71.94 69.91 31.91 16.97 79.97 72.96 30.99 16.97 70.93 25.91
5.16 35.97 29.98 54.97 45.93 34.95 18.9 56.9 59.95 32.92 15.95 66.96 49.99 29.98 14.94 52.94 18.9
5.165 45.93 28.96 67.98 45.93 32.92 12.9 60.97 53.96 34.95 22.96 63 37.9 36.99 25.91 46.94 22.96
5.17 54.97 50.91 77.94 52.94 42.98 25 65.95 58.94 44 32.92 66.96 46.94 48.98 29.98 40.95 27.94
5.175 52.94 46.94 54.97 38.92 42.98 29.98 54.97 49.99 50.91 18.9 72.96 48.98 48.98 28.96 44.91 28.96
5.18 49.99 37.9 48.98 27.94 33.94 22.96 57.92 45.93 45.93 7.926 71.94 53.96 37.9 25 52.94 29.98
5.185 25.91 33.94 47.96 29.98 31.91 11.99 59.95 51.92 41.97 -2.032 65.95 59.95 29.98 0 56.9 31.91
5.19 8.942 30.99 37.9 30.99 25.91 -6.097 47.96 56.9 31.91 -16.05 60.97 54.97 18.9 -9.043 52.94 23.98
5.195 17.99 31.91 46.94 44 20.93 -22.05 52.94 57.92 16.97 -19 64.93 53.96 5.995 -7.011 52.94 22.96
5.2 22.96 32.92 58.94 48.98 14.94 -22.05 54.97 56.9 8.942 -16.05 63.91 56.9 5.995 -15.04 52.94 22.96
5.205 15.95 25.91 44.91 33.94 1.931 -18.09 47.96 37.9 1.931 -21.03 59.95 35.97 7.926 -6.097 42.98 17.99
5.21 7.926 7.926 22.96 19.92 -1.016 -11.08 26.93 19.92 8.942 -15.04 46.94 15.95 7.926 0 22.96 25
5.215 -9.043 -7.011 1.931 7.926 1.931 -11.08 0 8.942 18.9 -9.043 11.99 -3.048 13.92 -10.06 2.947 25
5.22 -17.07 -14.02 -7.011 -5.081 2.947 2.947 -15.04 0 12.9 -4.064 -3.048 -19 27.94 -10.06 -13.01 25
5.225 0 -7.011 -5.081 -10.06 10.97 30.99 -15.04 -13.01 12.9 5.995 -7.011 -19 34.95 4.979 -21.03 31.91
5.23 23.98 5.995 13.92 -1.016 17.99 46.94 -4.064 -1.016 25 15.95 -12.09 -6.097 36.99 8.942 -19 37.9
5.235 25 27.94 36.99 12.9 23.98 55.99 8.942 6.91 35.97 26.93 -7.011 0 39.93 19.92 -1.016 34.95
5.24 35.97 40.95 44 36.99 33.94 49.99 6.91 22.96 37.9 26.93 -2.032 9.958 23.98 25 10.97 25
5.245 50.91 52.94 68.99 55.99 33.94 31.91 16.97 44.91 30.99 12.9 9.958 36.99 8.942 12.9 28.96 10.97
5.25 51.92 63 81.9 67.98 32.92 34.95 45.93 64.93 14.94 10.97 33.94 59.95 7.926 18.9 54.97 6.91
5.255 58.94 58.94 61.98 74.99 39.93 31.91 49.99 73.97 12.9 0.9145 49.99 72.96 9.958 30.99 60.97 9.958
5.26 47.96 42.98 55.99 66.96 35.97 17.99 44.91 71.94 22.96 -17.07 52.94 66.96 10.97 16.97 52.94 7.926
5.265 13.92 15.95 35.97 44 25 13.92 33.94 56.9 27.94 -18.09 44.91 45.93 16.97 1.931 42.98 10.97
5.27 17.99 2.947 17.99 28.96 21.95 21.95 14.94 31.91 26.93 -9.043 34.95 30.99 25 0.9145 32.92 15.95
5.275 34.95 18.9 33.94 18.9 27.94 44 23.98 17.99 32.92 0.9145 31.91 26.93 39.93 14.94 22.96 23.98
5.28 37.9 18.9 41.97 15.95 36.99 66.96 35.97 16.97 44.91 34.95 29.98 21.95 51.92 22.96 10.97 32.92
5.285 40.95 13.92 25 23.98 44 57.92 20.93 18.9 54.97 40.95 19.92 12.9 42.98 32.92 -1.016 32.92
5.29 37.9 14.94 35.97 32.92 41.97 49.99 18.9 22.96 51.92 25 9.958 9.958 35.97 22.96 -11.08 25
5.295 28.96 11.99 42.98 38.92 31.91 51.92 26.93 30.99 44 25 9.958 13.92 31.91 7.926 -11.08 22.96
5.3 31.91 7.926 31.91 44 23.98 40.95 16.97 33.94 30.99 21.95 8.942 16.97 18.9 8.942 -9.043 17.99
5.305 31.91 15.95 27.94 34.95 20.93 26.93 13.92 23.98 25 11.99 9.958 13.92 4.979 2.947 -13.01 -2.032
5.31 19.92 0.9145 23.98 25.91 12.9 18.9 21.95 16.97 20.93 8.942 9.958 7.926 -1.016 -6.097 -21.03 -6.097
5.315 1.931 -19 7.926 17.99 1.931 -5.081 4.979 10.97 12.9 -1.016 5.995 0.9145 -17.07 -14.02 -25.1 -16.05
5.32 -15.04 -37.09 0.9145 1.931 -4.064 -7.011 -6.097 0.9145 4.979 -19 0.9145 -5.081 -13.01 -17.07 -19 -18.09
5.325 -25.1 -49.08 -1.016 -9.043 -3.048 10.97 -3.048 -15.04 0.9145 -13.01 3.963 -7.011 0.9145 -16.05 -11.08 -7.011
5.33 -20.02 -58.02 -20.02 -22.05 -8.027 6.91 -16.05 -24.08 1.931 -8.027 1.931 -14.02 -1.016 -7.011 -11.08 -2.032
5.335 -19 -55.07 -32.01 -41.05 -20.02 -1.016 -34.04 -43.08 1.931 -11.08 -10.06 -21.03 -19 -15.04 -21.03 -20.02
5.34 -10.06 -42.07 -23.07 -38 -28.04 -4.064 -21.03 -50.09 -11.08 -18.09 -14.02 -24.08 -28.04 -25.1 -29.06 -27.03
5.345 -7.011 -39.02 -25.1 -29.06 -35.06 -43.08 -21.03 -35.06 -27.03 -41.05 -19 -33.02 -49.08 -35.06 -45.01 -43.08
5.35 -7.011 -21.03 -19 -21.03 -37.09 -52.03 -29.06 -29.06 -39.02 -47.05 -21.03 -39.02 -65.03 -28.04 -61.07 -63.1
5.355 4.979 -2.032 1.931 0 -22.05 -27.03 -6.097 -15.04 -44.1 -34.04 -4.064 -30.08 -58.02 -6.097 -51.01 -64.02
5.36 6.91 -6.097 0 6.91 -8.027 -26.01 0.9145 1.931 -39.02 -24.08 1.931 -34.04 -68.08 -1.016 -47.05 -71.03
5.365 -2.032 -4.064 7.926 5.995 -6.097 -20.02 -8.027 -7.011 -32.01 -16.05 -10.06 -35.06 -74.08 -11.08 -41.05 -78.04
5.37 3.963 0 20.93 17.99 1.931 -6.097 -4.064 -5.081 -30.08 -17.07 -14.02 -23.07 -57 -14.02 -25.1 -60.05
5.375 1.931 -12.09 1.931 14.94 -5.081 -23.07 -19 -7.011 -29.06 -38 -29.06 -32.01 -56.09 -30.08 -33.02 -53.04
5.38 -4.064 -14.02 0 0.9145 -27.03 -22.05 -33.02 -26.01 -41.05 -44.1 -37.09 -40.04 -60.05 -35.06 -47.05 -59.04
5.385 -1.016 -11.08 9.958 3.963 -35.06 -7.011 -19 -29.06 -51.01 -41.05 -21.03 -29.06 -49.08 -23.07 -35.06 -49.08
5.39 -7.011 -25.1 -2.032 3.963 -31.09 -21.03 -17.07 -19 -43.08 -41.05 -13.01 -23.07 -45.01 -29.06 -21.03 -39.02
5.395 0.9145 -3.048 11.99 12.9 -21.03 -5.081 -1.016 -6.097 -40.04 -18.09 -3.048 -1.016 -26.01 -20.02 -5.081 -23.07
5.4 29.98 29.98 33.94 42.98 11.99 20.93 15.95 25 -14.02 8.942 15.95 29.98 8.942 12.9 25 3.963
5.405 60.97 42.98 18.9 56.9 48.98 23.98 25.91 53.96 25.91 19.92 27.94 46.94 27.94 44 38.92 26.93
5.41 72.96 54.97 30.99 65.95 58.94 42.98 45.93 53.96 46.94 37.9 41.97 63 36.99 59.95 42.98 38.92
5.415 67.98 47.96 46.94 79.97 72.96 56.9 51.92 64.93 70.93 48.98 51.92 74.99 56.9 70.93 56.9 47.96
5.42 48.98 20.93 12.9 61.98 69.91 31.91 25.91 60.97 86.98 32.92 37.9 58.94 50.91 42.98 50.91 48.98
5.425 29.98 -2.032 -3.048 29.98 44 25 17.99 31.91 67.98 27.94 23.98 31.91 35.97 9.958 22.96 37.9
5.43 11.99 -21.03 -9.043 9.958 31.91 23.98 0 17.99 49.99 23.98 7.926 7.926 25.91 -2.032 0.9145 23.98
5.435 -1.016 -39.02 -44.1 -11.08 12.9 0 -17.07 0 34.95 -4.064 -1.016 -12.09 8.942 -8.027 -19 5.995
5.44 -32.01 -60.05 -58.02 -34.04 -16.05 -3.048 -15.04 -23.07 1.931 -17.07 -1.016 -26.01 -5.081 -21.03 -31.09 -2.032
5.445 -60.05 -82 -54.06 -36.07 -33.02 -2.032 -19 -24.08 -11.08 -24.08 -7.011 -32.01 -9.043 -32.01 -27.03 -10.06
5.45 -57 -77.02 -65.03 -37.09 -43.08 -20.02 -23.07 -25.1 -19 -53.04 -5.081 -37.09 -23.07 -45.01 -29.06 -23.07
5.455 -52.03 -74.08 -60.05 -34.04 -46.03 -21.03 -7.011 -21.03 -29.06 -47.05 0 -34.04 -35.06 -49.08 -31.09 -34.04
5.46 -48.06 -70.01 -39.02 -13.01 -35.06 -15.04 -5.081 -10.06 -29.06 -36.07 0.9145 -29.06 -43.08 -44.1 -33.02 -48.06
5.465 -32.01 -39.02 -30.08 1.931 -32.01 -38 -8.027 -2.032 -27.03 -54.06 -2.032 -28.04 -56.09 -36.07 -31.09 -59.04
5.47 -35.06 -35.06 -30.08 -1.016 -36.07 -38 1.931 -1.016 -37.09 -46.03 2.947 -24.08 -72.04 -28.04 -27.03 -66.05
5.475 -29.06 -40.04 -31.09 0.9145 -34.04 -23.07 -6.097 2.947 -42.07 -24.08 -5.081 -29.06 -74.08 -22.05 -29.06 -74.08
5.48 -14.02 -34.04 -28.04 -2.032 -33.02 -14.02 -17.07 0 -45.01 -37.09 -4.064 -35.06 -67.06 -17.07 -31.09 -67.06
5.485 -20.02 -44.1 -43.08 -10.06 -26.01 1.931 -12.09 -13.01 -37.09 -33.02 -1.016 -33.02 -46.03 -11.08 -29.06 -46.03
5.49 -18.09 -45.01 -48.06 -12.09 -10.06 18.9 -17.07 -15.04 -23.07 -8.027 -8.027 -29.06 -13.01 1.931 -19 -20.02
5.495 -1.016 -21.03 -34.04 1.931 -1.016 12.9 -14.02 -6.097 0.9145 -10.06 -5.081 -12.09 10.97 14.94 -3.048 0.9145
5.5 -7.011 -27.03 -41.05 5.995 12.9 4.979 -9.043 -1.016 13.92 -6.097 -9.043 -9.043 13.92 10.97 0.9145 3.963
5.505 -13.01 -39.02 -51.01 1.931 16.97 11.99 -23.07 3.963 17.99 0 -19 -10.06 6.91 7.926 -3.048 -1.016
5.51 1.931 -34.04 -30.08 8.942 20.93 8.942 -24.08 11.99 23.98 -5.081 -14.02 0 12.9 11.99 -3.048 1.931
5.515 0.9145 -35.06 -19 28.96 38.92 21.95 -11.08 25.91 37.9 6.91 -7.011 12.9 30.99 15.95 2.947 21.95
5.52 9.958 -13.01 -19 37.9 54.97 36.99 -7.011 36.99 53.96 30.99 -5.081 19.92 49.99 28.96 20.93 41.97
5.525 28.96 0 -2.032 41.97 56.9 22.96 2.947 42.98 59.95 25 1.931 30.99 44.91 30.99 26.93 35.97
5.53 4.979 -11.08 -8.027 40.95 46.94 2.947 5.995 35.97 51.92 2.947 2.947 21.95 19.92 6.91 10.97 16.97
5.535 -10.06 -26.01 -31.09 12.9 16.97 1.931 -6.097 19.92 27.94 -15.04 -7.011 0 0 -7.011 -1.016 -6.097
5.54 -17.07 -32.01 -34.04 0 -1.016 -4.064 -9.043 2.947 3.963 -23.07 -6.097 -3.048 -13.01 -9.043 -9.043 -19
5.545 -41.05 -44.1 -35.06 -3.048 -2.032 0.9145 -6.097 1.931 2.947 -10.06 -3.048 -1.016 -4.064 -14.02 -9.043 -12.09
5.55 -45.01 -47.05 -52.03 -18.09 -4.064 8.942 -20.02 -6.097 9.958 -2.032 -6.097 -10.06 -1.016 -12.09 -3.048 -10.06
5.555 -36.07 -47.05 -62.09 -27.03 -8.027 2.947 -24.08 -20.02 9.958 -10.06 -5.081 -18.09 0 -10.06 -13.01 -13.01
5.56 -46.03 -58.02 -49.08 -19 -13.01 0 -25.1 -22.05 5.995 -22.05 -1.016 -27.03 -9.043 -20.02 -29.06 -16.05
5.565 -46.03 -62.09 -58.02 -22.05 -14.02 -3.048 -35.06 -13.01 0 -31.09 -19 -42.07 -17.07 -27.03 -33.02 -20.02
5.57 -47.05 -63.1 -65.03 -25.1 -15.04 -14.02 -35.06 -19 -5.081 -29.06 -33.02 -43.08 -27.03 -25.1 -35.06 -25.1
5.575 -58.02 -60.05 -56.09 -24.08 -17.07 -16.05 -35.06 -24.08 -9.043 -20.02 -29.06 -32.01 -35.06 -28.04 -25.1 -34.04
5.58 -54.06 -74.08 -80.07 -38 -26.01 -27.03 -53.04 -23.07 -19 -23.07 -33.02 -32.01 -51.01 -37.09 -17.07 -48.06
5.585 -61.07 -91.04 -106.1 -51.01 -40.04 -37.09 -61.07 -40.04 -40.04 -36.07 -37.09 -34.04 -70.01 -46.03 -23.07 -63.1
5.59 -75.09 -85.05 -83.02 -53.04 -57 -33.02 -45.01 -49.08 -59.04 -51.01 -17.07 -33.02 -81.09 -53.04 -23.07 -77.02
5.595 -85.05 -79.05 -71.03 -45.01 -63.1 -34.04 -39.02 -35.06 -61.07 -71.03 -17.07 -31.09 -81.09 -63.1 -13.01 -81.09
5.6 -92.06 -78.04 -66.05 -39.02 -63.1 -29.06 -35.06 -32.01 -62.09 -76.01 -29.06 -28.04 -72.04 -68.08 -7.011 -64.02
5.605 -91.04 -71.03 -46.03 -37.09 -70.01 -14.02 -27.03 -40.04 -66.05 -66.05 -19 -32.01 -52.03 -68.08 -13.01 -43.08
5.61 -80.07 -76.01 -54.06 -35.06 -66.05 -10.06 -43.08 -37.09 -44.1 -59.04 -17.07 -42.07 -28.04 -65.03 -21.03 -14.02
5.615 -78.04 -80.07 -72.04 -28.04 -46.03 1.931 -53.04 -43.08 -29.06 -39.02 -25.1 -50.09 -3.048 -55.07 -23.07 8.942
5.62 -69.1 -65.03 -61.07 -30.08 -31.09 16.97 -45.01 -54.06 -12.09 -18.09 -19 -55.07 8.942 -40.04 -27.03 23.98
5.625 -59.04 -61.07 -57 -30.08 -25.1 0.9145 -49.08 -46.03 4.979 -30.08 -21.03 -49.08 8.942 -42.07 -19 19.92
5.63 -49.08 -63.1 -57 -25.1 -19 -19 -51.01 -35.06 -2.032 -39.02 -29.06 -31.09 1.931 -43.08 -5.081 17.99
5.635 -21.03 -47.05 -33.02 -13.01 -15.04 -17.07 -27.03 -23.07 -3.048 -25.1 -17.07 -11.08 3.963 -25.1 0.9145 17.99
5.64 -16.05 -32.01 -18.09 2.947 0.9145 -32.01 -5.081 -1.016 9.958 -34.04 -2.032 6.91 9.958 -16.05 14.94 15.95
5.645 -26.01 -18.09 -18.09 23.98 15.95 -34.04 5.995 11.99 15.95 -37.09 9.958 29.98 17.99 -16.05 38.92 25.91
5.65 -19 0 -14.02 32.92 27.94 -16.05 17.99 25 19.92 -10.06 25 42.98 32.92 -7.011 48.98 39.93
5.655 -19 0 -10.06 30.99 27.94 -23.07 15.95 20.93 32.92 -19 30.99 31.91 25 -8.027 44.91 35.97
5.66 -24.08 -6.097 -5.081 25 17.99 -23.07 13.92 10.97 19.92 -22.05 19.92 4.979 6.91 -5.081 26.93 21.95
5.665 -5.081 -5.081 -3.048 19.92 14.94 -2.032 18.9 1.931 10.97 1.931 12.9 -17.07 1.931 13.92 -1.016 13.92
5.67 -7.011 -15.04 -15.04 0 3.963 1.931 9.958 -25.1 17.99 -3.048 -3.048 -49.08 -15.04 7.926 -27.03 -1.016
5.675 -23.07 -29.06 -41.05 -17.07 -7.011 -1.016 -11.08 -45.01 0 -9.043 -27.03 -67.06 -31.09 -3.048 -51.01 -23.07
5.68 -12.09 -22.05 -57 -26.01 -5.081 7.926 -35.06 -49.08 -9.043 0.9145 -31.09 -64.02 -28.04 2.947 -53.04 -27.03
5.685 -13.01 -19 -56.09 -24.08 -3.048 -2.032 -39.02 -46.03 -1.016 -12.09 -34.04 -54.06 -32.01 0.9145 -49.08 -37.09
5.69 -32.01 -26.01 -43.08 -15.04 -2.032 -10.06 -26.01 -38 -10.06 -21.03 -36.07 -41.05 -35.06 0.9145 -37.09 -49.08
5.695 -29.06 -19 -39.02 -2.032 3.963 0 -23.07 -15.04 -13.01 5.995 -31.09 -13.01 -19 11.99 -15.04 -39.02
5.7 -29.06 -23.07 -48.06 1.931 1.931 -2.032 -37.09 -10.06 0.9145 -2.032 -28.04 -2.032 -16.05 0.9145 -1.016 -41.05
5.705 -42.07 -34.04 -48.06 -19 -8.027 -11.08 -38 -27.03 -20.02 -14.02 -22.05 -5.081 -33.02 -2.032 -1.016 -53.04
5.71 -21.03 -17.07 -39.02 -8.027 -5.081 -1.016 -25.1 -20.02 -28.04 0.9145 1.931 1.931 -27.03 18.9 6.91 -43.08
5.715 -28.04 -18.09 -35.06 -10.06 0.9145 0 -23.07 -27.03 -12.09 -5.081 0 1.931 -17.07 15.95 10.97 -30.08
5.72 -57 -35.06 -40.04 -29.06 -17.07 -1.016 -15.04 -45.01 -19 -6.097 -4.064 -15.04 -24.08 0 2.947 -29.06
5.725 -47.05 -35.06 -49.08 -24.08 -20.02 6.91 -9.043 -40.04 -26.01 1.931 0 -8.027 -14.02 2.947 8.942 -14.02
5.73 -38 -30.08 -55.07 -30.08 -17.07 4.979 -27.03 -35.06 -17.07 -9.043 -1.016 -12.09 -11.08 0 2.947 -3.048
5.735 -43.08 -19 -42.07 -34.04 -22.05 1.931 -25.1 -42.07 -21.03 -6.097 -7.011 -22.05 -16.05 0 -11.08 -2.032
5.74 -23.07 0.9145 -21.03 0 -7.011 14.94 -7.011 -16.05 -12.09 3.963 1.931 -5.081 0 14.94 -7.011 9.958
5.745 -33.02 -9.043 -30.08 0.9145 -1.016 15.95 -22.05 -9.043 2.947 1.931 -12.09 -4.064 13.92 9.958 -3.048 29.98
5.75 -59.04 -21.03 -45.01 -18.09 -13.01 6.91 -41.05 -32.01 1.931 -5.081 -25.1 -11.08 12.9 2.947 -15.04 33.94
5.755 -49.08 -15.04 -43.08 -13.01 -10.06 10.97 -32.01 -27.03 1.931 -19 -14.02 -1.016 25.91 3.963 -3.048 44.91
5.76 -39.02 -9.043 -45.01 -12.09 -5.081 16.97 -29.06 -16.05 9.958 -29.06 -9.043 11.99 38.92 2.947 4.979 61.98
5.765 -47.05 -11.08 -42.07 -18.09 -2.032 23.98 -32.01 -17.07 16.97 -7.011 -10.06 10.97 45.93 0 6.91 63.91
5.77 -35.06 -13.01 -39.02 -2.032 3.963 22.96 -15.04 -4.064 22.96 -2.032 0 17.99 53.96 2.947 16.97 65.95
5.775 -29.06 -21.03 -26.01 -2.032 -1.016 13.92 -5.081 1.931 19.92 -4.064 0.9145 6.91 42.98 2.947 8.942 50.91
5.78 -40.04 -12.09 -19 -12.09 -13.01 2.947 -21.03 -15.04 7.926 -9.043 -15.04 -10.06 17.99 4.979 -15.04 19.92
5.785 -39.02 1.931 -19 -8.027 -18.09 -1.016 -7.011 -18.09 1.931 -17.07 -13.01 -12.09 0.9145 0.9145 -27.03 8.942
5.79 -31.09 15.95 1.931 0.9145 -13.01 -1.016 17.99 -1.016 -3.048 -14.02 0.9145 0 1.931 1.931 -13.01 0
5.795 -40.04 14.94 5.995 6.91 -9.043 7.926 13.92 5.995 1.931 -1.016 15.95 18.9 1.931 7.926 8.942 1.931
5.8 -33.02 7.926 5.995 22.96 1.931 2.947 19.92 18.9 0.9145 0.9145 25 39.93 0 10.97 32.92 -2.032
5.805 -22.05 6.91 12.9 23.98 8.942 -7.011 28.96 23.98 2.947 -10.06 34.95 44 -3.048 14.94 44.91 -9.043
5.81 -25.1 3.963 -2.032 12.9 1.931 -10.06 -1.016 8.942 0 -22.05 22.96 32.92 -14.02 18.9 36.99 -23.07
5.815 -19 11.99 -25.1 0 5.995 -1.016 -11.08 0.9145 -2.032 -25.1 13.92 31.91 -5.081 13.92 34.95 -9.043
5.82 -14.02 18.9 -17.07 0 4.979 0.9145 4.979 -1.016 0.9145 -15.04 22.96 37.9 7.926 9.958 46.94 0
5.825 -37.09 0 -18.09 -2.032 -3.048 4.979 -5.081 1.931 3.963 -20.02 16.97 30.99 4.979 -1.016 36.99 0
5.83 -48.06 -10.06 -15.04 -6.097 -11.08 1.931 -11.08 -7.011 0.9145 -30.08 7.926 18.9 1.931 -12.09 22.96 3.963
5.835 -37.09 -1.016 -13.01 -5.081 -15.04 -3.048 0.9145 -7.011 -5.081 -31.09 7.926 7.926 -3.048 -7.011 16.97 0
5.84 -33.02 3.963 -25.1 -9.043 -17.07 0.9145 -13.01 -13.01 -3.048 -21.03 0 -3.048 -11.08 5.995 -1.016 -5.081
5.845 -17.07 27.94 -9.043 -1.016 -6.097 17.99 1.931 -10.06 0 0.9145 -1.016 -1.016 -1.016 21.95 2.947 3.963
5.85 0 44.91 7.926 8.942 5.995 29.98 13.92 2.947 3.963 14.94 1.931 8.942 20.93 37.9 10.97 23.98
5.855 -13.01 15.95 -1.016 4.979 17.99 31.91 -5.081 6.91 20.93 13.92 1.931 9.958 26.93 34.95 2.947 23.98
5.86 -21.03 3.963 0.9145 -1.016 21.95 28.96 -11.08 0.9145 23.98 0.9145 -2.032 14.94 40.95 21.95 2.947 31.91
5.865 -6.097 12.9 0.9145 -2.032 27.94 28.96 0.9145 0 29.98 1.931 1.931 29.98 59.95 30.99 26.93 49.99
5.87 -6.097 10.97 -14.02 -2.032 31.91 44.91 -5.081 -2.032 49.99 14.94 3.963 42.98 67.98 34.95 36.99 57.92
5.875 -31.09 1.931 -17.07 -11.08 21.95 53.96 0.9145 -7.011 53.96 13.92 5.995 37.9 63.91 21.95 38.92 59.95
5.88 -53.04 -11.08 -21.03 -17.07 0 51.92 -3.048 -15.04 37.9 5.995 7.926 23.98 47.96 7.926 36.99 49.99
5.885 -66.05 -36.07 -28.04 -29.06 -4.064 40.95 -21.03 -26.01 16.97 1.931 0.9145 -2.032 16.97 -2.032 2.947 20.93
5.89 -66.05 -35.06 -20.02 -46.03 -19 17.99 -21.03 -46.03 -4.064 -16.05 -17.07 -45.01 -12.09 -8.027 -43.08 -17.07
5.895 -31.09 -8.027 -7.011 -42.07 -20.02 1.931 -14.02 -53.04 -19 -18.09 -27.03 -66.05 -28.04 6.91 -69.1 -44.1
5.9 -7.011 5.995 -7.011 -25.1 1.931 5.995 -8.027 -38 -15.04 -1.016 -34.04 -63.1 -33.02 18.9 -81.09 -52.03
5.905 -12.09 8.942 -4.064 -21.03 1.931 5.995 -9.043 -38 -10.06 1.931 -29.06 -64.02 -45.01 17.99 -85.05 -72.04
5.91 -21.03 1.931 -1.016 -24.08 -13.01 6.91 -6.097 -40.04 -15.04 1.931 -10.06 -47.05 -55.07 15.95 -69.1 -83.02
5.915 -31.09 -5.081 5.995 -18.09 -11.08 4.979 0 -25.1 -15.04 0 -7.011 -17.07 -45.01 0.9145 -37.09 -75.09
5.92 -43.08 -13.01 0 -25.1 -23.07 -9.043 -2.032 -27.03 -27.03 -13.01 -1.016 -5.081 -43.08 -19 -25.1 -75.09
5.925 -44.1 -14.02 -6.097 -31.09 -36.07 -21.03 -9.043 -30.08 -32.01 -37.09 -3.048 -2.032 -37.09 -21.03 -11.08 -64.02
5.93 -41.05 -10.06 -7.011 -15.04 -22.05 -21.03 -4.064 -11.08 -23.07 -42.07 -15.04 0.9145 -22.05 -20.02 0.9145 -36.07
5.935 -30.08 0.9145 -10.06 -11.08 -15.04 -7.011 -12.09 -15.04 -16.05 -28.04 -18.09 -5.081 -18.09 -6.097 -7.011 -31.09
5.94 -21.03 3.963 -3.048 -18.09 -13.01 -6.097 -21.03 -29.06 -5.081 -21.03 -23.07 -29.06 -25.1 3.963 -29.06 -41.05
5.945 -21.03 0.9145 1.931 -5.081 0 -15.04 -12.09 -19 0.9145 -18.09 -35.06 -34.04 -24.08 -1.016 -37.09 -38
5.95 -18.09 0 -4.064 -2.032 -2.032 -17.07 -18.09 -18.09 -10.06 -15.04 -24.08 -36.07 -37.09 -2.032 -45.01 -45.01
5.955 -25.1 -1.016 -4.064 -8.027 -20.02 -35.06 -25.1 -24.08 -23.07 -33.02 -12.09 -40.04 -50.09 -4.064 -43.08 -50.09
5.96 -33.02 4.979 4.979 -4.064 -24.08 -37.09 -12.09 -11.08 -34.04 -38 -4.064 -28.04 -51.01 -6.097 -31.09 -42.07
5.965 -19 25 18.9 0 -24.08 -18.09 1.931 -9.043 -39.02 -20.02 11.99 -12.09 -40.04 0.9145 -15.04 -23.07
5.97 1.931 42.98 28.96 0.9145 -16.05 -5.081 7.926 0.9145 -24.08 -16.05 28.96 1.931 -19 9.958 2.947 -7.011
5.975 8.942 37.9 31.91 28.96 5.995 6.91 25 20.93 1.931 -2.032 27.94 21.95 8.942 11.99 25 16.97
5.98 17.99 27.94 19.92 41.97 27.94 33.94 25 29.98 18.9 11.99 25.91 41.97 34.95 20.93 42.98 46.94
5.985 7.926 14.94 0.9145 21.95 28.96 17.99 0 12.9 37.9 1.931 6.91 32.92 38.92 20.93 36.99 44.91
5.99 -15.04 1.931 1.931 4.979 25.91 9.958 -5.081 -2.032 35.97 3.963 -14.02 19.92 37.9 6.91 22.96 32.92
5.995 -23.07 0.9145 0.9145 -3.048 11.99 13.92 -14.02 -6.097 19.92 3.963 -21.03 1.931 23.98 0.9145 2.947 15.95
6 -23.07 0 -5.081 -20.02 -11.08 -1.016 -30.08 -26.01 5.995 -22.05 -23.07 -25.1 -11.08 -6.097 -23.07 -18.09
6.005 -39.02 -12.09 -5.081 -27.03 -29.06 -33.02 -22.05 -36.07 -17.07 -39.02 -39.02 -51.01 -45.01 -26.01 -45.01 -61.07
6.01 -43.08 -17.07 -18.09 -40.04 -47.05 -49.08 -23.07 -53.04 -55.07 -45.01 -44.1 -75.09 -89.01 -30.08 -71.03 -92.06
6.015 -35.06 -18.09 -28.04 -61.07 -68.08 -87.08 -39.02 -82 -79.05 -69.1 -44.1 -98.06 -134 -26.01 -93.08 -138.1
6.02 -27.03 -17.07 -13.01 -53.04 -65.03 -99.07 -28.04 -75.09 -92.06 -73.06 -39.02 -93.08 -152 -30.08 -101 -158
6.025 -10.06 0 1.931 -26.01 -49.08 -74.08 -6.097 -44.1 -98.06 -58.02 -15.04 -73.06 -144.1 -17.07 -95.01 -144.1
6.03 1.931 20.93 26.93 -4.064 -32.01 -53.04 0 -19 -78.04 -52.03 0 -48.06 -119.1 0 -79.05 -125.1
6.035 3.963 25 32.92 8.942 -8.027 -20.02 4.979 -1.016 -43.08 -24.08 -3.048 -24.08 -70.01 9.958 -55.07 -75.09
6.04 11.99 25 16.97 4.979 8.942 21.95 0.9145 3.963 -6.097 12.9 -2.032 -4.064 -5.081 28.96 -29.06 -10.06
6.045 17.99 22.96 6.91 1.931 20.93 29.98 -11.08 0 29.98 25.91 -14.02 2.947 34.95 42.98 -7.011 22.96
6.05 20.93 12.9 4.979 4.979 28.96 33.94 -24.08 -2.032 58.94 23.98 -34.04 -1.016 57.92 32.92 -9.043 44
6.055 31.91 22.96 15.95 9.958 32.92 37.9 -16.05 -5.081 59.95 25 -39.02 -12.09 60.97 28.96 -25.1 42.98
6.06 21.95 31.91 21.95 4.979 13.92 10.97 -17.07 -15.04 39.93 3.963 -45.01 -29.06 37.9 9.958 -45.01 15.95
6.065 0.9145 23.98 2.947 -1.016 -11.08 -7.011 -20.02 -17.07 14.94 -18.09 -42.07 -43.08 4.979 -14.02 -63.1 1.931
6.07 1.931 18.9 5.995 -7.011 -22.05 -5.081 -6.097 -13.01 -1.016 -18.09 -29.06 -36.07 1.931 -18.09 -59.04 0
6.075 -2.032 22.96 26.93 1.931 -16.05 -11.08 0 4.979 1.931 -25.1 -17.07 -4.064 1.931 -13.01 -33.02 -1.016
6.08 -5.081 21.95 35.97 15.95 -7.011 -21.03 0 23.98 7.926 -47.05 -11.08 11.99 0.9145 -21.03 -15.04 -2.032
6.085 -2.032 21.95 37.9 20.93 3.963 -30.08 13.92 23.98 11.99 -41.05 0.9145 21.95 -6.097 -21.03 0.9145 -7.011
6.09 0.9145 15.95 28.96 8.942 0 -56.09 12.9 10.97 0 -47.05 0 25.91 -31.09 -27.03 10.97 -29.06
6.095 -6.097 -1.016 2.947 -9.043 -18.09 -69.1 0.9145 -4.064 -18.09 -55.07 -3.048 10.97 -61.07 -25.1 2.947 -52.03
6.1 1.931 -1.016 11.99 -11.08 -19 -57 8.942 -12.09 -29.06 -41.05 4.979 1.931 -63.1 -12.09 0.9145 -56.09
6.105 7.926 2.947 31.91 -2.032 -14.02 -63.1 6.91 -15.04 -25.1 -50.09 11.99 -8.027 -62.09 -10.06 -3.048 -54.06
6.11 0.9145 9.958 25 -2.032 -21.03 -55.07 -3.048 -14.02 -30.08 -66.05 3.963 -27.03 -62.09 -8.027 -23.07 -55.07
6.115 0.9145 2.947 12.9 1.931 -16.05 -44.1 -7.011 -12.09 -28.04 -46.03 -3.048 -34.04 -46.03 -16.05 -19 -42.07
6.12 -1.016 -9.043 -13.01 -21.03 -23.07 -47.05 -31.09 -31.09 -37.09 -41.05 -27.03 -49.08 -43.08 -35.06 -33.02 -43.08
6.125 -9.043 -23.07 -41.05 -49.08 -33.02 -29.06 -49.08 -49.08 -49.08 -39.02 -47.05 -59.04 -43.08 -29.06 -53.04 -41.05
6.13 -16.05 -34.04 -38 -44.1 -27.03 -13.01 -51.01 -47.05 -36.07 -20.02 -53.04 -53.04 -33.02 -26.01 -45.01 -31.09
6.135 -34.04 -36.07 -46.03 -57 -41.05 -26.01 -65.03 -65.03 -40.04 -46.03 -61.07 -63.1 -57 -42.07 -55.07 -51.01
6.14 -41.05 -25.1 -38 -58.02 -57 -24.08 -65.03 -66.05 -63.1 -67.06 -63.1 -58.02 -78.04 -36.07 -63.1 -73.06
6.145 -35.06 -21.03 -8.027 -25.1 -43.08 -23.07 -43.08 -34.04 -61.07 -43.08 -53.04 -24.08 -68.08 -33.02 -31.09 -59.04
6.15 -10.06 -12.09 1.931 -28.04 -39.02 -34.04 -31.09 -27.03 -50.09 -44.1 -33.02 -13.01 -64.02 -35.06 -17.07 -55.07
6.155 0 -8.027 5.995 -23.07 -35.06 -27.03 -9.043 -14.02 -41.05 -43.08 -7.011 -6.097 -48.06 -21.03 -19 -50.09
6.16 -11.08 -27.03 9.958 0.9145 -21.03 -24.08 0.9145 9.958 -17.07 -31.09 -5.081 1.931 -19 -32.01 -3.048 -21.03
6.165 -29.06 -51.01 -11.08 -17.07 -33.02 -39.02 -15.04 -3.048 -15.04 -47.05 -15.04 -5.081 -9.043 -51.01 -9.043 -17.07
6.17 -28.04 -54.06 -19 -34.04 -33.02 -20.02 -21.03 -15.04 -22.05 -40.04 -13.01 -5.081 4.979 -33.02 -9.043 -3.048
6.175 -23.07 -49.08 -12.09 -16.05 -1.016 -1.016 -13.01 0.9145 5.995 -1.016 -19 12.9 40.95 -16.05 16.97 37.9
6.18 -14.02 -44.1 -24.08 -37.09 -1.016 7.926 -27.03 -8.027 22.96 0 -21.03 10.97 49.99 -1.016 20.93 50.91
6.185 -13.01 -43.08 -31.09 -53.04 -3.048 20.93 -35.06 -17.07 25.91 1.931 0.9145 13.92 45.93 16.97 22.96 45.93
6.19 -19 -51.01 -22.05 -30.08 5.995 34.95 -19 6.91 44 17.99 -1.016 40.95 63 4.979 44.91 65.95
6.195 -21.03 -49.08 -26.01 -25.1 -1.016 28.96 -17.07 12.9 36.99 4.979 -7.011 49.99 53.96 1.931 48.98 56.9
6.2 -17.07 -40.04 -22.05 -27.03 -10.06 19.92 -24.08 7.926 25.91 0 0.9145 42.98 29.98 -6.097 38.92 33.94
6.205 -17.07 -27.03 -9.043 -18.09 -18.09 -1.016 -14.02 7.926 19.92 -13.01 -11.08 27.94 0.9145 -26.01 25 9.958
6.21 -8.027 -18.09 -3.048 -31.09 -56.09 -32.01 -26.01 -10.06 -19 -49.08 -24.08 0.9145 -50.09 -41.05 -1.016 -35.06
6.215 -11.08 -24.08 -6.097 -50.09 -86.07 -54.06 -47.05 -44.1 -65.03 -74.08 -17.07 -32.01 -99.07 -62.09 -29.06 -83.02
6.22 -27.03 -39.02 -23.07 -56.09 -94.09 -79.05 -40.04 -54.06 -92.06 -92.06 -30.08 -51.01 -127 -81.09 -39.02 -109
6.225 -36.07 -45.01 -44.1 -64.02 -101 -102 -43.08 -65.03 -123.1 -118.1 -52.03 -76.01 -155.1 -89.01 -59.04 -137.1
6.23 -49.08 -48.06 -52.03 -81.09 -104.1 -121 -68.08 -85.05 -143.1 -128 -56.09 -102 -175.1 -94.09 -83.02 -163.1
6.235 -40.04 -42.07 -52.03 -86.07 -97.04 -113.1 -63.1 -91.04 -143.1 -121 -62.09 -113.1 -176.1 -89.01 -95.01 -162.1
6.24 -6.097 -21.03 -36.07 -69.1 -86.07 -101 -51.01 -81.09 -133 -111.1 -68.08 -114 -164 -62.09 -105.1 -159
6.245 7.926 -13.01 -29.06 -62.09 -74.08 -100.1 -60.05 -74.08 -119.1 -113.1 -65.03 -115 -158 -50.09 -119.1 -164
6.25 20.93 -5.081 -32.01 -53.04 -58.02 -105.1 -57 -69.1 -105.1 -103 -64.02 -114 -152 -34.04 -125.1 -157.1
6.255 36.99 0.9145 -30.08 -38 -43.08 -99.07 -49.08 -57 -97.04 -87.08 -62.09 -113.1 -145 -19 -133 -154
6.26 27.94 -1.016 -16.05 -37.09 -32.01 -105.1 -52.03 -61.07 -85.05 -84.03 -60.05 -112.1 -137.1 -20.02 -133 -156.1
6.265 22.96 0 -6.097 -34.04 -29.06 -92.06 -43.08 -65.03 -73.06 -70.01 -54.06 -102 -127 -15.04 -117.1 -147
6.27 31.91 1.931 0.9145 -24.08 -26.01 -73.06 -35.06 -52.03 -68.08 -58.02 -58.02 -85.05 -111.1 -9.043 -95.01 -137.1
6.275 11.99 -4.064 -14.02 -28.04 -30.08 -74.08 -49.08 -50.09 -63.1 -70.01 -73.06 -72.04 -101 -20.02 -83.02 -127
6.28 2.947 -8.027 -29.06 -37.09 -22.05 -54.06 -56.09 -40.04 -53.04 -55.07 -68.08 -43.08 -68.08 -15.04 -53.04 -95.01
6.285 11.99 -17.07 -39.02 -34.04 -6.097 -19 -54.06 -25.1 -23.07 -21.03 -69.1 -13.01 -21.03 -6.097 -19 -47.05
6.29 11.99 -38 -54.06 -41.05 0.9145 -1.016 -62.09 -17.07 5.995 -10.06 -78.04 6.91 19.92 1.931 0.9145 -4.064
6.295 19.92 -33.02 -48.06 -43.08 15.95 22.96 -63.1 -14.02 32.92 12.9 -59.04 31.91 57.92 17.99 18.9 32.92
6.3 31.91 -23.07 -42.07 -30.08 21.95 40.95 -51.01 -4.064 53.96 25.91 -35.06 48.98 82.92 14.94 34.95 63.91
6.305 15.95 -25.1 -45.01 -23.07 19.92 30.99 -37.09 1.931 61.98 0 -19 63.91 83.93 4.979 48.98 81.9
6.31 12.9 -12.09 -12.09 0.9145 27.94 35.97 -3.048 30.99 58.94 6.91 19.92 82.92 95.92 4.979 70.93 92.98
6.315 11.99 -11.08 -1.016 18.9 25.91 26.93 17.99 56.9 63.91 7.926 41.97 84.95 84.95 0 80.98 81.9
