    T[sec] Fp1 Fp2  F7  F3  F4  F8  T3  C3  C4  T4  T5  P3  P4  T6  O1  O2
41 192.1 192.1 192.1 192.1 192.1 192.1 192.1 192.1 192.1 192.1 192.1 192.1 192.1 192.1 192.1 192.1
0.625 7.973 14.91 9.942 15.95 21.95 7.973 -27.01 3.939 3.939 7.973 1.97 0.938 0 0.938 23.92 17.91
0.63 0 10.97 6.941 9.942 17.91 0 -13.04 3.939 4.971 8.911 2.908 -1.032 0.938 0 26.92 25.98
0.635 -5.065 4.971 1.97 1.97 9.942 -12.01 -3.001 0 1.97 -2.064 1.97 -2.064 1.97 1.97 28.98 20.92
0.64 -23.07 -9.004 -5.065 -21.01 0.938 -31.05 0 -23.07 -13.04 -11.07 -1.032 -17.07 -9.004 -9.004 25.98 11.91
0.645 -32.08 -19.04 -11.07 -39.02 -14.07 -42.02 0.938 -44.08 -32.08 -22.04 -1.032 -34.05 -24.01 -20.07 20.92 6.941
0.65 -40.05 -25.04 -16.04 -45.02 -24.01 -46.05 -9.004 -54.03 -50.09 -34.05 2.908 -44.08 -39.02 -30.01 18.95 0.938
0.655 -39.02 -25.04 -15.01 -39.02 -21.01 -47.09 -17.07 -47.09 -61.06 -39.02 -2.064 -41.08 -45.02 -35.08 17.91 5.909
0.66 -30.01 -13.04 -6.003 -18.01 -6.003 -45.02 -17.07 -23.07 -59.09 -36.02 -11.07 -27.01 -43.05 -34.05 23.92 10.97
0.665 -20.07 -1.032 1.97 0 2.908 -41.08 -11.07 0.938 -49.06 -32.08 -29.08 -5.065 -35.08 -26.08 27.95 11.91
0.67 -15.01 0.938 0.938 0 17.91 -33.02 -1.032 3.939 -41.08 -27.01 -35.08 0.938 -29.08 -23.07 29.92 5.909
0.675 -9.004 -5.065 0 0 21.95 -25.04 0 2.908 -33.02 -18.01 -25.04 -2.064 -25.04 -19.04 23.92 -3.001
0.68 -5.065 -13.04 -3.001 -12.01 21.95 -13.04 -1.032 -2.064 -27.01 -9.004 -5.065 -12.01 -27.01 -21.01 13.98 -19.04
0.685 0.938 -19.04 -7.035 -23.07 23.92 0.938 -13.04 -15.01 -19.04 -2.064 9.942 -23.07 -27.01 -23.07 3.939 -33.02
0.69 3.939 -17.07 -9.004 -21.01 27.95 7.973 -25.04 -16.04 -11.07 9.942 17.91 -20.07 -23.07 -23.07 0.938 -39.02
0.695 17.91 -9.004 -11.07 -11.07 37.99 15.95 -27.01 -16.04 0.938 17.91 7.973 -14.07 -13.04 -21.01 -1.032 -39.02
0.7 31.98 0.938 -11.07 -2.064 45.96 17.91 -21.01 -13.04 3.939 19.98 -3.001 -9.004 -5.065 -17.07 -2.064 -35.08
0.705 37.99 2.908 -13.04 5.909 49.99 15.95 -11.07 -9.004 9.942 15.95 -13.04 -7.035 -2.064 -15.01 0 -27.01
0.71 35.92 -1.032 -17.07 5.909 43.99 7.973 -7.035 -9.004 9.942 9.942 -13.04 -11.07 -2.064 -9.004 0 -17.07
0.715 21.95 -7.035 -23.07 0.938 31.98 1.97 -9.004 -7.035 5.909 3.939 -7.035 -17.07 0.938 -5.065 -1.032 -7.035
0.72 5.909 -19.04 -29.08 -11.07 19.98 0.938 -17.07 -9.004 1.97 1.97 -3.001 -23.07 -3.001 0.938 -9.004 -2.064
0.725 -1.032 -27.01 -35.08 -21.01 11.91 0.938 -25.04 -13.04 -2.064 3.939 -9.004 -29.08 -9.004 -2.064 -15.01 5.909
0.73 -9.004 -27.01 -35.08 -25.04 7.973 0.938 -29.08 -21.01 -3.001 5.909 -21.01 -33.02 -15.01 -2.064 -17.07 9.942
0.735 -7.035 -21.01 -27.01 -21.01 5.909 -2.064 -27.01 -29.08 -9.004 7.973 -33.02 -33.02 -19.04 -2.064 -11.07 9.942
0.74 -1.032 -11.07 -15.01 -11.07 5.909 -2.064 -21.01 -31.05 -13.04 11.91 -33.02 -29.08 -21.01 0 -1.032 9.942
0.745 -2.064 -3.001 0.938 -1.032 7.973 0.938 -17.07 -25.04 -15.01 11.91 -23.07 -19.04 -19.04 3.939 5.909 9.942
0.75 0 0.938 5.909 -2.064 15.95 -3.001 -15.01 -13.04 -11.07 9.942 -7.035 -9.004 -15.01 7.973 15.95 13.98
0.755 0.938 -1.032 5.909 -2.064 23.92 -7.035 -13.04 -3.001 -7.035 5.909 0.938 -3.001 -9.004 11.91 15.95 19.98
0.76 -5.065 -9.004 -2.064 -7.035 29.92 -11.07 -15.01 -1.032 -1.032 1.97 -1.032 -5.065 -9.004 11.91 9.942 25.98
0.765 -9.004 -17.07 -9.004 -19.04 27.95 -15.01 -19.04 -7.035 0.938 -2.064 -17.07 -17.07 -11.07 5.909 0 25.98
0.77 -9.004 -21.01 -17.07 -29.08 17.91 -17.07 -23.07 -16.04 -1.032 0.938 -37.05 -26.08 -15.01 0 -9.004 21.95
0.775 -7.035 -19.04 -21.01 -37.05 3.939 -19.04 -29.08 -26.08 -3.001 0.938 -53.09 -34.05 -21.01 -3.001 -21.01 11.91
0.78 -5.065 -19.04 -23.07 -37.05 -3.001 -23.07 -33.02 -29.08 -7.035 0.938 -59.09 -35.08 -27.01 -11.07 -31.05 0
0.785 -5.065 -19.04 -25.04 -35.08 -8.066 -27.01 -33.02 -30.01 -11.07 -5.065 -51.02 -36.02 -31.05 -19.04 -39.02 -9.004
0.79 -5.065 -19.04 -25.04 -26.08 -6.003 -29.08 -26.08 -26.08 -15.01 -9.004 -35.08 -32.08 -35.08 -25.04 -45.02 -21.01
0.795 -3.001 -15.01 -21.01 -17.07 0.938 -23.07 -17.07 -17.07 -15.01 -13.04 -17.07 -27.01 -33.02 -29.08 -43.05 -31.05
0.8 1.97 -3.001 -11.07 -2.064 12.94 -13.04 -4.033 0.938 -7.035 -9.004 -1.032 -17.07 -25.04 -31.05 -33.02 -34.05
0.805 15.95 8.911 0 8.911 24.95 -1.032 0.938 11.91 1.97 0 3.939 0.938 -11.07 -25.04 -19.04 -30.01
0.81 25.98 26.92 15.95 21.95 33.95 3.939 5.909 25.98 17.91 11.91 7.973 9.942 1.97 -19.04 -3.001 -23.07
0.815 27.95 32.92 25.98 28.98 37.99 5.909 8.911 36.96 31.98 22.98 8.911 24.95 19.98 -12.01 3.939 -12.01
0.82 21.95 30.95 21.95 25.98 33.95 0.938 8.911 35.92 35.92 20.92 12.94 28.98 29.92 -6.003 13.98 -4.033
0.825 9.942 18.95 9.942 13.98 21.95 -3.001 9.942 29.92 33.95 11.91 13.98 25.98 29.92 0.938 15.95 0
0.83 1.97 2.908 -1.032 1.97 12.94 -10.04 7.973 25.98 26.92 6.941 18.95 20.92 27.95 0.938 22.98 5.909
0.835 -8.066 2.908 -4.033 0 4.971 -8.066 4.971 20.92 18.95 5.909 16.98 17.91 19.98 5.909 24.95 7.973
0.84 -11.07 0.938 -7.035 -1.032 0.938 -3.001 0.938 15.95 11.91 5.909 5.909 11.91 13.98 5.909 23.92 11.91
0.845 -7.035 0.938 -5.065 0.938 -2.064 -2.064 -7.035 6.941 10.97 10.97 0 5.909 5.909 4.971 23.92 12.94
0.85 0.938 6.941 -4.033 2.908 -2.064 0.938 -12.01 0 6.941 12.94 -5.065 -2.064 -1.032 3.939 14.91 15.95
0.855 6.941 8.911 0.938 11.91 1.97 3.939 -13.04 -5.065 2.908 11.91 0 0.938 -2.064 7.973 11.91 19.98
0.86 19.98 8.911 -1.032 14.91 2.908 4.971 -6.003 -4.033 2.908 8.911 9.942 -3.001 -4.033 9.942 8.911 23.92
0.865 31.98 6.941 3.939 13.98 8.911 3.939 1.97 -1.032 2.908 10.97 26.92 -2.064 -5.065 16.98 5.909 28.98
0.87 31.98 8.911 7.973 13.98 7.973 5.909 9.942 7.973 5.909 15.95 29.92 5.909 -1.032 21.95 -2.064 27.95
0.875 26.92 6.941 8.911 12.94 4.971 6.941 12.94 14.91 8.911 23.92 22.98 13.98 1.97 25.98 -4.033 25.98
0.88 16.98 4.971 6.941 9.942 -1.032 8.911 7.973 13.98 10.97 24.95 6.941 18.95 7.973 22.98 -14.07 19.98
0.885 7.973 2.908 5.909 13.98 0.938 9.942 1.97 7.973 9.942 23.92 -5.065 17.91 13.98 15.95 -27.01 5.909
0.89 7.973 4.971 9.942 19.98 1.97 12.94 -1.032 9.942 11.91 18.95 -12.01 18.95 15.95 10.97 -39.02 0
0.895 17.91 12.94 17.91 30.95 11.91 19.98 4.971 18.95 17.91 12.94 -4.033 20.92 17.91 4.971 -43.05 -12.01
0.9 31.98 22.98 31.98 41.93 23.92 31.98 19.98 29.92 23.92 11.91 1.97 21.95 17.91 -1.032 -39.02 -27.01
0.905 39.96 32.92 43.99 52.99 34.99 41.93 40.99 43.99 31.98 13.98 13.98 29.92 15.95 -5.065 -29.08 -34.05
0.91 41.93 36.96 45.96 56.93 38.93 43.99 48.96 49.99 39.96 19.98 23.92 33.95 17.91 -7.035 -11.07 -34.05
0.915 33.95 32.92 43.99 49.99 33.95 39.96 43.99 45.96 41.93 21.95 29.92 31.98 17.91 -3.001 0 -29.08
0.92 21.95 22.98 33.95 36.96 24.95 27.95 28.98 36.96 37.99 15.95 31.98 28.98 19.98 0.938 9.942 -17.07
0.925 5.909 6.941 21.95 15.95 8.911 11.91 3.939 18.95 23.92 3.939 25.98 14.91 13.98 -2.064 11.91 -3.001
0.93 -3.001 -7.035 7.973 -2.064 -3.001 1.97 -11.07 0.938 5.909 -5.065 11.91 -5.065 3.939 -2.064 5.909 5.909
0.935 -11.07 -21.01 0 -13.04 -21.01 0.938 -19.04 -20.07 -9.004 -17.07 -1.032 -26.08 -3.001 0.938 0 15.95
0.94 -15.01 -27.01 0.938 -19.04 -29.08 -2.064 -15.01 -36.02 -23.07 -23.07 -19.04 -42.02 -13.04 -1.032 -2.064 21.95
0.945 -11.07 -25.04 -1.032 -19.04 -31.05 1.97 -7.035 -43.05 -29.08 -21.01 -25.04 -45.02 -19.04 -2.064 1.97 25.98
0.95 -3.001 -21.01 -1.032 -15.01 -27.01 5.909 -1.032 -37.05 -25.04 -15.01 -19.04 -35.08 -15.01 3.939 5.909 23.92
0.955 0 -17.07 0.938 -11.07 -21.01 5.909 0.938 -23.07 -19.04 -9.004 -5.065 -23.07 -11.07 9.942 3.939 19.98
0.96 5.909 -15.01 0.938 -9.004 -17.07 5.909 -3.001 -9.004 -13.04 -7.035 0 -17.07 -11.07 9.942 0.938 11.91
0.965 7.973 -15.01 -2.064 -5.065 -15.01 3.939 -7.035 -3.001 -13.04 -11.07 0 -21.01 -15.01 1.97 -13.04 1.97
0.97 5.909 -13.04 0 -3.001 -13.04 5.909 -7.035 -5.065 -17.07 -11.07 -5.065 -27.01 -23.07 -3.001 -25.04 -3.001
0.975 7.973 -11.07 1.97 -1.032 -9.004 9.942 -5.065 -9.004 -17.07 -11.07 -19.04 -31.05 -27.01 -13.04 -33.02 -11.07
0.98 13.98 -3.001 5.909 -2.064 -1.032 15.95 -1.032 -7.035 -15.01 -5.065 -29.08 -23.07 -27.01 -17.07 -31.05 -15.01
0.985 23.92 0.938 11.91 3.939 5.909 21.95 -2.064 0 -5.065 0.938 -25.04 -5.065 -21.01 -15.01 -27.01 -19.04
0.99 35.92 10.97 17.91 15.95 19.98 27.95 1.97 21.95 0 0 -13.04 9.942 -11.07 -9.004 -23.07 -21.01
0.995 47.93 20.92 21.95 27.95 31.98 33.95 7.973 43.99 9.942 3.939 0.938 25.98 -2.064 -1.032 -21.01 -17.07
1 51.96 24.95 19.98 37.99 39.96 41.93 13.98 59.94 19.98 11.91 7.973 31.98 11.91 3.939 -17.07 -7.035
1.005 51.96 24.95 15.95 43.99 45.96 47.93 21.95 59.94 29.92 23.92 11.91 32.92 31.98 17.91 -13.04 7.973
1.01 47.93 20.92 9.942 39.96 47.93 49.99 23.92 45.96 39.96 33.95 9.942 27.95 51.96 35.92 -3.001 29.92
1.015 43.99 10.97 6.941 32.92 47.93 47.93 19.98 30.95 49.99 41.93 9.942 26.92 69.97 49.99 1.97 43.99
1.02 37.99 2.908 2.908 22.98 41.93 41.93 13.98 22.98 56 37.99 9.942 30.95 77.94 52.99 13.98 44.93
1.025 31.98 -1.032 1.97 15.95 29.92 33.95 5.909 25.98 53.93 25.98 11.91 39.96 73.91 39.96 25.98 31.98
1.03 22.98 -5.065 2.908 12.94 14.91 21.95 0 36.96 41.93 9.942 15.95 50.93 57.97 18.95 39.96 12.94
1.035 10.97 -9.004 -1.032 10.97 1.97 9.942 0 44.93 23.92 -1.032 19.98 62 35.92 1.97 53.93 -1.032
1.04 -2.064 -17.07 -5.065 5.909 -13.04 0 5.909 37.99 7.973 -7.035 19.98 59.94 13.98 -9.004 63.97 0.938
1.045 -4.033 -19.04 -14.07 0 -22.04 0.938 11.91 17.91 -1.032 -6.003 23.92 51.96 3.939 -2.064 75.97 4.971
1.05 -6.003 -21.01 -19.04 -3.001 -24.01 1.97 15.95 -2.064 -7.035 0 27.95 36.96 0 6.941 73.91 19.98
1.055 -5.065 -23.07 -23.07 -11.07 -21.01 1.97 11.91 -15.01 -7.035 0.938 27.95 15.95 3.939 19.98 62 29.92
1.06 0.938 -19.04 -21.01 -14.07 -18.01 8.911 0 -20.07 -9.004 1.97 21.95 0.938 3.939 23.92 35.92 29.92
1.065 0.938 -15.01 -16.04 -17.07 -19.04 8.911 -13.04 -19.04 -13.04 -4.033 7.973 -19.04 0.938 14.91 0 16.98
1.07 -1.032 -15.01 -11.07 -17.07 -25.04 3.939 -27.01 -21.01 -19.04 -11.07 -3.001 -33.02 -11.07 0.938 -29.08 0.938
1.075 -2.064 -11.07 -5.065 -13.04 -30.01 0 -29.08 -23.07 -24.01 -11.07 -9.004 -36.02 -26.08 -11.07 -53.09 -15.01
1.08 -3.001 -3.001 0 -1.032 -32.08 -5.065 -21.01 -21.01 -26.08 -13.04 -4.033 -28.04 -32.08 -20.07 -61.06 -22.04
1.085 -2.064 -1.032 1.97 5.909 -33.02 -13.04 -7.035 -19.04 -25.04 -13.04 -2.064 -15.01 -29.08 -25.04 -55.06 -29.08
1.09 5.909 10.97 8.911 19.98 -26.08 -11.07 2.908 -7.035 -17.07 -13.04 6.941 1.97 -18.01 -25.04 -46.05 -30.01
1.095 10.97 16.98 12.94 28.98 -21.01 -10.04 8.911 3.939 -15.01 -12.01 0 9.942 -6.003 -27.01 -40.05 -35.08
1.1 11.91 18.95 16.98 31.98 -8.066 -4.033 10.97 18.95 -10.04 -12.01 -6.003 21.95 -1.032 -30.01 -39.02 -46.05
1.105 12.94 18.95 18.95 30.95 0.938 -1.032 10.97 25.98 -1.032 -6.003 -13.04 21.95 4.971 -31.05 -42.02 -49.06
1.11 13.98 20.92 18.95 29.92 10.97 9.942 16.98 27.95 5.909 0 -10.04 23.92 12.94 -25.04 -38.08 -48.02
1.115 19.98 18.95 17.91 33.95 23.92 19.98 23.92 27.95 21.95 11.91 0 25.98 19.98 -9.004 -27.01 -33.02
1.12 27.95 20.92 14.91 39.96 30.95 29.92 29.92 27.95 36.96 21.95 14.91 30.95 32.92 4.971 -9.004 -12.01
1.125 36.96 14.91 3.939 37.99 24.95 28.98 29.92 23.92 44.93 23.92 17.91 36.96 40.99 21.95 1.97 5.909
1.13 33.95 6.941 -9.004 27.95 9.942 19.98 17.91 15.95 39.96 13.98 3.939 33.95 39.96 29.92 11.91 21.95
1.135 23.92 -3.001 -30.01 9.942 0.938 8.911 3.939 9.942 29.92 0.938 -9.004 27.95 33.95 30.95 15.95 28.98
1.14 15.95 -19.04 -47.09 -4.033 -14.07 0.938 -1.032 2.908 15.95 0 -21.01 21.95 21.95 25.98 15.95 27.95
1.145 5.909 -31.05 -55.06 -19.04 -19.04 0.938 -9.004 0 0 -3.001 -19.04 11.91 9.942 23.92 17.91 25.98
1.15 10.97 -33.02 -53.09 -21.01 -16.04 0 -7.035 0.938 -3.001 1.97 -5.065 4.971 0 22.98 19.98 25.98
1.155 18.95 -31.05 -50.09 -19.04 -12.01 -1.032 -7.035 -3.001 -7.035 -1.032 1.97 0.938 -2.064 22.98 21.95 26.92
1.16 23.92 -29.08 -45.02 -13.04 -11.07 -3.001 -9.004 -13.04 -9.004 0.938 5.909 -7.035 -1.032 19.98 11.91 25.98
1.165 22.98 -25.04 -44.08 -10.04 -12.01 -7.035 -15.01 -26.08 -13.04 -5.065 -2.064 -23.07 -7.035 18.95 -1.032 22.98
1.17 14.91 -25.04 -46.05 -10.04 -18.01 -13.04 -23.07 -44.08 -17.07 -9.004 -11.07 -46.05 -17.07 12.94 -27.01 12.94
1.175 0 -27.01 -47.09 -13.04 -21.01 -17.07 -33.02 -57.03 -23.07 -11.07 -27.01 -65 -29.08 1.97 -51.02 1.97
1.18 -5.065 -27.01 -46.05 -14.07 -17.07 -17.07 -37.05 -58.06 -25.04 -11.07 -41.08 -74 -37.05 -2.064 -65 -2.064
1.185 -9.004 -25.04 -41.08 -10.04 -11.07 -15.01 -39.02 -52.06 -23.07 -7.035 -55.06 -70.07 -37.05 -11.07 -69.03 -9.004
1.19 -5.065 -23.07 -31.05 -7.035 -5.065 -9.004 -37.05 -39.02 -19.04 -5.065 -61.06 -57.03 -29.08 -17.07 -71 -13.04
1.195 -1.032 -17.07 -21.01 -3.001 -3.001 -3.001 -35.08 -25.04 -11.07 -5.065 -61.06 -38.08 -19.04 -21.01 -75.04 -19.04
1.2 -2.064 -11.07 -9.004 -1.032 -5.065 0.938 -33.02 -13.04 -5.065 -7.035 -51.02 -23.07 -9.004 -23.07 -85.07 -29.08
1.205 -2.064 -5.065 -3.001 -1.032 -7.035 -2.064 -33.02 -5.065 -3.001 -5.065 -39.02 -15.01 -7.035 -23.07 -93.05 -37.05
1.21 -1.032 -3.001 -1.032 0.938 -7.035 0 -31.05 0.938 -3.001 -3.001 -29.08 -11.07 -9.004 -19.04 -91.08 -39.02
1.215 -3.001 0.938 0.938 -2.064 -3.001 1.97 -25.04 -2.064 -3.001 -2.064 -19.04 -3.001 -7.035 -13.04 -75.04 -31.05
1.22 0.938 0.938 0 3.939 -2.064 3.939 -9.004 1.97 -2.064 5.909 -9.004 5.909 -2.064 -1.032 -43.05 -11.07
1.225 3.939 6.941 5.909 11.91 1.97 3.939 9.942 9.942 7.973 13.98 1.97 23.92 15.95 5.909 -5.065 7.973
1.23 11.91 10.97 11.91 17.91 3.939 1.97 31.98 17.91 21.95 17.91 19.98 41.93 35.92 17.91 21.95 29.92
1.235 13.98 10.97 11.91 15.95 1.97 0 41.93 23.92 31.98 17.91 35.92 51.96 49.99 27.95 41.93 43.99
1.24 7.973 4.971 5.909 5.909 0.938 -3.001 39.96 23.92 31.98 13.98 41.93 49.99 47.93 29.92 51.96 47.93
1.245 0.938 -3.001 -3.001 -1.032 -9.004 -9.004 21.95 17.91 19.98 7.973 33.95 37.99 35.92 29.92 56 47.93
1.25 -11.07 -17.07 -15.01 -15.01 -21.01 -17.07 0 7.973 1.97 0 19.98 23.92 19.98 25.98 59.94 47.93
1.255 -21.01 -25.04 -23.07 -21.01 -31.05 -19.04 -9.004 -2.064 -11.07 -1.032 7.973 13.98 9.942 21.95 63.97 49.99
1.26 -23.07 -29.08 -21.01 -17.07 -37.05 -19.04 -13.04 -3.001 -21.01 -3.001 5.909 11.91 5.909 19.98 69.97 51.96
1.265 -21.01 -25.04 -15.01 -7.035 -39.02 -15.01 -9.004 -1.032 -23.07 -3.001 11.91 17.91 9.942 19.98 71.94 53.93
1.27 -15.01 -17.07 -7.035 -2.064 -33.02 -11.07 -1.032 0 -15.01 -1.032 21.95 25.98 15.95 17.91 71.94 51.96
1.275 -7.035 -9.004 -1.032 5.909 -25.04 -5.065 -2.064 4.971 -5.065 0.938 25.98 30.95 19.98 17.91 65.94 45.96
1.28 0.938 -3.001 -1.032 7.973 -17.07 -3.001 0.938 8.911 -2.064 -2.064 27.95 28.98 17.91 16.98 51.96 37.99
1.285 1.97 -1.032 -3.001 7.973 -11.07 -1.032 -1.032 7.973 1.97 0.938 25.98 19.98 9.942 11.91 29.92 27.95
1.29 3.939 -1.032 -3.001 7.973 -7.035 -1.032 -2.064 4.971 0.938 -2.064 21.95 6.941 2.908 4.971 1.97 13.98
1.295 9.942 -1.032 0.938 11.91 -9.004 0.938 0 0.938 1.97 -6.003 11.91 -1.032 -1.032 -2.064 -23.07 1.97
1.3 11.91 -1.032 1.97 19.98 -9.004 5.909 -2.064 1.97 0.938 -9.004 -2.064 -1.032 -2.064 -13.04 -49.06 -15.01
1.305 19.98 4.971 7.973 26.92 -5.065 12.94 4.971 11.91 2.908 -6.003 -13.04 -1.032 6.941 -16.04 -62.09 -22.04
1.31 25.98 10.97 11.91 30.95 -1.032 18.95 12.94 19.98 8.911 1.97 -23.07 7.973 18.95 -9.004 -62.09 -16.04
1.315 29.92 14.91 13.98 31.98 0 19.98 17.91 27.95 17.91 3.939 -21.01 17.91 27.95 -1.032 -49.06 -3.001
1.32 29.92 16.98 12.94 26.92 1.97 13.98 25.98 26.92 25.98 9.942 -10.04 28.98 35.92 5.909 -26.08 10.97
1.325 19.98 10.97 6.941 17.91 -2.064 1.97 23.92 17.91 20.92 5.909 2.908 28.98 30.95 14.91 -4.033 23.92
1.33 1.97 0.938 0 3.939 -21.01 -5.065 17.91 1.97 9.942 -1.032 17.91 17.91 17.91 9.942 9.942 19.98
1.335 -5.065 -9.004 1.97 0 -40.05 -15.01 7.973 -5.065 -2.064 -14.07 27.95 4.971 2.908 -2.064 24.95 10.97
1.34 -13.04 -15.01 -1.032 -4.033 -51.02 -20.07 2.908 -12.01 -14.07 -21.01 31.98 -3.001 -8.066 -10.04 28.98 -1.032
1.345 -9.004 -13.04 3.939 -5.065 -44.08 -18.01 -1.032 -16.04 -28.04 -21.01 28.98 -16.04 -20.07 -21.01 23.92 -5.065
1.35 0.938 -5.065 6.941 -6.003 -33.02 -12.01 -1.032 -16.04 -30.01 -13.04 27.95 -19.04 -22.04 -22.04 14.91 -10.04
1.355 3.939 0.938 3.939 -6.003 -18.01 -9.004 0 -17.07 -28.04 -6.003 21.95 -22.04 -18.01 -21.01 0.938 -12.01
1.36 5.909 0.938 -3.001 -9.004 -15.01 -7.035 -1.032 -15.01 -25.04 -1.032 13.98 -19.04 -17.07 -15.01 -1.032 -15.01
1.365 0 -5.065 -10.04 -13.04 -20.07 -1.032 -11.07 -15.01 -20.07 -1.032 2.908 -14.07 -14.07 -12.01 0 -15.01
1.37 -3.001 -15.01 -18.01 -16.04 -31.05 1.97 -23.07 -10.04 -17.07 1.97 -2.064 -18.01 -13.04 -13.04 1.97 -16.04
1.375 -13.04 -19.04 -17.07 -19.04 -33.02 0 -35.08 -11.07 -15.01 0.938 -9.004 -23.07 -17.07 -13.04 0 -13.04
1.38 -15.01 -11.07 -9.004 -12.01 -29.08 6.941 -32.08 -11.07 -12.01 0.938 -11.07 -21.01 -12.01 -9.004 1.97 -8.066
1.385 -11.07 2.908 0.938 -2.064 -15.01 12.94 -24.01 -9.004 -8.066 8.911 -5.065 -22.04 -2.064 -4.033 -8.066 -6.003
1.39 -5.065 12.94 3.939 1.97 -3.001 15.95 -9.004 -9.004 -3.001 13.98 -2.064 -19.04 1.97 -1.032 -25.04 -7.035
1.395 1.97 22.98 7.973 11.91 3.939 20.92 0 -2.064 2.908 18.95 1.97 -16.04 10.97 1.97 -43.05 -12.01
1.4 11.91 26.92 9.942 17.91 9.942 24.95 -1.032 0.938 14.91 16.98 3.939 -14.07 16.98 0 -57.03 -23.07
1.405 21.95 26.92 13.98 21.95 15.95 25.98 0.938 5.909 27.95 17.91 0 -13.04 19.98 -7.035 -67.06 -27.01
1.41 29.92 28.98 19.98 23.92 21.95 27.95 -1.032 8.911 37.99 19.98 -3.001 -14.07 23.92 -12.01 -69.03 -29.08
1.415 37.99 34.99 25.98 27.95 27.95 27.95 0.938 8.911 45.96 25.98 -11.07 -8.066 29.92 -9.004 -65 -25.04
1.42 43.99 44.93 27.95 31.98 31.98 29.92 3.939 3.939 47.93 29.92 -19.04 -1.032 35.92 -5.065 -55.06 -19.04
1.425 47.93 54.96 23.92 39.96 33.95 33.95 13.98 5.909 41.93 31.98 -23.07 1.97 39.96 0 -43.05 -15.01
1.43 47.93 59 15.95 47.93 35.92 39.96 19.98 7.973 35.92 27.95 -23.07 9.942 37.99 7.973 -27.01 -11.07
1.435 45.96 56.93 9.942 51.96 37.99 41.93 19.98 15.95 31.98 23.92 -19.04 15.95 31.98 9.942 -5.065 -9.004
1.44 41.93 52.99 7.973 53.93 43.99 41.93 13.98 21.95 29.92 21.95 -15.01 21.95 25.98 5.909 13.98 -9.004
1.445 37.99 46.99 11.91 49.99 49.99 33.95 3.939 23.92 31.98 19.98 -11.07 25.98 21.95 -2.064 35.92 -11.07
1.45 35.92 42.96 15.95 43.99 53.93 21.95 0 25.98 33.95 19.98 -9.004 29.92 19.98 -5.065 47.93 -11.07
1.455 29.92 36.96 15.95 37.99 49.99 9.942 1.97 25.98 31.98 15.95 -5.065 31.98 17.91 -9.004 51.96 -11.07
1.46 19.98 28.98 11.91 31.98 37.99 1.97 7.973 25.98 25.98 7.973 -1.032 27.95 11.91 -9.004 47.93 -11.07
1.465 7.973 18.95 0 27.95 21.95 -2.064 11.91 23.92 11.91 0 0 19.98 1.97 -5.065 39.96 -9.004
1.47 -1.032 6.941 -9.004 17.91 7.973 0.938 7.973 15.95 -2.064 -1.032 3.939 7.973 -5.065 0.938 31.98 -3.001
1.475 -13.04 -1.032 -21.01 5.909 1.97 -1.032 -2.064 1.97 -7.035 -1.032 3.939 -3.001 -11.07 0 25.98 0
1.48 -21.01 -13.04 -29.08 -7.035 0 -5.065 -11.07 -13.04 -13.04 0.938 -2.064 -17.07 -11.07 1.97 19.98 7.973
1.485 -23.07 -23.07 -31.05 -21.01 1.97 -9.004 -21.01 -29.08 -15.01 -2.064 -3.001 -27.01 -7.035 0 9.942 13.98
1.49 -25.04 -27.01 -29.08 -25.04 0 -11.07 -25.04 -39.02 -17.07 -2.064 -9.004 -30.01 -5.065 0.938 0 13.98
1.495 -23.07 -25.04 -23.07 -21.01 0 -9.004 -21.01 -34.05 -17.07 0.938 -13.04 -26.08 -5.065 0.938 -5.065 9.942
1.5 -17.07 -15.01 -15.01 -5.065 0 -5.065 -13.04 -21.01 -17.07 -1.032 -11.07 -15.01 -5.065 -2.064 -9.004 7.973
1.505 -3.001 0.938 -5.065 10.97 3.939 -2.064 -1.032 0 -11.07 -2.064 -7.035 1.97 -1.032 3.939 -11.07 11.91
1.51 9.942 16.98 2.908 30.95 17.91 7.973 3.939 14.91 -1.032 7.973 -1.032 12.94 5.909 12.94 -9.004 21.95
1.515 27.95 36.96 15.95 45.96 35.92 13.98 11.91 31.98 15.95 17.91 0 25.98 23.92 17.91 -5.065 31.98
1.52 40.99 46.99 30.95 56.93 50.93 17.91 13.98 46.99 38.93 27.95 5.909 39.96 43.99 18.95 0 40.99
1.525 42.96 48.96 38.93 60.97 59 15.95 13.98 57.97 54.96 30.95 7.973 49.99 57.97 14.91 6.941 42.96
1.53 29.92 44.93 39.96 57.97 56 9.942 11.91 63.97 62 21.95 3.939 53.93 62 7.973 25.98 39.96
1.535 10.97 36.96 34.99 53.93 50.93 -2.064 11.91 67.91 56.93 8.911 -2.064 59 51.96 0.938 50.93 34.99
1.54 -4.033 26.92 25.98 39.96 36.96 -13.04 13.98 59 41.93 -4.033 -2.064 54.96 30.95 0.938 68.94 26.92
1.545 -19.04 12.94 11.91 17.91 19.98 -33.02 15.95 29.92 15.95 -23.07 5.909 33.95 1.97 -7.035 75.97 17.91
1.55 -29.08 -3.001 1.97 -4.033 2.908 -51.02 12.94 -3.001 -11.07 -38.08 19.98 3.939 -24.01 -15.01 69.97 7.973
1.555 -39.02 -27.01 0 -34.05 -11.07 -69.03 -1.032 -42.02 -44.08 -51.02 30.95 -22.04 -54.03 -24.01 57.97 -1.032
1.56 -49.06 -53.09 -7.035 -61.06 -33.02 -81.04 -19.04 -71 -71 -65 27.95 -51.02 -77.01 -37.05 45.96 -17.07
1.565 -56.09 -67.06 -11.07 -74 -42.02 -84.04 -36.02 -84.04 -87.04 -73.07 14.91 -63.03 -90.04 -41.08 42.96 -24.01
1.57 -59.09 -67.06 -16.04 -74 -44.08 -76.07 -44.08 -82.07 -94.08 -70.07 -2.064 -67.06 -89.01 -38.08 43.99 -21.01
1.575 -55.06 -59.09 -19.04 -65 -35.08 -59.09 -47.09 -77.01 -89.01 -57.03 -21.01 -65 -79.07 -23.07 37.99 -15.01
1.58 -42.02 -45.02 -23.07 -51.02 -18.01 -37.05 -40.05 -70.07 -77.01 -35.08 -29.08 -60.03 -61.06 0 25.98 1.97
1.585 -30.01 -33.02 -28.04 -37.05 -1.032 -17.07 -37.05 -66.03 -56.09 -10.04 -27.01 -60.03 -43.05 13.98 3.939 10.97
1.59 -22.04 -25.04 -32.08 -31.05 6.941 -6.003 -34.05 -58.06 -38.08 0.938 -22.04 -61.06 -24.01 23.92 -14.07 18.95
1.595 -18.01 -25.04 -28.04 -23.07 15.95 -1.032 -31.05 -44.08 -22.04 6.941 -23.07 -56.09 -5.065 23.92 -27.01 18.95
1.6 -10.04 -21.01 -15.01 -13.04 24.95 0.938 -22.04 -24.01 -5.065 5.909 -25.04 -40.05 5.909 10.97 -33.02 9.942
1.605 -1.032 -7.035 -2.064 0.938 33.95 0 -9.004 -5.065 5.909 3.939 -27.01 -19.04 17.91 0.938 -39.02 -3.001
1.61 9.942 6.941 22.98 14.91 50.93 12.94 4.971 8.911 22.98 8.911 -20.07 -2.064 31.98 -8.066 -45.02 -15.01
1.615 28.98 30.95 41.93 40.99 70.91 28.98 22.98 26.92 39.96 21.95 -10.04 15.95 38.93 -7.035 -52.06 -28.04
1.62 45.96 48.96 49.99 59.94 93.98 43.99 31.98 45.96 53.93 33.95 -2.064 25.98 45.96 -3.001 -57.03 -27.01
1.625 56 62.94 50.93 78.98 115.9 53.93 36.96 66.97 66.97 47.93 8.911 32.92 50.93 2.908 -47.09 -15.01
1.63 63.97 70.91 43.99 84.98 121 53.93 38.93 83.95 71.94 50.93 13.98 41.93 54.96 7.973 -31.05 -5.065
1.635 59.94 68.94 37.99 77.94 115.9 45.96 31.98 87.98 73.91 41.93 11.91 45.96 49.99 9.942 -9.004 0
1.64 50.93 60.97 31.98 63.97 96.98 29.92 27.95 74.94 67.91 28.98 9.942 44.93 38.93 9.942 6.941 6.941
1.645 30.95 44.93 20.92 43.99 64.91 7.973 17.91 45.96 46.99 8.911 5.909 36.96 17.91 2.908 20.92 4.971
1.65 5.909 22.98 7.973 17.91 31.98 -11.07 11.91 11.91 21.95 -7.035 7.973 17.91 0.938 -5.065 29.92 1.97
1.655 -12.01 0.938 -1.032 0.938 0.938 -31.05 3.939 -7.035 1.97 -20.07 11.91 3.939 -19.04 -14.07 38.93 -1.032
1.66 -32.08 -11.07 -8.066 -10.04 -14.07 -47.09 0.938 -22.04 -22.04 -31.05 17.91 -3.001 -35.08 -24.01 44.93 1.97
1.665 -47.09 -27.01 -19.04 -21.01 -31.05 -57.03 -3.001 -29.08 -41.08 -39.02 21.95 -13.04 -47.09 -31.05 47.93 -5.065
1.67 -53.09 -31.05 -24.01 -26.08 -43.05 -61.06 -9.004 -30.01 -54.03 -43.05 15.95 -18.01 -57.03 -34.05 39.96 -13.04
1.675 -53.09 -35.08 -25.04 -26.08 -53.09 -59.09 -15.01 -36.02 -63.03 -49.06 -2.064 -24.01 -67.06 -37.05 21.95 -23.07
1.68 -51.02 -29.08 -23.07 -25.04 -59.09 -53.09 -23.07 -43.05 -67.06 -53.09 -19.04 -33.02 -71 -35.08 0 -31.05
1.685 -47.09 -23.07 -19.04 -19.04 -59.09 -47.09 -33.02 -44.08 -67.06 -51.02 -39.02 -42.02 -71 -29.08 -17.07 -29.08
1.69 -39.02 -15.01 -17.07 -11.07 -47.09 -37.05 -39.02 -41.08 -59.09 -41.08 -49.06 -48.02 -63.03 -19.04 -33.02 -19.04
1.695 -23.07 -5.065 -11.07 0.938 -29.08 -23.07 -39.02 -29.08 -47.09 -27.01 -47.09 -51.02 -49.06 -7.035 -41.08 -5.065
1.7 -1.032 0.938 0.938 9.942 -5.065 -7.035 -29.08 -13.04 -27.01 -13.04 -35.08 -41.08 -29.08 0 -41.08 1.97
1.705 19.98 12.94 11.91 25.98 13.98 1.97 -9.004 1.97 -5.065 -1.032 -21.01 -23.07 -9.004 5.909 -35.08 3.939
1.71 39.96 26.92 31.98 43.99 31.98 15.95 11.91 19.98 11.91 0 -9.004 -1.032 1.97 5.909 -25.04 0
1.715 53.93 40.99 49.99 59.94 41.93 21.95 37.99 33.95 31.98 1.97 0.938 17.91 17.91 1.97 -15.01 -1.032
1.72 57.97 50.93 57.97 67.91 43.99 21.95 53.93 43.99 43.99 3.939 3.939 35.92 27.95 -2.064 -3.001 -5.065
1.725 51.96 52.99 56 67.91 39.96 17.91 56 47.93 51.96 7.973 11.91 43.99 31.98 0.938 0.938 -3.001
1.73 43.99 48.96 45.96 59.94 37.99 15.95 43.99 43.99 53.93 11.91 15.95 41.93 31.98 -2.064 -1.032 0.938
1.735 35.92 40.99 31.98 49.99 31.98 15.95 23.92 35.92 51.96 13.98 13.98 27.95 27.95 1.97 -9.004 0
1.74 31.98 30.95 21.95 39.96 25.98 21.95 3.939 25.98 43.99 13.98 7.973 11.91 21.95 5.909 -21.01 1.97
1.745 29.92 26.92 15.95 35.92 17.91 25.98 -3.001 15.95 35.92 9.942 1.97 0.938 15.95 7.973 -29.08 1.97
1.75 29.92 22.98 11.91 35.92 9.942 27.95 -5.065 7.973 25.98 7.973 -2.064 -9.004 9.942 7.973 -25.04 3.939
1.755 31.98 16.98 5.909 31.98 1.97 23.92 -3.001 -1.032 19.98 5.909 0 -14.07 5.909 7.973 -9.004 5.909
1.76 27.95 6.941 0.938 23.92 -1.032 15.95 -3.001 -3.001 13.98 3.939 3.939 -13.04 1.97 9.942 9.942 7.973
1.765 19.98 -7.035 -11.07 9.942 -8.066 5.909 -9.004 -10.04 7.973 0 8.911 -6.003 0.938 11.91 34.99 11.91
1.77 7.973 -25.04 -25.04 -1.032 -16.04 -2.064 -17.07 -14.07 0 -1.032 6.941 -2.064 -7.035 9.942 46.99 13.98
1.775 0.938 -37.05 -37.05 -19.04 -29.08 -3.001 -25.04 -21.01 -5.065 -9.004 0 -7.035 -17.07 3.939 45.96 9.942
1.78 -8.066 -45.02 -41.08 -28.04 -38.08 -7.035 -33.02 -28.04 -17.07 -17.07 0 -22.04 -25.04 -2.064 28.98 3.939
1.785 -14.07 -47.09 -43.05 -34.05 -42.02 -6.003 -37.05 -43.05 -29.08 -21.01 -4.033 -43.05 -35.08 -2.064 8.911 -1.032
1.79 -15.01 -47.09 -35.08 -41.08 -43.05 -5.065 -41.08 -61.06 -37.05 -21.01 -11.07 -65 -45.02 -5.065 -5.065 -7.035
1.795 -12.01 -47.09 -27.01 -40.05 -46.05 -4.033 -41.08 -73.07 -41.08 -21.01 -13.04 -71 -51.02 -8.066 -15.01 -15.01
1.8 -12.01 -49.06 -21.01 -38.08 -47.09 -6.003 -35.08 -70.07 -43.05 -23.07 -15.01 -62.09 -53.09 -16.04 -17.07 -25.04
1.805 -15.01 -49.06 -15.01 -35.08 -53.09 -11.07 -19.04 -49.06 -39.02 -27.01 -15.01 -41.08 -47.09 -27.01 -21.01 -33.02
1.81 -15.01 -41.08 -9.004 -23.07 -52.06 -10.04 0 -17.07 -33.02 -26.08 -8.066 -13.04 -34.05 -36.02 -26.08 -41.08
1.815 -15.01 -27.01 0.938 -9.004 -42.02 -3.001 12.94 6.941 -21.01 -22.04 0 0.938 -16.04 -37.05 -33.02 -43.05
1.82 -9.004 -7.035 3.939 3.939 -25.04 0 19.98 25.98 -7.035 -13.04 0 9.942 -2.064 -33.02 -41.08 -39.02
1.825 -5.065 2.908 12.94 15.95 -6.003 11.91 17.91 27.95 -1.032 1.97 -1.032 14.91 11.91 -18.01 -45.02 -29.08
1.83 0 6.941 12.94 18.95 -2.064 18.95 3.939 22.98 2.908 2.908 -15.01 12.94 12.94 -4.033 -45.02 -18.01
1.835 -5.065 0.938 9.942 13.98 -2.064 16.98 -8.066 12.94 0.938 1.97 -32.08 11.91 7.973 0.938 -44.08 -12.01
1.84 -14.07 -3.001 0.938 4.971 -19.04 4.971 -15.01 4.971 -4.033 -6.003 -35.08 6.941 -2.064 -2.064 -39.02 -12.01
1.845 -21.01 -7.035 1.97 -2.064 -36.02 0.938 -17.07 1.97 -16.04 -17.07 -21.01 2.908 -13.04 -10.04 -37.05 -11.07
1.85 -25.04 -7.035 0.938 0.938 -49.06 -9.004 -13.04 5.909 -23.07 -27.01 0 -2.064 -21.01 -17.07 -31.05 -5.065
1.855 -19.04 0.938 3.939 1.97 -46.05 -7.035 -2.064 8.911 -21.01 -26.08 27.95 1.97 -18.01 -15.01 -13.04 0
1.86 -7.035 12.94 9.942 11.91 -34.05 -4.033 -1.032 9.942 -11.07 -20.07 42.96 3.939 -8.066 -12.01 4.971 9.942
1.865 -1.032 16.98 11.91 13.98 -21.01 0.938 1.97 7.973 -1.032 -11.07 39.96 13.98 -2.064 -3.001 27.95 21.95
1.87 -1.032 8.911 7.973 14.91 -11.07 -1.032 3.939 6.941 3.939 -5.065 31.98 22.98 5.909 -1.032 41.93 23.92
1.875 -2.064 0.938 -2.064 4.971 -12.01 0 0 0 5.909 -7.035 17.91 17.91 9.942 2.908 41.93 19.98
1.88 -9.004 -11.07 -7.035 0.938 -17.07 -3.001 -7.035 0.938 0 -9.004 9.942 5.909 3.939 0 19.98 11.91
1.885 -14.07 -17.07 -13.04 -4.033 -20.07 -6.003 -13.04 -3.001 -1.032 -11.07 10.97 -7.035 0.938 0.938 0 11.91
1.89 -12.01 -13.04 -13.04 -6.003 -22.04 -3.001 -17.07 -8.066 -5.065 -9.004 10.97 -20.07 -5.065 3.939 -18.01 11.91
1.895 -3.001 -1.032 -9.004 -5.065 -19.04 0 -11.07 -11.07 -3.001 -3.001 11.91 -21.01 -1.032 9.942 -21.01 19.98
1.9 0 4.971 -3.001 -1.032 -10.04 9.942 0.938 -6.003 0 0 10.97 -10.04 5.909 13.98 -10.04 25.98
1.905 1.97 4.971 0.938 -3.001 -6.003 19.98 5.909 0 5.909 7.973 6.941 0.938 21.95 19.98 -1.032 29.92
1.91 -2.064 -1.032 -2.064 -7.035 -3.001 27.95 9.942 1.97 11.91 15.95 0 13.98 33.95 23.92 5.909 31.98
1.915 -5.065 -13.04 0.938 -15.01 -3.001 31.98 3.939 2.908 17.91 19.98 0.938 20.92 37.99 25.98 1.97 31.98
1.92 -7.035 -17.07 -2.064 -19.04 0.938 33.95 -1.032 3.939 21.95 25.98 -1.032 21.95 37.99 25.98 -3.001 25.98
1.925 -1.032 -13.04 5.909 -13.04 3.939 33.95 -7.035 3.939 29.92 29.92 0.938 21.95 35.92 23.92 -9.004 19.98
1.93 7.973 -3.001 17.91 -1.032 13.98 35.92 -3.001 7.973 37.99 33.95 1.97 25.98 33.95 19.98 -11.07 11.91
1.935 19.98 6.941 29.92 5.909 19.98 35.92 5.909 15.95 43.99 31.98 11.91 29.92 35.92 15.95 -3.001 9.942
1.94 25.98 12.94 39.96 13.98 15.95 33.95 23.92 21.95 45.96 23.92 23.92 33.95 33.95 13.98 5.909 9.942
1.945 21.95 12.94 43.99 13.98 1.97 27.95 31.98 25.98 35.92 11.91 35.92 33.95 27.95 11.91 19.98 13.98
1.95 9.942 6.941 35.92 5.909 -11.07 15.95 29.92 23.92 17.91 -2.064 41.93 31.98 15.95 7.973 29.92 15.95
1.955 -1.032 -1.032 19.98 -3.001 -29.08 0 19.98 15.95 -2.064 -11.07 39.96 23.92 -2.064 3.939 33.95 9.942
1.96 -11.07 -7.035 1.97 -15.01 -41.08 -11.07 9.942 1.97 -19.04 -23.07 27.95 15.95 -17.07 -2.064 31.98 -2.064
1.965 -17.07 -15.01 -9.004 -23.07 -49.06 -19.04 0 -11.07 -33.02 -31.05 11.91 3.939 -33.02 -5.065 23.92 -11.07
1.97 -19.04 -23.07 -21.01 -29.08 -51.02 -19.04 -3.001 -25.04 -41.08 -31.05 0.938 -3.001 -39.02 -11.07 11.91 -19.04
1.975 -19.04 -25.04 -27.01 -33.02 -49.06 -11.07 -13.04 -33.02 -41.08 -25.04 -11.07 -15.01 -37.05 -11.07 0 -19.04
1.98 -15.01 -27.01 -29.08 -37.05 -45.02 0.938 -25.04 -33.02 -37.05 -11.07 -13.04 -27.01 -27.01 -3.001 -7.035 -11.07
1.985 -13.04 -25.04 -27.01 -41.08 -41.08 3.939 -35.08 -29.08 -29.08 0.938 -11.07 -37.05 -17.07 1.97 -15.01 -1.032
1.99 -7.035 -23.07 -25.04 -45.02 -37.05 5.909 -39.02 -27.01 -23.07 3.939 -11.07 -43.05 -9.004 7.973 -17.07 1.97
1.995 -1.032 -21.01 -21.01 -44.08 -33.02 0 -31.05 -28.04 -17.07 5.909 -15.01 -46.05 -3.001 9.942 -13.04 3.939
2 0 -17.07 -14.07 -38.08 -28.04 0.938 -19.04 -32.08 -11.07 3.939 -27.01 -42.02 0.938 9.942 -6.003 5.909
2.005 7.973 -9.004 -9.004 -27.01 -23.07 -1.032 -11.07 -35.08 -5.065 3.939 -37.05 -35.08 0 7.973 0.938 9.942
2.01 15.95 2.908 -2.064 -12.01 -12.01 -2.064 -13.04 -26.08 -2.064 7.973 -37.05 -20.07 3.939 7.973 0.938 15.95
2.015 17.91 6.941 0 -1.032 0 1.97 -21.01 -8.066 7.973 13.98 -25.04 -4.033 9.942 11.91 0.938 19.98
2.02 19.98 14.91 -2.064 9.942 5.909 5.909 -23.07 11.91 19.98 21.95 -5.065 5.909 15.95 19.98 -2.064 25.98
2.025 18.95 22.98 4.971 19.98 16.98 11.91 -7.035 33.95 32.92 29.92 8.911 17.91 26.92 29.92 1.97 29.92
2.03 20.92 28.98 14.91 25.98 31.98 19.98 17.91 47.93 48.96 37.99 14.91 29.92 42.96 40.99 0 33.95
2.035 29.92 36.96 25.98 31.98 43.99 31.98 47.93 56 63.97 45.96 13.98 45.96 62 43.99 3.939 31.98
2.04 44.93 48.96 35.92 40.99 57.97 43.99 68.94 60.97 82.92 51.96 8.911 62.94 80.95 40.99 9.942 23.92
2.045 54.96 54.96 43.99 42.96 68.94 45.96 68.94 64.91 92.95 57.97 10.97 73.91 88.92 30.95 10.97 5.909
2.05 56 54.96 43.99 39.96 69.97 37.99 53.93 67.91 91.92 57.97 25.98 71.94 79.91 15.95 5.909 -9.004
2.055 49.99 50.93 45.96 34.99 62 24.95 44.93 66.97 83.95 47.93 40.99 62 63.97 -1.032 1.97 -26.08
2.06 31.98 40.99 40.99 25.98 44.93 10.97 39.96 57.97 62 33.95 47.93 51.96 37.99 -5.065 1.97 -32.08
2.065 13.98 30.95 33.95 19.98 29.92 1.97 35.92 47.93 41.93 21.95 39.96 35.92 19.98 -9.004 -2.064 -23.07
2.07 2.908 22.98 27.95 16.98 21.95 5.909 32.92 38.93 24.95 18.95 29.92 31.98 11.91 -1.032 5.909 -4.033
2.075 1.97 14.91 21.95 19.98 20.92 15.95 22.98 31.98 17.91 16.98 19.98 29.92 14.91 0.938 16.98 10.97
2.08 1.97 12.94 15.95 16.98 25.98 19.98 13.98 29.92 15.95 20.92 19.98 32.92 21.95 10.97 24.95 20.92
2.085 0 8.911 9.942 13.98 28.98 27.95 4.971 21.95 19.98 24.95 23.92 27.95 24.95 16.98 26.92 24.95
2.09 0.938 6.941 5.909 4.971 29.92 27.95 6.941 16.98 20.92 26.92 21.95 21.95 21.95 23.92 21.95 22.98
2.095 1.97 2.908 1.97 -2.064 31.98 25.98 9.942 9.942 15.95 25.98 5.909 17.91 17.91 27.95 15.95 21.95
2.1 3.939 2.908 0.938 0.938 26.92 24.95 17.91 9.942 9.942 21.95 -7.035 15.95 11.91 33.95 12.94 20.92
2.105 5.909 0.938 0 0 23.92 16.98 12.94 12.94 5.909 17.91 -26.08 11.91 9.942 32.92 9.942 18.95
2.11 3.939 2.908 0.938 0.938 9.942 7.973 5.909 13.98 0.938 9.942 -25.04 13.98 3.939 27.95 5.909 19.98
2.115 0.938 4.971 -3.001 1.97 -1.032 -2.064 -1.032 8.911 -6.003 0 -4.033 11.91 2.908 22.98 4.971 21.95
2.12 0 8.911 -3.001 1.97 -7.035 -7.035 1.97 2.908 -10.04 -5.065 20.92 8.911 2.908 18.95 3.939 27.95
2.125 -7.035 2.908 -9.004 -1.032 -11.07 -9.004 -2.064 0.938 -11.07 -9.004 41.93 9.942 7.973 17.91 7.973 35.92
2.13 -8.066 -1.032 -10.04 -3.001 -7.035 -3.001 0 0.938 0 -5.065 44.93 17.91 18.95 26.92 15.95 43.99
2.135 -2.064 -1.032 -10.04 -7.035 0 5.909 0 5.909 8.911 3.939 28.98 31.98 34.99 31.98 20.92 47.93
2.14 -2.064 -9.004 -7.035 -9.004 1.97 13.98 0 17.91 19.98 17.91 3.939 41.93 41.93 35.92 23.92 45.96
2.145 1.97 -5.065 0 -6.003 4.971 17.91 5.909 26.92 23.92 25.98 -5.065 44.93 37.99 33.95 22.98 35.92
2.15 0 -1.032 2.908 -2.064 0.938 15.95 17.91 26.92 17.91 25.98 -3.001 36.96 23.92 25.98 18.95 23.92
2.155 -3.001 0.938 5.909 0 -5.065 7.973 31.98 17.91 7.973 19.98 9.942 21.95 7.973 17.91 11.91 11.91
2.16 -13.04 4.971 6.941 4.971 -14.07 3.939 35.92 12.94 0.938 9.942 25.98 14.91 0 11.91 10.97 5.909
2.165 -21.01 2.908 0 2.908 -21.01 3.939 29.92 12.94 -3.001 5.909 31.98 12.94 1.97 7.973 5.909 1.97
2.17 -25.04 0.938 -1.032 -1.032 -21.01 5.909 15.95 13.98 -1.032 7.973 27.95 9.942 11.91 7.973 -2.064 -2.064
2.175 -27.01 -7.035 -1.032 -11.07 -13.04 7.973 0 15.95 0 13.98 19.98 5.909 19.98 3.939 -9.004 -1.032
2.18 -27.01 -9.004 0.938 -17.07 -7.035 5.909 -3.001 5.909 3.939 15.95 13.98 0.938 17.91 0.938 -23.07 -11.07
2.185 -29.08 -11.07 0 -21.01 -7.035 -2.064 -5.065 -3.001 3.939 5.909 11.91 -13.04 3.939 -9.004 -33.02 -21.01
2.19 -35.08 -13.04 0 -23.07 -15.01 -7.035 -3.001 -15.01 0.938 -9.004 9.942 -23.07 -9.004 -17.07 -33.02 -27.01
2.195 -41.08 -19.04 0.938 -25.04 -25.04 -13.04 -3.001 -21.01 -7.035 -25.04 5.909 -25.04 -23.07 -21.01 -23.07 -27.01
2.2 -43.05 -25.04 -5.065 -29.08 -33.02 -11.07 -5.065 -15.01 -13.04 -33.02 0 -15.01 -25.04 -15.01 -9.004 -17.07
2.205 -39.02 -29.08 -7.035 -33.02 -31.05 -3.001 -5.065 -7.035 -15.01 -23.07 0 -1.032 -13.04 -3.001 0 -1.032
2.21 -31.05 -25.04 -3.001 -31.05 -21.01 1.97 0 0.938 -11.07 -5.065 9.942 5.909 -2.064 7.973 5.909 9.942
2.215 -23.07 -17.07 1.97 -25.04 -9.004 9.942 13.98 -2.064 -3.001 7.973 25.98 9.942 13.98 17.91 3.939 21.95
2.22 -19.04 -5.065 13.98 -15.01 -1.032 13.98 29.92 -2.064 1.97 19.98 39.96 11.91 23.92 21.95 1.97 21.95
2.225 -21.01 0.938 19.98 -5.065 0.938 13.98 37.99 0 7.973 19.98 43.99 11.91 23.92 19.98 0 15.95
2.23 -25.04 -1.032 21.95 -1.032 -3.001 11.91 33.95 3.939 9.942 13.98 35.92 15.95 19.98 15.95 1.97 7.973
2.235 -25.04 -7.035 19.98 -3.001 -9.004 11.91 19.98 7.973 5.909 7.973 23.92 17.91 15.95 13.98 7.973 0
2.24 -21.01 -11.07 15.95 -9.004 -11.07 13.98 5.909 8.911 1.97 5.909 11.91 18.95 11.91 11.91 11.91 -2.064
2.245 -15.01 -11.07 7.973 -15.01 -11.07 15.95 0.938 6.941 -1.032 5.909 7.973 16.98 9.942 9.942 11.91 0
2.25 -9.004 -7.035 1.97 -15.01 -9.004 15.95 -5.065 -2.064 -5.065 5.909 3.939 7.973 5.909 7.973 11.91 3.939
2.255 -7.035 -1.032 -1.032 -13.04 -6.003 13.98 -5.065 0 -9.004 3.939 1.97 2.908 3.939 5.909 13.98 5.909
2.26 -5.065 -1.032 -3.001 -12.01 -10.04 11.91 -3.001 -6.003 -9.004 0 -2.064 1.97 0 5.909 13.98 3.939
2.265 -7.035 0.938 -5.065 -13.04 -11.07 9.942 -1.032 -13.04 -9.004 0 0 -5.065 -2.064 7.973 9.942 0
2.27 -7.035 -1.032 -1.032 -14.07 -12.01 9.942 -2.064 -13.04 -7.035 2.908 5.909 -8.066 0.938 11.91 0 -1.032
2.275 -2.064 0.938 0 -14.07 -4.033 9.942 0 -19.04 -5.065 6.941 17.91 -15.01 -1.032 12.94 -11.07 -5.065
2.28 0.938 2.908 3.939 -11.07 -2.064 11.91 1.97 -13.04 0.938 7.973 21.95 -27.01 -5.065 1.97 -29.08 -15.01
2.285 0.938 4.971 5.909 -2.064 4.971 9.942 1.97 -4.033 -2.064 4.971 16.98 -31.05 -7.035 -2.064 -45.02 -19.04
2.29 -1.032 6.941 1.97 -1.032 9.942 6.941 -1.032 0 1.97 -1.032 -1.032 -28.04 -7.035 -12.01 -50.09 -25.04
2.295 0.938 8.911 0 1.97 7.973 1.97 0.938 1.97 5.909 0.938 -17.07 -19.04 -7.035 -19.04 -51.02 -27.01
2.3 0 8.911 1.97 3.939 8.911 0.938 0 0.938 7.973 1.97 -28.04 -7.035 -2.064 -14.07 -48.02 -24.01
2.305 0.938 8.911 4.971 2.908 6.941 -1.032 -1.032 -1.032 7.973 0 -28.04 0.938 0 -1.032 -44.08 -16.04
2.31 -2.064 8.911 3.939 0 3.939 0 1.97 -1.032 3.939 1.97 -17.07 -5.065 -1.032 1.97 -43.05 -9.004
2.315 3.939 8.911 4.971 0 4.971 1.97 3.939 -2.064 0.938 3.939 -3.001 -7.035 1.97 9.942 -39.02 0.938
2.32 6.941 8.911 1.97 1.97 3.939 4.971 1.97 4.971 -1.032 3.939 4.971 -6.003 -1.032 13.98 -29.08 2.908
2.325 6.941 8.911 0.938 0.938 2.908 3.939 2.908 10.97 0 1.97 11.91 -2.064 0.938 10.97 -8.066 13.98
2.33 2.908 4.971 0.938 0.938 -2.064 0.938 5.909 16.98 2.908 0.938 14.91 12.94 4.971 9.942 11.91 16.98
2.335 0.938 -1.032 0 -3.001 -4.033 0.938 13.98 13.98 2.908 -5.065 13.98 27.95 2.908 5.909 33.95 19.98
2.34 -9.004 -5.065 -3.001 -9.004 -17.07 -5.065 19.98 9.942 -2.064 -9.004 13.98 33.95 -2.064 -1.032 51.96 11.91
2.345 -15.01 -13.04 -10.04 -16.04 -24.01 -10.04 20.92 6.941 -9.004 -11.07 12.94 31.98 -4.033 -7.035 56.93 4.971
2.35 -26.08 -21.01 -17.07 -25.04 -28.04 -14.07 14.91 4.971 -21.01 -15.01 8.911 19.98 -14.07 -16.04 56.93 0
2.355 -37.05 -25.04 -19.04 -27.01 -27.01 -19.04 1.97 1.97 -31.05 -21.01 1.97 7.973 -19.04 -19.04 49.99 -7.035
2.36 -42.02 -21.01 -15.01 -22.04 -19.04 -26.08 -2.064 3.939 -31.05 -24.01 -1.032 8.911 -19.04 -20.07 48.96 -7.035
2.365 -44.08 -11.07 -9.004 -12.01 -18.01 -35.08 -5.065 0.938 -27.01 -26.08 0 7.973 -15.01 -16.04 51.96 -11.07
2.37 -43.05 -3.001 -3.001 -1.032 -15.01 -37.05 -3.001 0.938 -21.01 -29.08 -3.001 13.98 -13.04 -17.07 51.96 -9.004
2.375 -38.08 0.938 0.938 6.941 -8.066 -35.08 -1.032 -1.032 -19.04 -28.04 -5.065 13.98 -11.07 -14.07 47.93 -11.07
2.38 -25.04 8.911 -2.064 10.97 0 -27.01 -3.001 -1.032 -15.01 -20.07 -5.065 8.911 -7.035 -13.04 35.92 -9.004
2.385 -15.01 10.97 0.938 11.91 7.973 -13.04 -5.065 -3.001 -9.004 -9.004 -1.032 -1.032 0.938 -9.004 15.95 -1.032
2.39 -3.001 14.91 0.938 10.97 24.95 -2.064 -9.004 1.97 0 3.939 -2.064 -14.07 7.973 -2.064 -1.032 3.939
2.395 3.939 16.98 0.938 9.942 36.96 9.942 -11.07 0.938 15.95 13.98 1.97 -18.01 17.91 7.973 -15.01 11.91
2.4 9.942 18.95 0.938 7.973 39.96 9.942 -15.01 3.939 25.98 15.95 -2.064 -17.07 19.98 11.91 -21.01 13.98
2.405 7.973 16.98 -3.001 5.909 37.99 0 -17.07 10.97 23.92 5.909 -7.035 -6.003 13.98 7.973 -17.07 9.942
2.41 0 10.97 -9.004 -2.064 29.92 -7.035 -19.04 8.911 11.91 -1.032 -15.01 -2.064 3.939 -2.064 -11.07 3.939
2.415 -7.035 4.971 -13.04 -9.004 21.95 -19.04 -15.01 3.939 0.938 -11.07 -21.01 0.938 0.938 -5.065 -5.065 1.97
2.42 -21.01 -1.032 -9.004 -17.07 15.95 -25.04 -9.004 -1.032 -9.004 -15.01 -19.04 -7.035 -3.001 -9.004 0.938 3.939
2.425 -31.05 -1.032 -1.032 -21.01 15.95 -23.07 -1.032 -15.01 -9.004 -13.04 -15.01 -15.01 -1.032 -5.065 3.939 9.942
2.43 -33.02 -5.065 0 -19.04 17.91 -15.01 -2.064 -25.04 -1.032 -7.035 -9.004 -15.01 0 0 17.91 17.91
2.435 -29.08 -9.004 -2.064 -17.07 23.92 -5.065 0.938 -25.04 3.939 0.938 -7.035 -7.035 5.909 11.91 35.92 23.92
2.44 -21.01 -13.04 -7.035 -15.01 29.92 -2.064 -5.065 -11.07 9.942 3.939 -3.001 7.973 9.942 21.95 53.93 29.92
2.445 -11.07 -17.07 -17.07 -15.01 35.92 3.939 -7.035 3.939 9.942 11.91 0 25.98 11.91 29.92 69.97 33.95
2.45 -5.065 -15.01 -21.01 -13.04 35.92 5.909 -1.032 19.98 5.909 17.91 11.91 35.92 11.91 31.98 75.97 37.99
2.455 -3.001 -9.004 -11.07 -11.07 33.95 5.909 1.97 21.95 1.97 19.98 21.95 33.95 11.91 33.95 77.94 37.99
2.46 -5.065 -1.032 0 -5.065 31.98 5.909 3.939 9.942 0 15.95 23.92 25.98 9.942 29.92 71.94 33.95
2.465 -9.004 0.938 13.98 -1.032 29.92 7.973 -2.064 -3.001 0 9.942 15.95 15.95 5.909 23.92 62 23.92
2.47 -13.04 2.908 17.91 0.938 29.92 9.942 -11.07 -17.07 1.97 1.97 3.939 7.973 3.939 15.95 45.96 13.98
2.475 -17.07 -1.032 11.91 0.938 31.98 9.942 -19.04 -19.04 1.97 -2.064 -3.001 1.97 1.97 7.973 25.98 1.97
2.48 -17.07 -1.032 1.97 0 33.95 7.973 -15.01 -15.01 1.97 0.938 -9.004 0.938 0 1.97 0 -1.032
2.485 -13.04 -1.032 -2.064 5.909 35.92 3.939 -3.001 -7.035 1.97 -2.064 -7.035 -6.003 0 -2.064 -21.01 -7.035
2.49 -7.035 2.908 0 15.95 35.92 0 1.97 1.97 1.97 0 -11.07 -12.01 0 -2.064 -41.08 -7.035
2.495 -1.032 14.91 9.942 25.98 37.99 -2.064 0 0 3.939 0 -21.01 -15.01 0 -2.064 -47.09 -9.004
2.5 -2.064 26.92 17.91 30.95 38.93 0 -9.004 0.938 5.909 -2.064 -39.02 -14.07 0 0 -43.05 -11.07
2.505 0.938 28.98 22.98 24.95 34.99 -2.064 -23.07 0.938 5.909 -1.032 -49.06 -8.066 -1.032 -6.003 -29.08 -16.04
2.51 0 26.92 23.92 13.98 27.95 0.938 -27.01 0.938 3.939 -5.065 -43.05 -5.065 -11.07 -17.07 -13.04 -23.07
2.515 0.938 20.92 26.92 8.911 24.95 -5.065 -15.01 0 -2.064 -11.07 -19.04 0.938 -21.01 -24.01 1.97 -28.04
2.52 4.971 18.95 32.92 8.911 24.95 -11.07 1.97 1.97 -3.001 -15.01 9.942 1.97 -25.04 -28.04 8.911 -28.04
2.525 7.973 24.95 35.92 17.91 25.98 -13.04 25.98 1.97 -3.001 -17.07 39.96 1.97 -23.07 -27.01 15.95 -27.01
2.53 14.91 30.95 36.96 27.95 31.98 -11.07 31.98 15.95 1.97 -14.07 45.96 12.94 -17.07 -18.01 20.92 -18.01
2.535 17.91 32.92 29.92 31.98 33.95 -2.064 23.92 26.92 0.938 -10.04 35.92 20.92 -9.004 -7.035 20.92 -9.004
2.54 13.98 28.98 13.98 21.95 29.92 0.938 7.973 31.98 1.97 -5.065 15.95 23.92 -5.065 0.938 15.95 -7.035
2.545 5.909 18.95 0.938 10.97 18.95 0.938 1.97 25.98 1.97 -2.064 1.97 16.98 -5.065 1.97 9.942 -3.001
2.55 0.938 6.941 -10.04 0 3.939 0.938 -6.003 6.941 -6.003 0 -4.033 3.939 -9.004 6.941 0 1.97
2.555 -3.001 2.908 -15.01 -3.001 -1.032 1.97 -7.035 -9.004 -11.07 -1.032 -5.065 -7.035 -9.004 7.973 -1.032 3.939
2.56 -3.001 2.908 -11.07 1.97 0 1.97 -7.035 -19.04 -9.004 1.97 -4.033 -11.07 -2.064 8.911 -3.001 11.91
2.565 -2.064 -1.032 -4.033 -1.032 1.97 4.971 -14.07 -16.04 1.97 0 -6.003 -13.04 1.97 8.911 0 18.95
2.57 -2.064 0.938 0.938 -1.032 -1.032 5.909 -21.01 -6.003 3.939 0.938 -11.07 -4.033 1.97 11.91 1.97 19.98
2.575 -2.064 -5.065 -2.064 0.938 0.938 0.938 -26.08 1.97 6.941 1.97 -14.07 -5.065 1.97 8.911 -2.064 10.97
2.58 0.938 -7.035 -3.001 0 0.938 -2.064 -21.01 0.938 1.97 0.938 -14.07 -9.004 -1.032 10.97 -9.004 3.939
2.585 1.97 -1.032 -3.001 3.939 -2.064 -2.064 -15.01 -9.004 -2.064 1.97 -13.04 -17.07 0.938 13.98 -17.07 1.97
2.59 14.91 10.97 0.938 17.91 1.97 2.908 -2.064 -22.04 0.938 4.971 -12.01 -21.01 1.97 18.95 -23.07 6.941
2.595 27.95 30.95 11.91 28.98 12.94 16.98 0.938 -23.07 10.97 10.97 -16.04 -20.07 7.973 21.95 -25.04 9.942
2.6 39.96 46.99 21.95 37.99 19.98 31.98 3.939 -15.01 25.98 17.91 -19.04 -11.07 13.98 23.92 -31.05 11.91
2.605 49.99 54.96 31.98 43.99 31.98 42.96 7.973 4.971 40.99 22.98 -9.004 1.97 17.91 23.92 -34.05 9.942
2.61 54.96 56.93 32.92 45.96 39.96 43.99 13.98 25.98 44.93 22.98 1.97 3.939 17.91 14.91 -36.02 -1.032
2.615 56 52.99 29.92 45.96 39.96 37.99 17.91 37.99 43.99 19.98 17.91 5.909 17.91 7.973 -35.08 -5.065
2.62 56.93 56.93 28.98 48.96 44.93 31.98 23.92 41.93 37.99 19.98 27.95 7.973 17.91 6.941 -22.04 -6.003
2.625 56.93 60.97 24.95 52.99 48.96 25.98 23.92 36.96 33.95 19.98 21.95 11.91 23.92 10.97 -2.064 0
2.63 57.97 66.97 25.98 57.97 53.93 27.95 25.98 31.98 33.95 25.98 5.909 19.98 31.98 19.98 15.95 3.939
2.635 60.97 70.91 28.98 59 62.94 31.98 25.98 36.96 39.96 31.98 -3.001 34.99 37.99 32.92 31.98 12.94
2.64 63.97 68.94 31.98 54.96 64.91 33.95 21.95 42.96 43.99 35.92 -5.065 40.99 37.99 40.99 33.95 13.98
2.645 62 62.94 33.95 47.93 59.94 33.95 15.95 43.99 39.96 35.92 0 39.96 31.98 39.96 25.98 9.942
2.65 56 52.99 31.98 37.99 45.96 25.98 7.973 36.96 29.92 27.95 15.95 26.92 19.98 33.95 11.91 3.939
2.655 45.96 40.99 29.92 25.98 25.98 11.91 0 17.91 13.98 13.98 25.98 8.911 5.909 23.92 -2.064 0.938
2.66 33.95 30.95 25.98 17.91 5.909 -2.064 0.938 -2.064 0 -2.064 25.98 -1.032 -1.032 11.91 -3.001 -3.001
2.665 21.95 22.98 21.95 11.91 -5.065 -9.004 0.938 -9.004 -7.035 -9.004 17.91 -11.07 -11.07 1.97 -7.035 -7.035
2.67 13.98 18.95 17.91 7.973 -17.07 -17.07 -2.064 -15.01 -13.04 -15.01 7.973 -15.01 -19.04 0.938 -13.04 -9.004
2.675 9.942 18.95 9.942 1.97 -23.07 -23.07 0.938 -19.04 -15.01 -19.04 1.97 -19.04 -25.04 -3.001 -25.04 -11.07
2.68 5.909 18.95 1.97 0.938 -25.04 -23.07 -7.035 -25.04 -19.04 -19.04 -2.064 -25.04 -33.02 -7.035 -39.02 -17.07
2.685 0 16.98 0.938 -5.065 -29.08 -21.01 -17.07 -35.08 -25.04 -19.04 -1.032 -33.02 -41.08 -9.004 -49.06 -21.01
2.69 -3.001 10.97 -1.032 -11.07 -33.02 -17.07 -25.04 -43.05 -31.05 -19.04 -5.065 -39.02 -45.02 -7.035 -49.06 -23.07
2.695 -9.004 4.971 0.938 -15.01 -35.08 -9.004 -21.01 -43.05 -35.08 -17.07 -7.035 -41.08 -47.09 -5.065 -39.02 -21.01
2.7 -11.07 -1.032 7.973 -13.04 -31.05 -3.001 -9.004 -31.05 -33.02 -13.04 -1.032 -33.02 -39.02 -5.065 -23.07 -13.04
2.705 -5.065 -1.032 17.91 -5.065 -21.01 -2.064 3.939 -11.07 -25.04 -7.035 5.909 -17.07 -27.01 -3.001 -7.035 -5.065
2.71 0 2.908 25.98 -2.064 -7.035 0 13.98 3.939 -11.07 -3.001 19.98 0.938 -11.07 -3.001 0 0
2.715 9.942 6.941 29.92 5.909 0 0 13.98 18.95 0.938 0.938 31.98 13.98 -2.064 -1.032 9.942 9.942
2.72 15.95 12.94 31.98 11.91 5.909 0 9.942 24.95 7.973 0 39.96 27.95 9.942 -2.064 19.98 15.95
2.725 17.91 16.98 29.92 15.95 9.942 3.939 9.942 25.98 17.91 3.939 37.99 37.99 17.91 5.909 31.98 21.95
2.73 17.91 22.98 29.92 22.98 18.95 9.942 15.95 28.98 27.95 11.91 33.95 48.96 27.95 13.98 41.93 23.92
2.735 21.95 26.92 33.95 32.92 28.98 15.95 29.92 36.96 35.92 17.91 25.98 54.96 39.96 21.95 47.93 27.95
2.74 27.95 32.92 35.92 39.96 39.96 21.95 39.96 47.93 45.96 25.98 21.95 62 49.99 25.98 45.96 27.95
2.745 37.99 36.96 35.92 42.96 48.96 25.98 41.93 57.97 53.93 29.92 21.95 62.94 56 27.95 37.99 25.98
2.75 47.93 36.96 31.98 40.99 48.96 32.92 33.95 62 57.97 35.92 23.92 59 57.97 25.98 27.95 25.98
2.755 51.96 34.99 25.98 29.92 43.99 37.99 21.95 56 56 39.96 25.98 49.99 53.93 27.95 19.98 23.92
2.76 53.93 32.92 19.98 22.98 36.96 44.93 11.91 46.99 47.93 43.99 22.98 41.93 49.99 29.92 17.91 23.92
2.765 49.99 30.95 13.98 17.91 35.92 48.96 5.909 34.99 39.96 43.99 12.94 33.95 43.99 35.92 11.91 23.92
2.77 43.99 30.95 9.942 13.98 33.95 45.96 1.97 23.92 33.95 41.93 0.938 29.92 39.96 37.99 5.909 21.95
2.775 42.96 30.95 13.98 13.98 31.98 42.96 1.97 20.92 31.98 29.92 -10.04 26.92 35.92 34.99 0.938 11.91
2.78 38.93 30.95 13.98 12.94 24.95 37.99 0 18.95 25.98 19.98 -12.01 19.98 26.92 28.98 -14.07 3.939
2.785 35.92 28.98 15.95 1.97 9.942 33.95 -2.064 17.91 19.98 11.91 -3.001 7.973 13.98 19.98 -29.08 -2.064
2.79 34.99 26.92 11.91 -1.032 -1.032 37.99 0 17.91 12.94 12.94 7.973 2.908 2.908 14.91 -30.01 0.938
2.795 28.98 20.92 9.942 -10.04 -7.035 42.96 0 13.98 2.908 18.95 13.98 -1.032 -2.064 12.94 -22.04 0.938
2.8 23.92 16.98 7.973 -15.01 -13.04 45.96 3.939 5.909 -1.032 19.98 11.91 3.939 -5.065 9.942 -9.004 0.938
2.805 16.98 10.97 7.973 -16.04 -16.04 43.99 6.941 1.97 -4.033 13.98 1.97 7.973 -9.004 5.909 0 -3.001
2.81 12.94 8.911 11.91 -16.04 -20.07 35.92 8.911 -11.07 -12.01 -1.032 0 8.911 -12.01 -1.032 3.939 -11.07
2.815 5.909 4.971 11.91 -14.07 -25.04 24.95 4.971 -22.04 -18.01 -11.07 -6.003 0.938 -19.04 -5.065 2.908 -21.01
2.82 6.941 8.911 11.91 -10.04 -34.05 11.91 -1.032 -27.01 -26.08 -24.01 0 -8.066 -26.08 -16.04 -3.001 -29.08
2.825 4.971 8.911 5.909 -10.04 -40.05 0 -2.064 -29.08 -32.08 -28.04 0 -25.04 -31.05 -21.01 -13.04 -29.08
2.83 1.97 8.911 0 -11.07 -43.05 -1.032 -11.07 -29.08 -37.05 -29.08 3.939 -33.02 -31.05 -21.01 -21.01 -21.01
2.835 1.97 10.97 -2.064 -10.04 -39.02 -2.064 -13.04 -29.08 -36.02 -22.04 1.97 -32.08 -26.08 -16.04 -20.07 -7.035
2.84 1.97 8.911 3.939 -7.035 -37.05 0.938 -9.004 -27.01 -32.08 -16.04 1.97 -28.04 -18.01 -8.066 -16.04 -2.064
2.845 0.938 10.97 11.91 -2.064 -33.02 5.909 0.938 -21.01 -27.01 -11.07 0.938 -21.01 -7.035 -1.032 -11.07 5.909
2.85 6.941 20.92 19.98 10.97 -24.01 19.98 7.973 -8.066 -15.01 -3.001 1.97 -11.07 -1.032 4.971 -6.003 7.973
2.855 18.95 34.99 25.98 25.98 -13.04 26.92 19.98 4.971 -2.064 1.97 0.938 -2.064 13.98 10.97 -5.065 3.939
2.86 29.92 46.99 23.92 37.99 0.938 31.98 23.92 21.95 13.98 11.91 0 1.97 23.92 11.91 -9.004 0
2.865 35.92 48.96 19.98 43.99 7.973 32.92 17.91 36.96 25.98 17.91 0.938 9.942 27.95 13.98 -17.07 -2.064
2.87 35.92 46.99 19.98 44.93 14.91 30.95 9.942 46.99 29.92 19.98 2.908 23.92 29.92 11.91 -21.01 1.97
2.875 31.98 40.99 25.98 41.93 19.98 29.92 7.973 49.99 31.98 17.91 7.973 33.95 31.98 9.942 -19.04 11.91
2.88 31.98 38.93 35.92 44.93 26.92 30.95 17.91 57.97 33.95 19.98 21.95 48.96 35.92 9.942 -7.035 23.92
2.885 31.98 36.96 45.96 44.93 32.92 31.98 37.99 59.94 37.99 23.92 35.92 60.97 43.99 11.91 1.97 35.92
2.89 29.92 32.92 43.99 39.96 33.95 29.92 57.97 53.93 45.96 27.95 45.96 65.94 49.99 15.95 11.91 41.93
2.895 21.95 20.92 31.98 26.92 28.98 21.95 62 46.99 49.99 27.95 41.93 60.97 49.99 19.98 21.95 41.93
2.9 7.973 6.941 11.91 8.911 16.98 9.942 47.93 34.99 41.93 21.95 25.98 54.96 37.99 19.98 29.92 37.99
2.905 -3.001 -3.001 0.938 -1.032 -2.064 0 19.98 23.92 25.98 7.973 11.91 43.99 21.95 15.95 39.96 31.98
2.91 -17.07 -9.004 -9.004 -7.035 -13.04 -3.001 -2.064 18.95 5.909 -1.032 9.942 37.99 3.939 9.942 47.93 29.92
2.915 -23.07 -9.004 -7.035 -5.065 -25.04 -5.065 -3.001 12.94 -7.035 -9.004 21.95 29.92 -1.032 1.97 49.99 27.95
2.92 -21.01 -9.004 -3.001 -1.032 -29.08 -3.001 5.909 5.909 -13.04 -11.07 39.96 21.95 -5.065 -1.032 37.99 25.98
2.925 -17.07 -15.01 -1.032 -5.065 -27.01 0.938 25.98 -2.064 -15.01 -9.004 47.93 9.942 -5.065 -7.035 15.95 21.95
2.93 -13.04 -25.04 -7.035 -17.07 -25.04 0 33.95 -7.035 -13.04 -5.065 37.99 -2.064 -7.035 -9.004 -5.065 15.95
2.935 -11.07 -35.08 -19.04 -33.02 -23.07 1.97 25.98 -11.07 -13.04 -3.001 13.98 -7.035 -13.04 -9.004 -21.01 7.973
2.94 -9.004 -35.08 -29.08 -43.05 -21.01 5.909 5.909 -11.07 -15.01 -3.001 -3.001 -13.04 -19.04 -7.035 -25.04 1.97
2.945 -3.001 -23.07 -31.05 -39.02 -17.07 9.942 -9.004 -9.004 -13.04 0.938 -15.01 -17.07 -21.01 -5.065 -23.07 -2.064
2.95 1.97 -5.065 -25.04 -27.01 -13.04 15.95 -17.07 -13.04 -7.035 1.97 -19.04 -25.04 -17.07 -1.032 -25.04 0
2.955 13.98 6.941 -17.07 -15.01 -7.035 23.92 -17.07 -21.01 -2.064 11.91 -25.04 -35.08 -7.035 0 -41.08 5.909
2.96 23.92 12.94 -11.07 -7.035 0 31.98 -13.04 -29.08 5.909 19.98 -39.02 -47.09 0 9.942 -67.06 11.91
2.965 29.92 10.97 -9.004 -2.064 11.91 35.92 -13.04 -27.01 11.91 25.98 -59.09 -49.06 9.942 17.91 -91.08 17.91
2.97 31.98 6.941 -7.035 0.938 23.92 35.92 -13.04 -13.04 15.95 27.95 -71 -41.08 15.95 23.92 -97.08 23.92
2.975 27.95 6.941 -3.001 2.908 34.99 33.95 -11.07 4.971 23.92 25.98 -63.03 -21.01 17.91 25.98 -85.07 27.95
2.98 24.95 8.911 -2.064 12.94 38.93 29.92 0.938 22.98 29.92 23.92 -33.02 1.97 17.91 25.98 -55.06 33.95
2.985 19.98 12.94 3.939 17.91 29.92 25.98 11.91 27.95 31.98 19.98 -2.064 13.98 15.95 23.92 -17.07 39.96
2.99 16.98 10.97 4.971 16.98 14.91 21.95 23.92 22.98 26.92 15.95 27.95 26.92 14.91 19.98 9.942 41.93
2.995 12.94 6.941 4.971 9.942 0 15.95 25.98 10.97 14.91 7.973 37.99 28.98 10.97 13.98 31.98 37.99
3 9.942 0.938 3.939 1.97 -17.07 7.973 15.95 3.939 -2.064 -2.064 31.98 29.92 5.909 3.939 43.99 27.95
3.005 8.911 0.938 4.971 1.97 -23.07 0.938 7.973 9.942 -6.003 -8.066 23.92 36.96 4.971 -1.032 49.99 15.95
3.01 9.942 2.908 8.911 8.911 -29.08 0 5.909 17.91 -6.003 -18.01 22.98 41.93 0.938 -6.003 54.96 3.939
3.015 5.909 8.911 7.973 19.98 -23.07 -5.065 13.98 31.98 -7.035 -25.04 31.98 43.99 -2.064 -13.04 56 -2.064
3.02 3.939 12.94 7.973 25.98 -18.01 -8.066 30.95 36.96 0.938 -24.01 40.99 43.99 1.97 -12.01 52.99 0.938
3.025 -1.032 12.94 1.97 19.98 -18.01 -12.01 38.93 31.98 -1.032 -20.07 42.96 36.96 -1.032 -8.066 46.99 1.97
3.03 -5.065 4.971 0.938 5.909 -19.04 -11.07 37.99 17.91 -3.001 -11.07 31.98 23.92 0.938 -7.035 31.98 5.909
3.035 -9.004 2.908 0 -1.032 -14.07 -5.065 30.95 7.973 -4.033 0.938 14.91 15.95 2.908 0 12.94 9.942
3.04 -4.033 -1.032 0 -1.032 -2.064 -2.064 18.95 3.939 -2.064 7.973 1.97 2.908 9.942 3.939 -11.07 13.98
3.045 1.97 8.911 7.973 5.909 7.973 11.91 7.973 3.939 11.91 21.95 -13.04 -1.032 21.95 13.98 -43.05 19.98
3.05 18.95 20.92 15.95 20.92 27.95 23.92 -2.064 11.91 30.95 34.99 -18.01 -8.066 34.99 29.92 -67.06 26.92
3.055 33.95 30.95 18.95 29.92 36.96 34.99 -6.003 13.98 42.96 37.99 -24.01 -16.04 39.96 38.93 -84.04 27.95
3.06 36.96 30.95 15.95 27.95 32.92 34.99 -15.01 8.911 46.99 33.95 -31.05 -21.01 34.99 38.93 -88.07 21.95
3.065 31.98 20.92 10.97 11.91 18.95 28.98 -22.04 1.97 34.99 23.92 -34.05 -24.01 21.95 30.95 -78.04 11.91
3.07 18.95 12.94 5.909 1.97 3.939 17.91 -19.04 -7.035 16.98 12.94 -32.08 -20.07 6.941 13.98 -61.06 -1.032
3.075 7.973 8.911 5.909 -5.065 -3.001 11.91 -3.001 -7.035 1.97 3.939 -23.07 -11.07 0 1.97 -39.02 -3.001
3.08 2.908 10.97 7.973 -1.032 -6.003 5.909 12.94 1.97 0 1.97 -5.065 0.938 1.97 1.97 -15.01 -3.001
3.085 3.939 16.98 10.97 3.939 -4.033 3.939 26.92 11.91 2.908 5.909 4.971 17.91 8.911 4.971 0.938 0
3.09 1.97 16.98 7.973 7.973 -5.065 -1.032 27.95 13.98 7.973 3.939 13.98 25.98 9.942 9.942 15.95 5.909
3.095 1.97 4.971 -2.064 -2.064 -14.07 -8.066 12.94 7.973 1.97 -1.032 14.91 28.98 3.939 10.97 30.95 7.973
3.1 -11.07 -15.01 -9.004 -15.01 -30.01 -16.04 -4.033 -4.033 -7.035 -8.066 10.97 21.95 -7.035 0.938 40.99 1.97
3.105 -25.04 -41.08 -23.07 -41.08 -47.09 -19.04 -19.04 -27.01 -29.08 -23.07 5.909 9.942 -25.04 -7.035 39.96 0.938
3.11 -27.01 -57.03 -30.01 -52.06 -53.09 -16.04 -21.01 -43.05 -42.02 -28.04 8.911 1.97 -34.05 -14.07 36.96 -5.065
3.115 -24.01 -57.03 -34.05 -53.09 -45.02 -8.066 -11.07 -43.05 -44.08 -24.01 13.98 1.97 -30.01 -17.07 25.98 -5.065
3.12 -13.04 -47.09 -33.02 -45.02 -35.08 -5.065 0 -37.05 -39.02 -19.04 21.95 0.938 -23.07 -13.04 19.98 -9.004
3.125 0 -33.02 -28.04 -31.05 -16.04 -3.001 11.91 -22.04 -26.08 -11.07 27.95 1.97 -12.01 -9.004 11.91 -9.004
3.13 4.971 -19.04 -20.07 -20.07 -2.064 -3.001 15.95 -12.01 -14.07 -7.035 29.92 -1.032 -4.033 -11.07 9.942 -9.004
3.135 9.942 -13.04 -11.07 -11.07 3.939 -3.001 11.91 -7.035 -7.035 -5.065 27.95 -2.064 -3.001 -11.07 7.973 -5.065
3.14 16.98 -1.032 0.938 1.97 12.94 -2.064 7.973 -2.064 -1.032 -5.065 21.95 -2.064 -1.032 -13.04 0 -2.064
3.145 23.92 2.908 7.973 10.97 18.95 7.973 9.942 0 0 -3.001 11.91 -3.001 -2.064 -11.07 -7.035 9.942
3.15 35.92 18.95 15.95 27.95 23.92 19.98 13.98 1.97 9.942 -2.064 5.909 -3.001 7.973 -5.065 -25.04 19.98
3.155 45.96 36.96 21.95 44.93 25.98 27.95 15.95 15.95 23.92 3.939 0 -2.064 19.98 0.938 -41.08 25.98
3.16 47.93 46.99 21.95 51.96 29.92 29.92 15.95 31.98 33.95 3.939 -2.064 7.973 29.92 -2.064 -51.02 25.98
3.165 41.93 48.96 15.95 49.99 29.92 27.95 9.942 41.93 39.96 1.97 -3.001 15.95 35.92 -1.032 -49.06 19.98
3.17 29.92 40.99 7.973 37.99 29.92 23.92 -2.064 45.96 41.93 0 -9.004 19.98 33.95 -5.065 -35.08 13.98
3.175 15.95 26.92 -2.064 23.92 27.95 21.95 -7.035 37.99 37.99 0 -19.04 17.91 27.95 -9.004 -17.07 9.942
3.18 7.973 12.94 -3.001 11.91 23.92 17.91 -15.01 23.92 31.98 3.939 -27.01 13.98 17.91 -9.004 0.938 7.973
3.185 1.97 -1.032 -7.035 1.97 13.98 13.98 -19.04 7.973 21.95 5.909 -27.01 7.973 7.973 -3.001 7.973 5.909
3.19 -1.032 -9.004 -9.004 -1.032 -2.064 5.909 -19.04 -3.001 5.909 1.97 -19.04 0 -2.064 0.938 13.98 3.939
3.195 -13.04 -21.01 -11.07 -11.07 -17.07 -1.032 -19.04 -15.01 -7.035 -5.065 -7.035 -5.065 -7.035 0.938 15.95 1.97
3.2 -25.04 -29.08 -17.07 -21.01 -37.05 -13.04 -19.04 -27.01 -27.01 -21.01 -2.064 -15.01 -19.04 -5.065 13.98 0.938
3.205 -33.02 -31.05 -19.04 -29.08 -45.02 -21.01 -19.04 -35.08 -43.05 -33.02 -2.064 -25.04 -29.08 -13.04 11.91 -5.065
3.21 -33.02 -27.01 -19.04 -29.08 -41.08 -21.01 -17.07 -39.02 -49.06 -35.08 -3.001 -29.08 -35.08 -19.04 9.942 -13.04
3.215 -23.07 -15.01 -13.04 -21.01 -25.04 -17.07 -13.04 -35.08 -45.02 -29.08 -13.04 -25.04 -35.08 -23.07 7.973 -19.04
3.22 -9.004 -1.032 -1.032 -7.035 -5.065 -11.07 -5.065 -26.08 -31.05 -21.01 -13.04 -18.01 -29.08 -21.01 5.909 -21.01
3.225 -2.064 4.971 1.97 -2.064 3.939 -7.035 -2.064 -12.01 -17.07 -17.07 -7.035 -12.01 -23.07 -21.01 1.97 -19.04
3.23 3.939 8.911 5.909 3.939 7.973 -7.035 1.97 -3.001 -9.004 -15.01 0 -17.07 -19.04 -21.01 0.938 -17.07
3.235 7.973 10.97 1.97 3.939 3.939 -8.066 1.97 1.97 -5.065 -16.04 7.973 -22.04 -17.07 -19.04 -10.04 -13.04
3.24 11.91 12.94 -1.032 0 0.938 -6.003 -2.064 1.97 -5.065 -14.07 5.909 -34.05 -15.01 -15.01 -24.01 -11.07
3.245 17.91 18.95 -5.065 0 0.938 0.938 0.938 -3.001 -5.065 -7.035 -1.032 -41.08 -15.01 -7.035 -39.02 -7.035
3.25 27.95 22.98 -3.001 6.941 4.971 8.911 0 -1.032 1.97 0.938 -15.01 -33.02 -10.04 -1.032 -46.05 -5.065
3.255 37.99 26.92 0 16.98 18.95 18.95 1.97 0.938 8.911 12.94 -21.01 -21.01 -2.064 6.941 -46.05 -1.032
3.26 41.93 26.92 5.909 21.95 29.92 23.92 0 7.973 21.95 19.98 -23.07 -1.032 3.939 13.98 -39.02 1.97
3.265 37.99 18.95 1.97 22.98 34.99 25.98 0.938 20.92 30.95 27.95 -21.01 8.911 20.92 22.98 -21.01 12.94
3.27 27.95 8.911 -3.001 14.91 30.95 17.91 0.938 24.95 30.95 27.95 -19.04 18.95 34.99 28.98 -1.032 24.95
3.275 9.942 -1.032 -13.04 1.97 19.98 7.973 -2.064 17.91 23.92 21.95 -19.04 15.95 39.96 29.92 5.909 29.92
3.28 -4.033 -7.035 -22.04 -3.001 11.91 0 1.97 0.938 13.98 12.94 -21.01 8.911 37.99 29.92 16.98 30.95
3.285 -22.04 -17.07 -22.04 -11.07 1.97 -10.04 0.938 -14.07 -1.032 1.97 -23.07 1.97 21.95 15.95 19.98 22.98
3.29 -35.08 -27.01 -19.04 -15.01 -1.032 -19.04 0.938 -29.08 -17.07 -9.004 -19.04 -7.035 0.938 5.909 21.95 11.91
3.295 -40.05 -31.05 -9.004 -16.04 -6.003 -20.07 -2.064 -31.05 -31.05 -21.01 -11.07 -7.035 -19.04 -1.032 28.98 6.941
3.3 -40.05 -33.02 -6.003 -13.04 -9.004 -24.01 -4.033 -21.01 -36.02 -25.04 0 -3.001 -27.01 0 40.99 6.941
3.305 -36.02 -29.08 -5.065 -11.07 -9.004 -25.04 -6.003 -9.004 -40.05 -23.07 13.98 3.939 -19.04 3.939 51.96 9.942
3.31 -36.02 -25.04 -4.033 -5.065 -7.035 -28.04 -2.064 0.938 -38.08 -19.04 25.98 9.942 -9.004 5.909 62.94 12.94
3.315 -32.08 -13.04 1.97 2.908 -2.064 -28.04 2.908 1.97 -33.02 -17.07 29.92 13.98 0.938 4.971 60.97 10.97
3.32 -25.04 -5.065 3.939 15.95 1.97 -27.01 13.98 -2.064 -25.04 -15.01 25.98 13.98 1.97 -2.064 53.93 5.909
3.325 -8.066 2.908 12.94 31.98 11.91 -22.04 17.91 -1.032 -17.07 -11.07 17.91 10.97 1.97 -3.001 45.96 -1.032
3.33 -1.032 4.971 14.91 39.96 23.92 -18.01 15.95 0.938 -7.035 -8.066 7.973 4.971 -7.035 -5.065 34.99 -2.064
3.335 5.909 6.941 9.942 33.95 23.92 -15.01 5.909 0 -7.035 -5.065 -2.064 -1.032 -15.01 -5.065 23.92 -11.07
3.34 3.939 0.938 0 22.98 22.98 -13.04 -1.032 -2.064 -12.01 -5.065 -3.001 -12.01 -18.01 0 11.91 -14.07
3.345 -3.001 0.938 -1.032 14.91 18.95 -13.04 -1.032 -14.07 -18.01 -7.035 -11.07 -22.04 -20.07 -1.032 -1.032 -18.01
3.35 -15.01 -3.001 0.938 11.91 17.91 -19.04 5.909 -23.07 -21.01 -11.07 -17.07 -29.08 -15.01 -2.064 -21.01 -23.07
3.355 -23.07 0.938 1.97 18.95 20.92 -16.04 18.95 -19.04 -16.04 -10.04 -25.04 -27.01 -8.066 0 -32.08 -23.07
3.36 -21.01 2.908 9.942 30.95 26.92 -16.04 26.92 -5.065 -4.033 -10.04 -31.05 -17.07 -4.033 -2.064 -38.08 -19.04
3.365 -13.04 12.94 11.91 33.95 31.98 -13.04 23.92 1.97 0 -7.035 -29.08 -9.004 -5.065 -5.065 -39.02 -13.04
3.37 -9.004 12.94 5.909 27.95 29.92 -6.003 17.91 10.97 1.97 -2.064 -19.04 -2.064 -13.04 -3.001 -32.08 -9.004
3.375 -7.035 4.971 0.938 19.98 29.92 -2.064 7.973 4.971 0.938 1.97 -7.035 -4.033 -21.01 -2.064 -26.08 -5.065
3.38 -7.035 -1.032 -3.001 7.973 23.92 0 1.97 -5.065 -7.035 0 -2.064 -13.04 -23.07 5.909 -15.01 -1.032
3.385 -5.065 -9.004 -5.065 1.97 25.98 7.973 -2.064 -16.04 -9.004 7.973 0 -16.04 -15.01 15.95 0.938 1.97
3.39 -3.001 -15.01 -7.035 0.938 25.98 13.98 -3.001 -20.07 -1.032 15.95 0.938 -16.04 -3.001 25.98 13.98 9.942
3.395 -1.032 -23.07 -13.04 -5.065 21.95 13.98 -15.01 -15.01 1.97 17.91 -9.004 -11.07 3.939 31.98 29.92 15.95
3.4 -7.035 -33.02 -23.07 -15.01 11.91 5.909 -27.01 -13.04 3.939 9.942 -17.07 -13.04 1.97 29.92 39.96 13.98
3.405 -17.07 -43.05 -33.02 -27.01 -1.032 -1.032 -37.05 -21.01 -3.001 -1.032 -23.07 -17.07 -7.035 21.95 41.93 7.973
3.41 -31.05 -51.02 -39.02 -31.05 -13.04 -13.04 -35.08 -37.05 -23.07 -19.04 -23.07 -27.01 -27.01 7.973 35.92 -2.064
3.415 -41.08 -51.02 -39.02 -29.08 -17.07 -17.07 -23.07 -55.06 -41.08 -27.01 -19.04 -35.08 -45.02 0.938 29.92 -5.065
3.42 -43.05 -45.02 -33.02 -19.04 -13.04 -13.04 -11.07 -65 -49.06 -27.01 -11.07 -41.08 -51.02 -5.065 23.92 -9.004
3.425 -37.05 -37.05 -29.08 -13.04 -1.032 -5.065 -7.035 -61.06 -45.02 -21.01 -1.032 -41.08 -45.02 -7.035 19.98 -13.04
3.43 -29.08 -31.05 -27.01 -11.07 0 -3.001 -13.04 -49.06 -35.08 -17.07 0.938 -39.02 -39.02 -11.07 15.95 -15.01
3.435 -25.04 -31.05 -29.08 -15.01 -2.064 -7.035 -27.01 -39.02 -31.05 -23.07 -3.001 -37.05 -35.08 -15.01 9.942 -21.01
3.44 -25.04 -33.02 -29.08 -21.01 -1.032 -17.07 -35.08 -33.02 -33.02 -37.05 -15.01 -33.02 -39.02 -21.01 0 -27.01
3.445 -29.08 -27.01 -23.07 -17.07 -5.065 -27.01 -29.08 -33.02 -41.08 -49.06 -23.07 -29.08 -45.02 -27.01 -9.004 -29.08
3.45 -31.05 -17.07 -13.04 -5.065 -3.001 -31.05 -9.004 -29.08 -45.02 -53.09 -23.07 -23.07 -49.06 -29.08 -25.04 -31.05
3.455 -27.01 0.938 0.938 5.909 1.97 -25.04 9.942 -17.07 -41.08 -47.09 -13.04 -13.04 -45.02 -25.04 -41.08 -31.05
3.46 -17.07 10.97 5.909 19.98 11.91 -11.07 27.95 -3.001 -31.05 -31.05 -1.032 -5.065 -35.08 -21.01 -51.02 -31.05
3.465 -3.001 20.92 13.98 27.95 19.98 -2.064 33.95 7.973 -17.07 -17.07 -2.064 -1.032 -25.04 -19.04 -51.02 -31.05
3.47 7.973 22.98 13.98 29.92 25.98 9.942 29.92 19.98 -7.035 -9.004 -3.001 4.971 -19.04 -21.01 -41.08 -31.05
3.475 17.91 22.98 7.973 27.95 29.92 13.98 19.98 23.92 0.938 -9.004 -15.01 9.942 -17.07 -25.04 -25.04 -31.05
3.48 21.95 20.92 0.938 22.98 31.98 11.91 7.973 22.98 1.97 -13.04 -25.04 12.94 -19.04 -27.01 -8.066 -27.01
3.485 15.95 18.95 -4.033 16.98 30.95 5.909 0.938 12.94 3.939 -13.04 -23.07 12.94 -23.07 -25.04 -1.032 -21.01
3.49 3.939 12.94 -15.01 5.909 21.95 1.97 -9.004 0 1.97 -9.004 -11.07 7.973 -25.04 -15.01 3.939 -15.01
3.495 0 4.971 -20.07 0.938 12.94 1.97 -15.01 -8.066 -2.064 -3.001 -2.064 0 -27.01 -2.064 6.941 -7.035
3.5 -8.066 2.908 -26.08 0 0.938 1.97 -15.01 -20.07 -3.001 -1.032 7.973 -7.035 -23.07 0.938 10.97 -3.001
3.505 -13.04 -7.035 -29.08 -7.035 -1.032 1.97 -9.004 -25.04 -9.004 -2.064 5.909 -19.04 -19.04 3.939 17.91 -2.064
3.51 -12.01 -9.004 -30.01 -11.07 -4.033 1.97 -3.001 -23.07 -13.04 0 0.938 -23.07 -15.01 2.908 25.98 3.939
3.515 -10.04 -11.07 -27.01 -13.04 -4.033 -4.033 1.97 -21.01 -13.04 -4.033 -9.004 -20.07 -12.01 -1.032 33.95 7.973
3.52 -5.065 -13.04 -25.04 -15.01 -1.032 -9.004 -2.064 -15.01 -11.07 -9.004 -15.01 -11.07 -13.04 -2.064 41.93 11.91
3.525 1.97 -7.035 -16.04 -10.04 -2.064 -6.003 -2.064 -12.01 -11.07 -4.033 -9.004 -1.032 -12.01 1.97 44.93 18.95
3.53 3.939 -3.001 -8.066 -1.032 0.938 0 -4.033 -9.004 -11.07 0 0.938 3.939 -10.04 7.973 41.93 20.92
3.535 7.973 0.938 -5.065 -2.064 3.939 1.97 -7.035 -9.004 -7.035 7.973 3.939 3.939 -7.035 15.95 27.95 17.91
3.54 10.97 0.938 -4.033 1.97 9.942 8.911 -3.001 -9.004 0 18.95 5.909 0 -3.001 14.91 6.941 10.97
3.545 6.941 -1.032 -5.065 1.97 13.98 12.94 0.938 -6.003 5.909 22.98 2.908 -5.065 -2.064 9.942 -14.07 0
3.55 0.938 -1.032 -8.066 0.938 17.91 14.91 2.908 -1.032 13.98 19.98 0 -12.01 1.97 0 -42.02 -14.07
3.555 2.908 0.938 -11.07 5.909 21.95 16.98 7.973 6.941 19.98 12.94 -4.033 -9.004 -1.032 -5.065 -62.09 -24.01
3.56 6.941 6.941 -10.04 17.91 21.95 22.98 13.98 19.98 16.98 8.911 -5.065 0.938 -3.001 -12.01 -70.07 -22.04
3.565 15.95 16.98 -7.035 27.95 19.98 25.98 17.91 29.92 15.95 3.939 -1.032 3.939 -3.001 -11.07 -67.06 -15.01
3.57 21.95 24.95 -4.033 41.93 20.92 26.92 20.92 33.95 15.95 7.973 0 11.91 1.97 -5.065 -53.09 -2.064
3.575 23.92 28.98 0 42.96 13.98 28.98 20.92 28.98 17.91 12.94 7.973 9.942 2.908 1.97 -30.01 0
3.58 13.98 22.98 0.938 35.92 7.973 23.92 15.95 17.91 23.92 17.91 13.98 9.942 5.909 9.942 -9.004 -3.001
3.585 4.971 14.91 1.97 29.92 4.971 22.98 12.94 11.91 27.95 24.95 19.98 12.94 8.911 18.95 7.973 -3.001
3.59 0.938 10.97 -2.064 21.95 8.911 20.92 11.91 11.91 29.92 28.98 25.98 15.95 9.942 22.98 21.95 -1.032
3.595 0 10.97 -5.065 19.98 11.91 17.91 9.942 15.95 31.98 25.98 23.92 21.95 9.942 21.95 25.98 1.97
3.6 4.971 12.94 -10.04 16.98 14.91 13.98 7.973 22.98 27.95 20.92 15.95 23.92 9.942 20.92 28.98 17.91
3.605 2.908 10.97 -14.07 12.94 12.94 7.973 5.909 20.92 23.92 9.942 5.909 17.91 11.91 22.98 32.92 31.98
3.61 0.938 6.941 -17.07 5.909 1.97 1.97 3.939 11.91 15.95 1.97 0 9.942 13.98 23.92 39.96 43.99
3.615 -7.035 0.938 -16.04 1.97 -4.033 0.938 3.939 2.908 11.91 0.938 1.97 6.941 17.91 23.92 52.99 47.93
3.62 -13.04 0.938 -14.07 0 -11.07 -1.032 5.909 -1.032 11.91 -1.032 11.91 10.97 23.92 23.92 60.97 45.96
3.625 -15.01 -1.032 -13.04 -1.032 -11.07 -1.032 7.973 0 13.98 -1.032 21.95 15.95 23.92 19.98 57.97 37.99
3.63 -11.07 -1.032 -13.04 0.938 -7.035 -3.001 5.909 1.97 13.98 -1.032 25.98 18.95 19.98 11.91 48.96 23.92
3.635 -5.065 2.908 -13.04 -2.064 -5.065 -5.065 1.97 1.97 9.942 -1.032 19.98 12.94 7.973 3.939 27.95 5.909
3.64 -2.064 6.941 -13.04 0 -5.065 -5.065 3.939 -2.064 1.97 -5.065 9.942 1.97 -1.032 -1.032 5.909 -5.065
3.645 1.97 6.941 -11.07 1.97 -7.035 -5.065 7.973 -3.001 -1.032 -7.035 0 -3.001 -13.04 -11.07 -9.004 -19.04
3.65 5.909 6.941 -7.035 5.909 -7.035 0.938 15.95 -3.001 -7.035 -9.004 0 -7.035 -19.04 -17.07 -27.01 -23.07
3.655 5.909 6.941 0.938 9.942 -5.065 1.97 19.98 0.938 -7.035 -5.065 7.973 -3.001 -17.07 -17.07 -41.08 -21.01
3.66 3.939 4.971 3.939 9.942 0.938 7.973 13.98 0 0.938 -1.032 13.98 0.938 -11.07 -13.04 -47.09 -17.07
3.665 0 2.908 5.909 7.973 1.97 11.91 1.97 1.97 5.909 -2.064 11.91 0 -7.035 -5.065 -47.09 -15.01
3.67 -1.032 -1.032 1.97 1.97 1.97 7.973 -5.065 0 7.973 -2.064 0 0 -7.035 0.938 -41.08 -15.01
3.675 -7.035 0.938 -3.001 -1.032 0 0 -15.01 -1.032 3.939 -1.032 -9.004 -1.032 -11.07 -2.064 -35.08 -17.07
3.68 -9.004 -1.032 -15.01 -3.001 0.938 -3.001 -19.04 -7.035 -1.032 -3.001 -19.04 -9.004 -13.04 0.938 -27.01 -17.07
3.685 -11.07 -1.032 -27.01 -1.032 -3.001 -9.004 -19.04 -11.07 -7.035 0.938 -19.04 -15.01 -11.07 0.938 -23.07 -11.07
3.69 -9.004 0.938 -33.02 0.938 -3.001 -9.004 -19.04 -13.04 -7.035 3.939 -9.004 -15.01 -3.001 -2.064 -15.01 0
3.695 -7.035 -1.032 -31.05 0 -1.032 -1.032 -19.04 -9.004 -1.032 15.95 -2.064 -9.004 5.909 7.973 -3.001 17.91
3.7 -1.032 0.938 -25.04 3.939 0 3.939 -13.04 -1.032 5.909 25.98 9.942 1.97 17.91 19.98 9.942 35.92
3.705 1.97 4.971 -15.01 7.973 7.973 13.98 -1.032 9.942 17.91 31.98 15.95 21.95 25.98 29.92 31.98 49.99
3.71 13.98 10.97 -5.065 13.98 17.91 17.91 9.942 29.92 27.95 33.95 21.95 45.96 33.95 37.99 51.96 59.94
3.715 23.92 14.91 -2.064 19.98 29.92 17.91 25.98 50.93 35.92 29.92 27.95 63.97 41.93 39.96 65.94 62
3.72 29.92 16.98 0 25.98 35.92 13.98 35.92 57.97 39.96 25.98 33.95 73.91 49.99 39.96 69.97 59.94
3.725 25.98 12.94 0 26.92 36.96 11.91 37.99 60.97 41.93 19.98 37.99 74.94 56.93 38.93 63.97 53.93
3.73 17.91 6.941 0 22.98 28.98 11.91 35.92 50.93 40.99 14.91 33.95 64.91 59 34.99 49.99 42.96
3.735 7.973 0.938 0 13.98 13.98 11.91 29.92 37.99 35.92 11.91 25.98 49.99 53.93 27.95 35.92 29.92
3.74 0 0.938 0.938 4.971 2.908 12.94 23.92 26.92 30.95 10.97 18.95 36.96 48.96 22.98 15.95 16.98
3.745 -2.064 0.938 -1.032 4.971 0 10.97 17.91 21.95 26.92 12.94 14.91 26.92 38.93 16.98 -1.032 4.971
3.75 1.97 -1.032 0.938 5.909 -3.001 7.973 11.91 19.98 19.98 13.98 13.98 15.95 27.95 13.98 -13.04 -2.064
3.755 7.973 2.908 1.97 13.98 1.97 6.941 0 21.95 20.92 12.94 12.94 17.91 19.98 15.95 -22.04 0
3.76 14.91 6.941 0 15.95 1.97 2.908 -1.032 26.92 16.98 7.973 8.911 17.91 11.91 11.91 -26.08 0.938
3.765 17.91 6.941 0.938 19.98 -2.064 0 -5.065 29.92 11.91 0 0 23.92 3.939 7.973 -23.07 0.938
3.77 16.98 4.971 1.97 16.98 1.97 0 0.938 35.92 7.973 -1.032 0.938 28.98 2.908 4.971 -12.01 -2.064
3.775 16.98 2.908 0 9.942 -3.001 -2.064 11.91 36.96 6.941 -1.032 0.938 31.98 9.942 5.909 0 2.908
3.78 13.98 2.908 0 5.909 -7.035 0 21.95 31.98 9.942 5.909 5.909 31.98 15.95 7.973 15.95 7.973
3.785 11.91 0.938 1.97 4.971 -1.032 1.97 22.98 26.92 19.98 15.95 20.92 32.92 29.92 15.95 35.92 15.95
3.79 8.911 -7.035 1.97 3.939 1.97 4.971 14.91 22.98 27.95 23.92 29.92 33.95 38.93 23.92 48.96 24.95
3.795 5.909 -19.04 0 1.97 0 3.939 3.939 19.98 30.95 24.95 30.95 33.95 38.93 22.98 54.96 27.95
3.8 -1.032 -35.08 0.938 -5.065 -10.04 6.941 0 16.98 25.98 15.95 19.98 31.98 30.95 17.91 54.96 20.92
3.805 -7.035 -43.05 -3.001 -14.07 -23.07 1.97 -1.032 16.98 13.98 5.909 4.971 24.95 13.98 7.973 47.93 7.973
3.81 -17.07 -45.02 -5.065 -23.07 -41.08 -2.064 7.973 11.91 -1.032 -1.032 -5.065 17.91 -3.001 -2.064 29.92 -2.064
3.815 -22.04 -39.02 -5.065 -25.04 -43.05 -1.032 11.91 6.941 -16.04 -8.066 -19.04 7.973 -17.07 -1.032 15.95 -4.033
3.82 -24.01 -35.08 -5.065 -22.04 -40.05 -5.065 1.97 1.97 -25.04 -15.01 -33.02 -1.032 -28.04 -2.064 -1.032 -7.035
3.825 -23.07 -29.08 -9.004 -19.04 -29.08 -9.004 -13.04 -11.07 -29.08 -13.04 -45.02 -9.004 -27.01 0.938 -15.01 -5.065
3.83 -14.07 -23.07 -10.04 -15.01 -17.07 -8.066 -37.05 -22.04 -20.07 -7.035 -48.02 -23.07 -17.07 1.97 -28.04 -3.001
3.835 -5.065 -21.01 -6.003 -13.04 -13.04 -4.033 -47.09 -29.08 -14.07 -1.032 -42.02 -31.05 -7.035 3.939 -36.02 -4.033
3.84 0 -19.04 -3.001 -11.07 -19.04 -1.032 -43.05 -27.01 -7.035 5.909 -29.08 -37.05 0.938 3.939 -37.05 -7.035
3.845 1.97 -11.07 0.938 -10.04 -24.01 0.938 -27.01 -13.04 -2.064 10.97 -12.01 -30.01 2.908 0.938 -32.08 -8.066
3.85 0 -9.004 6.941 -10.04 -30.01 0.938 -7.035 -2.064 -2.064 10.97 -2.064 -22.04 6.941 1.97 -33.02 -10.04
3.855 -1.032 -11.07 9.942 -11.07 -29.08 0 1.97 3.939 -5.065 3.939 -5.065 -11.07 3.939 -5.065 -35.08 -13.04
3.86 -3.001 -7.035 15.95 -10.04 -20.07 -2.064 9.942 8.911 -2.064 -1.032 -9.004 0 6.941 -8.066 -45.02 -18.01
3.865 0.938 -5.065 21.95 -8.066 -10.04 0 13.98 6.941 0.938 0.938 -11.07 -1.032 12.94 -10.04 -53.09 -25.04
3.87 3.939 0.938 23.92 -3.001 -1.032 1.97 15.95 5.909 3.939 0 -5.065 0 15.95 -7.035 -53.09 -29.08
3.875 9.942 2.908 23.92 -2.064 -2.064 3.939 11.91 6.941 9.942 5.909 -2.064 1.97 19.98 -1.032 -45.02 -29.08
3.88 7.973 4.971 19.98 1.97 0.938 1.97 3.939 11.91 9.942 7.973 1.97 3.939 15.95 0.938 -29.08 -23.07
3.885 -2.064 -1.032 13.98 -2.064 -5.065 0.938 -3.001 11.91 3.939 1.97 0 0 5.909 -3.001 -13.04 -15.01
3.89 -15.01 -9.004 5.909 -7.035 -17.07 -5.065 -11.07 3.939 -5.065 -5.065 -3.001 -1.032 -5.065 -11.07 -1.032 -11.07
3.895 -29.08 -21.01 1.97 -19.04 -27.01 -9.004 -13.04 -7.035 -21.01 -19.04 -11.07 -13.04 -19.04 -19.04 -2.064 -9.004
3.9 -31.05 -23.07 3.939 -25.04 -33.02 -9.004 -3.001 -19.04 -33.02 -29.08 -13.04 -19.04 -29.08 -21.01 0 -11.07
3.905 -17.07 -11.07 13.98 -19.04 -31.05 -5.065 7.973 -21.01 -33.02 -29.08 -9.004 -17.07 -27.01 -17.07 1.97 -11.07
3.91 0 6.941 25.98 -3.001 -21.01 0.938 21.95 -11.07 -25.04 -19.04 -5.065 -7.035 -21.01 -7.035 7.973 -5.065
3.915 17.91 26.92 33.95 7.973 -13.04 0 25.98 -2.064 -13.04 -9.004 -3.001 -2.064 -13.04 -2.064 13.98 0
3.92 25.98 36.96 31.98 15.95 -7.035 0 17.91 1.97 -5.065 -3.001 -5.065 0 -11.07 1.97 17.91 5.909
3.925 17.91 28.98 19.98 5.909 -11.07 -2.064 0 -1.032 -5.065 -5.065 -9.004 -7.035 -17.07 -2.064 13.98 5.909
3.93 1.97 6.941 1.97 -9.004 -21.01 -1.032 -17.07 -21.01 -13.04 -13.04 -9.004 -29.08 -29.08 -5.065 1.97 1.97
3.935 -9.004 -15.01 -9.004 -33.02 -33.02 -3.001 -33.02 -39.02 -23.07 -23.07 -5.065 -47.09 -39.02 -13.04 -9.004 -1.032
3.94 -15.01 -31.05 -15.01 -45.02 -41.08 -7.035 -37.05 -47.09 -29.08 -29.08 -1.032 -53.09 -41.08 -17.07 -23.07 -7.035
3.945 -9.004 -31.05 -9.004 -43.05 -41.08 -9.004 -33.02 -41.08 -29.08 -29.08 -3.001 -45.02 -37.05 -15.01 -33.02 -7.035
3.95 0.938 -19.04 1.97 -27.01 -35.08 -11.07 -21.01 -29.08 -25.04 -25.04 -5.065 -31.05 -29.08 -13.04 -37.05 -7.035
3.955 5.909 -3.001 21.95 -9.004 -25.04 -11.07 -7.035 -17.07 -17.07 -21.01 -9.004 -19.04 -23.07 -11.07 -39.02 -9.004
3.96 11.91 6.941 34.99 0 -15.01 -9.004 0.938 -7.035 -13.04 -15.01 -7.035 -7.035 -23.07 -11.07 -39.02 -15.01
3.965 15.95 14.91 37.99 7.973 -5.065 -5.065 0 -1.032 -9.004 -9.004 0.938 -1.032 -19.04 -11.07 -37.05 -21.01
3.97 22.98 16.98 38.93 14.91 2.908 0.938 3.939 7.973 -3.001 -3.001 5.909 5.909 -11.07 -9.004 -29.08 -25.04
3.975 30.95 20.92 36.96 20.92 12.94 0 9.942 23.92 3.939 0 11.91 25.98 1.97 -5.065 -16.04 -19.04
3.98 35.92 28.98 39.96 31.98 21.95 1.97 19.98 39.96 19.98 7.973 15.95 45.96 21.95 -2.064 -3.001 -9.004
3.985 36.96 36.96 44.93 36.96 26.92 1.97 29.92 49.99 35.92 11.91 19.98 60.97 41.93 5.909 8.911 1.97
3.99 28.98 38.93 46.99 34.99 24.95 0 35.92 48.96 44.93 13.98 21.95 60.97 49.99 13.98 20.92 15.95
3.995 11.91 30.95 41.93 25.98 15.95 -2.064 33.95 35.92 41.93 11.91 27.95 49.99 45.96 21.95 25.98 27.95
4 1.97 14.91 27.95 8.911 0.938 -1.032 21.95 20.92 30.95 9.942 27.95 30.95 38.93 27.95 26.92 35.92
4.005 -7.035 0.938 11.91 -1.032 -7.035 0.938 5.909 6.941 16.98 7.973 15.95 16.98 30.95 33.95 25.98 41.93
4.01 -11.07 -17.07 -2.064 -13.04 -23.07 -2.064 -1.032 -1.032 3.939 9.942 0 7.973 25.98 33.95 21.95 45.96
4.015 -4.033 -21.01 0.938 -17.07 -24.01 6.941 -6.003 -4.033 0.938 13.98 -11.07 7.973 26.92 33.95 23.92 48.96
4.02 -1.032 -17.07 0.938 -14.07 -16.04 12.94 -6.003 0.938 5.909 19.98 -17.07 7.973 28.98 31.98 26.92 46.99
4.025 5.909 -11.07 5.909 -13.04 -7.035 15.95 -5.065 0.938 9.942 19.98 -11.07 7.973 25.98 23.92 25.98 37.99
4.03 10.97 -3.001 11.91 -6.003 -1.032 19.98 -3.001 0.938 15.95 18.95 -1.032 0.938 21.95 17.91 19.98 27.95
4.035 9.942 2.908 9.942 -6.003 0.938 18.95 -12.01 -8.066 13.98 14.91 0.938 -9.004 14.91 11.91 4.971 14.91
4.04 12.94 0.938 3.939 -11.07 0.938 19.98 -23.07 -24.01 10.97 10.97 -9.004 -24.01 3.939 7.973 -9.004 7.973
4.045 11.91 -5.065 0.938 -22.04 -12.01 16.98 -36.02 -38.08 3.939 8.911 -27.01 -41.08 -4.033 7.973 -28.04 -1.032
4.05 14.91 -13.04 -3.001 -32.08 -22.04 19.98 -39.02 -47.09 -1.032 8.911 -37.05 -50.09 -15.01 7.973 -41.08 0
4.055 13.98 -17.07 -9.004 -37.05 -29.08 17.91 -33.02 -47.09 -9.004 9.942 -33.02 -47.09 -21.01 9.942 -39.02 0
4.06 14.91 -13.04 -8.066 -30.01 -22.04 18.95 -18.01 -31.05 -9.004 11.91 -17.07 -33.02 -18.01 11.91 -28.04 10.97
4.065 14.91 -7.035 -5.065 -17.07 -10.04 20.92 -4.033 -10.04 -6.003 17.91 -2.064 -5.065 -6.003 17.91 -15.01 20.92
4.07 17.91 -1.032 -3.001 -2.064 0 23.92 3.939 5.909 -2.064 27.95 7.973 11.91 7.973 27.95 -1.032 31.98
4.075 27.95 8.911 -2.064 17.91 13.98 29.92 9.942 22.98 12.94 33.95 1.97 30.95 28.98 39.96 1.97 41.93
4.08 34.99 18.95 9.942 26.92 20.92 29.92 13.98 26.92 24.95 39.96 0.938 36.96 44.93 43.99 4.971 43.99
4.085 39.96 22.98 17.91 25.98 17.91 23.92 17.91 21.95 29.92 37.99 -2.064 27.95 45.96 41.93 5.909 35.92
4.09 36.96 20.92 22.98 16.98 4.971 11.91 21.95 10.97 24.95 25.98 5.909 16.98 35.92 29.92 8.911 27.95
4.095 22.98 8.911 18.95 2.908 -8.066 -2.064 21.95 0 7.973 7.973 17.91 4.971 17.91 11.91 14.91 19.98
4.1 0 -7.035 3.939 -9.004 -27.01 -11.07 15.95 -1.032 -5.065 -3.001 23.92 -2.064 0 0 21.95 19.98
4.105 -14.07 -25.04 -6.003 -18.01 -42.02 -19.04 3.939 -3.001 -21.01 -9.004 19.98 -1.032 -7.035 0.938 30.95 27.95
4.11 -28.04 -39.02 -16.04 -26.08 -48.02 -23.07 0.938 -7.035 -27.01 -9.004 9.942 -1.032 -11.07 0 33.95 37.99
4.115 -31.05 -41.08 -21.01 -25.04 -47.09 -23.07 -3.001 -11.07 -27.01 -5.065 1.97 -5.065 -7.035 7.973 35.92 47.93
4.12 -25.04 -31.05 -14.07 -13.04 -35.08 -25.04 -2.064 -11.07 -23.07 -1.032 1.97 -5.065 0.938 13.98 35.92 53.93
4.125 -17.07 -15.01 -5.065 0.938 -19.04 -23.07 7.973 -7.035 -19.04 -1.032 9.942 -5.065 0 15.95 35.92 59.94
4.13 -11.07 -3.001 0.938 5.909 -5.065 -19.04 13.98 0.938 -17.07 -1.032 15.95 0.938 3.939 13.98 37.99 63.97
4.135 -7.035 -1.032 -2.064 9.942 0 -13.04 17.91 7.973 -11.07 -1.032 17.91 5.909 5.909 13.98 41.93 62
4.14 -7.035 -1.032 -2.064 7.973 5.909 -7.035 19.98 15.95 -5.065 -1.032 15.95 15.95 7.973 13.98 43.99 56
4.145 -9.004 0.938 -2.064 3.939 7.973 -3.001 21.95 17.91 -2.064 -5.065 15.95 25.98 9.942 11.91 41.93 41.93
4.15 -9.004 -1.032 1.97 5.909 5.909 -5.065 25.98 17.91 1.97 -9.004 17.91 29.92 7.973 5.909 33.95 21.95
4.155 -9.004 0.938 5.909 11.91 3.939 -11.07 23.92 13.98 3.939 -15.01 23.92 27.95 3.939 0 19.98 1.97
4.16 -7.035 -1.032 7.973 17.91 1.97 -15.01 17.91 13.98 1.97 -19.04 23.92 23.92 0 -3.001 9.942 -7.035
4.165 -3.001 4.971 5.909 23.92 3.939 -15.01 7.973 17.91 -2.064 -19.04 17.91 23.92 0.938 -5.065 5.909 -11.07
4.17 -2.064 10.97 1.97 23.92 11.91 -13.04 3.939 23.92 0.938 -13.04 9.942 29.92 -2.064 0.938 13.98 -7.035
4.175 3.939 16.98 0 23.92 21.95 -11.07 7.973 31.98 0 -3.001 5.909 39.96 5.909 1.97 25.98 -1.032
4.18 7.973 22.98 0 25.98 29.92 -9.004 21.95 35.92 5.909 -2.064 9.942 47.93 13.98 9.942 35.92 0.938
4.185 9.942 28.98 1.97 27.95 33.95 -7.035 35.92 35.92 11.91 3.939 15.95 49.99 19.98 13.98 39.96 -3.001
4.19 11.91 30.95 1.97 31.98 29.92 -3.001 41.93 32.92 15.95 3.939 17.91 44.93 21.95 13.98 33.95 -11.07
4.195 9.942 28.98 -2.064 31.98 25.98 0.938 35.92 25.98 17.91 3.939 9.942 31.98 21.95 13.98 25.98 -15.01
4.2 11.91 24.95 -7.035 26.92 22.98 0 25.98 22.98 17.91 1.97 -2.064 22.98 17.91 13.98 23.92 -17.07
4.205 11.91 18.95 -13.04 16.98 20.92 1.97 17.91 20.92 15.95 0 -7.035 20.92 17.91 17.91 25.98 -13.04
4.21 13.98 14.91 -15.01 7.973 19.98 0 13.98 17.91 13.98 -2.064 -3.001 21.95 17.91 21.95 33.95 -7.035
4.215 12.94 12.94 -11.07 4.971 16.98 0.938 13.98 18.95 9.942 0.938 6.941 28.98 19.98 23.92 39.96 -5.065
4.22 10.97 8.911 -3.001 0.938 8.911 -3.001 13.98 11.91 3.939 -3.001 26.92 27.95 15.95 23.92 35.92 -8.066
4.225 7.973 4.971 0.938 3.939 0.938 -5.065 9.942 1.97 -2.064 -7.035 35.92 15.95 7.973 15.95 21.95 -17.07
4.23 6.941 2.908 -1.032 4.971 -7.035 -5.065 1.97 -5.065 -2.064 -11.07 32.92 -2.064 -2.064 6.941 3.939 -26.08
4.235 2.908 2.908 1.97 7.973 -9.004 -7.035 0.938 -10.04 -6.003 -19.04 16.98 -13.04 -9.004 -2.064 -5.065 -38.08
4.24 1.97 2.908 -1.032 1.97 -11.07 -13.04 -3.001 -15.01 -13.04 -23.07 0.938 -23.07 -19.04 -15.01 -11.07 -47.09
4.245 1.97 0.938 -2.064 -2.064 -8.066 -19.04 -3.001 -15.01 -18.01 -26.08 -11.07 -22.04 -29.08 -22.04 -10.04 -52.06
4.25 -2.064 2.908 -4.033 -2.064 -10.04 -25.04 -1.032 -20.07 -26.08 -26.08 -15.01 -23.07 -36.02 -24.01 -12.01 -52.06
4.255 0.938 -5.065 -7.035 -13.04 -17.07 -29.08 0.938 -29.08 -33.02 -27.01 -9.004 -23.07 -39.02 -25.04 -13.04 -51.02
4.26 1.97 -15.01 -5.065 -19.04 -20.07 -28.04 1.97 -34.05 -37.05 -26.08 1.97 -25.04 -38.08 -19.04 -10.04 -45.02
4.265 0.938 -15.01 -2.064 -19.04 -19.04 -22.04 1.97 -36.02 -35.08 -24.01 1.97 -25.04 -32.08 -17.07 -7.035 -40.05
4.27 -2.064 -11.07 9.942 -13.04 -11.07 -15.01 -2.064 -29.08 -23.07 -17.07 1.97 -19.04 -19.04 -13.04 0.938 -33.02
4.275 7.973 -1.032 23.92 1.97 0 -1.032 3.939 -9.004 -5.065 -4.033 1.97 -2.064 -3.001 -4.033 6.941 -19.04
4.28 20.92 16.98 28.98 15.95 20.92 5.909 9.942 8.911 10.97 2.908 -5.065 9.942 7.973 2.908 16.98 -11.07
4.285 34.99 30.95 24.95 26.92 33.95 9.942 7.973 22.98 25.98 8.911 -5.065 14.91 22.98 8.911 19.98 0
4.29 42.96 30.95 10.97 27.95 34.99 9.942 3.939 22.98 28.98 8.911 0.938 11.91 23.92 10.97 16.98 -1.032
4.295 39.96 18.95 0.938 17.91 25.98 5.909 -3.001 7.973 19.98 0.938 4.971 0 19.98 6.941 10.97 0.938
4.3 29.92 0.938 -9.004 1.97 17.91 -2.064 -17.07 -3.001 7.973 -7.035 5.909 -15.01 5.909 0.938 3.939 -7.035
4.305 15.95 -9.004 -11.07 -3.001 11.91 1.97 -20.07 -14.07 -2.064 -12.01 3.939 -25.04 0 -3.001 3.939 -12.01
4.31 4.971 -15.01 -3.001 -11.07 8.911 0.938 -16.04 -14.07 -1.032 -12.01 1.97 -27.01 -10.04 -3.001 2.908 -15.01
4.315 -2.064 -11.07 -1.032 -7.035 7.973 3.939 -11.07 -7.035 -1.032 -5.065 -9.004 -21.01 -15.01 0.938 0 -11.07
4.32 1.97 -1.032 1.97 -2.064 6.941 3.939 -3.001 -1.032 -1.032 0 -17.07 -15.01 -14.07 0.938 1.97 -8.066
4.325 3.939 -1.032 -4.033 -2.064 6.941 1.97 -3.001 3.939 0.938 1.97 -17.07 -14.07 -15.01 0.938 -4.033 -6.003
4.33 1.97 4.971 -13.04 0 3.939 -1.032 -5.065 0 -2.064 -1.032 -21.01 -15.01 -11.07 0 -9.004 -9.004
4.335 -1.032 8.911 -10.04 5.909 5.909 -5.065 -7.035 0 0 -5.065 -18.01 -15.01 -11.07 -1.032 -7.035 -12.01
4.34 0 12.94 0 8.911 7.973 -5.065 -1.032 -3.001 1.97 -5.065 -10.04 -11.07 -7.035 0.938 -1.032 -14.07
4.345 0.938 18.95 5.909 13.98 9.942 -2.064 5.909 -2.064 0 0.938 0.938 -1.032 -1.032 5.909 -2.064 -13.04
4.35 6.941 26.92 17.91 20.92 16.98 9.942 15.95 9.942 11.91 7.973 14.91 5.909 3.939 13.98 0 -6.003
4.355 20.92 28.98 21.95 26.92 24.95 21.95 17.91 20.92 21.95 19.98 26.92 14.91 15.95 21.95 1.97 0.938
4.36 35.92 26.92 19.98 25.98 31.98 31.98 13.98 27.95 33.95 25.98 21.95 17.91 29.92 27.95 0 3.939
4.365 47.93 20.92 15.95 26.92 38.93 37.99 3.939 34.99 39.96 27.95 5.909 22.98 39.96 25.98 0 9.942
4.37 49.99 12.94 11.91 24.95 44.93 39.96 0 38.93 41.93 23.92 -5.065 22.98 41.93 21.95 -2.064 9.942
4.375 39.96 8.911 9.942 19.98 41.93 37.99 5.909 39.96 41.93 15.95 -13.04 23.92 37.99 13.98 0 5.909
4.38 25.98 8.911 9.942 11.91 35.92 29.92 17.91 34.99 37.99 7.973 -3.001 19.98 29.92 7.973 5.909 0
4.385 7.973 6.941 7.973 1.97 25.98 21.95 25.98 21.95 31.98 -2.064 9.942 15.95 15.95 1.97 11.91 -5.065
4.39 0.938 0.938 1.97 -3.001 13.98 13.98 25.98 9.942 21.95 -3.001 25.98 11.91 1.97 -2.064 17.91 -11.07
4.395 -7.035 -3.001 -1.032 -11.07 3.939 7.973 15.95 -2.064 11.91 -7.035 27.95 5.909 -7.035 -2.064 21.95 -17.07
4.4 -9.004 -13.04 -7.035 -13.04 0.938 3.939 1.97 -5.065 0 -9.004 19.98 3.939 -17.07 0.938 25.98 -21.01
4.405 -5.065 -15.01 -9.004 -7.035 0.938 3.939 0.938 -3.001 -3.001 -7.035 11.91 3.939 -19.04 -3.001 27.95 -21.01
4.41 -1.032 -13.04 -5.065 -2.064 -2.064 1.97 -2.064 0.938 -5.065 -5.065 9.942 5.909 -15.01 -5.065 29.92 -21.01
4.415 0 -5.065 -2.064 3.939 5.909 0 1.97 3.939 -1.032 -3.001 19.98 9.942 -7.035 -7.035 33.95 -19.04
4.42 1.97 0.938 0 3.939 11.91 0.938 3.939 9.942 0 -1.032 27.95 13.98 0.938 -5.065 35.92 -15.01
4.425 3.939 0.938 -2.064 -2.064 15.95 -1.032 0 13.98 7.973 -2.064 31.98 15.95 1.97 0.938 35.92 -11.07
4.43 3.939 0.938 -3.001 -5.065 15.95 -1.032 -1.032 11.91 9.942 1.97 25.98 17.91 5.909 1.97 33.95 -7.035
4.435 3.939 -1.032 -7.035 -5.065 15.95 0 -3.001 9.942 11.91 7.973 17.91 17.91 9.942 7.973 29.92 -3.001
4.44 7.973 2.908 -5.065 -2.064 15.95 5.909 -2.064 9.942 11.91 15.95 13.98 15.95 13.98 13.98 21.95 -1.032
4.445 13.98 6.941 0.938 9.942 17.91 13.98 7.973 11.91 17.91 25.98 15.95 9.942 19.98 19.98 11.91 -2.064
4.45 17.91 10.97 5.909 21.95 21.95 15.95 17.91 15.95 25.98 29.92 15.95 3.939 25.98 21.95 0 0
4.455 21.95 12.94 9.942 23.92 27.95 15.95 17.91 19.98 35.92 31.98 7.973 -2.064 29.92 17.91 -7.035 0
4.46 19.98 8.911 7.973 17.91 30.95 13.98 7.973 19.98 39.96 27.95 -1.032 0 29.92 11.91 -19.04 -2.064
4.465 13.98 2.908 1.97 6.941 28.98 13.98 0.938 9.942 35.92 19.98 -13.04 -4.033 25.98 5.909 -25.04 0.938
4.47 5.909 2.908 0.938 -1.032 23.92 17.91 -9.004 -2.064 25.98 13.98 -13.04 -3.001 19.98 3.939 -21.01 -1.032
4.475 0 4.971 0.938 0 22.98 21.95 -7.035 -9.004 18.95 13.98 -3.001 0.938 13.98 1.97 -13.04 0.938
4.48 -2.064 12.94 1.97 0.938 20.92 23.92 -2.064 -6.003 12.94 13.98 7.973 8.911 9.942 3.939 -1.032 0.938
4.485 0.938 16.98 5.909 11.91 19.98 19.98 11.91 -1.032 9.942 15.95 17.91 15.95 5.909 3.939 0 -2.064
4.49 1.97 12.94 8.911 16.98 20.92 9.942 21.95 4.971 10.97 13.98 12.94 21.95 -1.032 0.938 1.97 0
4.495 -2.064 0.938 2.908 12.94 19.98 -1.032 21.95 12.94 8.911 9.942 -1.032 15.95 -6.003 -4.033 -6.003 -8.066
4.5 -9.004 -7.035 -1.032 3.939 11.91 -15.01 15.95 7.973 1.97 1.97 -9.004 9.942 -17.07 -11.07 -15.01 -19.04
4.505 -10.04 -11.07 -2.064 0.938 5.909 -19.04 3.939 2.908 -1.032 -2.064 -12.01 2.908 -22.04 -14.07 -14.07 -24.01
4.51 -11.07 -13.04 1.97 -4.033 0.938 -15.01 -4.033 -1.032 -11.07 -4.033 -4.033 -2.064 -22.04 -12.01 -4.033 -21.01
4.515 -9.004 -5.065 0 -3.001 0.938 -11.07 -9.004 -5.065 -15.01 -7.035 0 -2.064 -21.01 -7.035 1.97 -17.07
4.52 1.97 0.938 4.971 1.97 0 -7.035 -8.066 -3.001 -12.01 -3.001 5.909 -1.032 -14.07 -2.064 10.97 -10.04
4.525 2.908 6.941 4.971 0 -4.033 -9.004 -3.001 -2.064 -5.065 0.938 -1.032 0 -9.004 -5.065 10.97 -9.004
4.53 5.909 4.971 0.938 -2.064 -7.035 -11.07 1.97 -6.003 -1.032 -1.032 -5.065 -8.066 -2.064 -12.01 -1.032 -9.004
4.535 4.971 -1.032 -2.064 0.938 -16.04 -11.07 0.938 -12.01 0.938 1.97 -18.01 -16.04 0.938 -15.01 -10.04 -13.04
4.54 2.908 -3.001 -6.003 -3.001 -24.01 -9.004 -6.003 -17.07 -2.064 5.909 -17.07 -22.04 1.97 -16.04 -22.04 -18.01
4.545 0 -11.07 -7.035 -11.07 -31.05 -3.001 -15.01 -21.01 -7.035 9.942 -15.01 -25.04 0.938 -11.07 -29.08 -21.01
4.55 0 -19.04 -8.066 -16.04 -36.02 -3.001 -16.04 -17.07 -13.04 10.97 -12.01 -25.04 -2.064 -6.003 -32.08 -17.07
4.555 0 -23.07 -10.04 -23.07 -45.02 -5.065 -15.01 -14.07 -15.01 6.941 -18.01 -22.04 -10.04 -6.003 -34.05 -22.04
4.56 -5.065 -27.01 -15.01 -25.04 -51.02 -11.07 -9.004 -15.01 -21.01 1.97 -27.01 -17.07 -19.04 -13.04 -39.02 -27.01
4.565 -6.003 -25.04 -16.04 -22.04 -53.09 -15.01 -7.035 -16.04 -22.04 -1.032 -28.04 -15.01 -20.07 -22.04 -44.08 -30.01
4.57 -6.003 -17.07 -14.07 -12.01 -56.09 -17.07 -7.035 -20.07 -26.08 -7.035 -22.04 -11.07 -22.04 -30.01 -50.09 -36.02
4.575 -5.065 -11.07 -11.07 -3.001 -57.03 -17.07 -5.065 -23.07 -31.05 -11.07 -7.035 -15.01 -25.04 -37.05 -57.03 -43.05
4.58 -1.032 0.938 -3.001 2.908 -50.09 -17.07 -3.001 -20.07 -32.08 -13.04 1.97 -18.01 -29.08 -37.05 -61.06 -47.09
4.585 -3.001 -1.032 0.938 8.911 -44.08 -15.01 0 -19.04 -32.08 -13.04 9.942 -20.07 -33.02 -33.02 -59.09 -45.02
4.59 -7.035 0.938 0.938 5.909 -39.02 -11.07 9.942 -15.01 -27.01 -13.04 9.942 -19.04 -31.05 -29.08 -51.02 -39.02
4.595 -9.004 0.938 0.938 6.941 -32.08 -7.035 13.98 -7.035 -17.07 -9.004 1.97 -12.01 -21.01 -23.07 -33.02 -27.01
4.6 -9.004 0.938 0.938 7.973 -24.01 0.938 11.91 0.938 -5.065 -1.032 -2.064 -1.032 -3.001 -15.01 -11.07 -11.07
4.605 -3.001 8.911 0.938 9.942 -17.07 3.939 5.909 9.942 1.97 1.97 0 13.98 9.942 -7.035 3.939 0.938
4.61 -2.064 14.91 0.938 9.942 -13.04 7.973 -2.064 15.95 9.942 5.909 5.909 21.95 19.98 -5.065 13.98 0
4.615 -2.064 14.91 -1.032 -2.064 -17.07 3.939 -1.032 7.973 7.973 1.97 9.942 15.95 15.95 -11.07 13.98 -1.032
4.62 -9.004 4.971 -7.035 -17.07 -29.08 -2.064 -5.065 -5.065 0.938 -3.001 9.942 0.938 -2.064 -21.01 3.939 -13.04
4.625 -25.04 -11.07 -13.04 -41.08 -41.08 -5.065 -9.004 -27.01 -15.01 -15.01 3.939 -19.04 -19.04 -31.05 -3.001 -27.01
4.63 -37.05 -29.08 -17.07 -57.03 -51.02 -5.065 -17.07 -43.05 -31.05 -23.07 0 -33.02 -33.02 -37.05 -13.04 -33.02
4.635 -41.08 -37.05 -15.01 -59.09 -49.06 -1.032 -23.07 -45.02 -35.08 -21.01 0 -33.02 -35.08 -33.02 -15.01 -31.05
4.64 -33.02 -31.05 -5.065 -47.09 -41.08 1.97 -27.01 -35.08 -27.01 -11.07 5.909 -25.04 -25.04 -23.07 -11.07 -27.01
4.645 -21.01 -19.04 1.97 -31.05 -29.08 5.909 -21.01 -23.07 -13.04 -1.032 11.91 -13.04 -13.04 -15.01 -9.004 -23.07
4.65 -11.07 -7.035 5.909 -19.04 -21.01 3.939 -11.07 -17.07 -5.065 -2.064 9.942 -7.035 -7.035 -11.07 -11.07 -21.01
4.655 -9.004 -1.032 -2.064 -19.04 -17.07 0 -1.032 -17.07 -3.001 -2.064 1.97 -7.035 -7.035 -11.07 -19.04 -23.07
4.66 -13.04 -5.065 -9.004 -27.01 -17.07 0.938 -2.064 -21.01 -11.07 -3.001 -5.065 -13.04 -11.07 -15.01 -29.08 -21.01
4.665 -15.01 -11.07 -15.01 -33.02 -13.04 0 0.938 -21.01 -19.04 -5.065 -15.01 -15.01 -15.01 -17.07 -35.08 -19.04
4.67 -11.07 -9.004 -9.004 -31.05 -7.035 7.973 -3.001 -15.01 -19.04 -3.001 -17.07 -13.04 -13.04 -13.04 -39.02 -13.04
4.675 -1.032 -1.032 1.97 -19.04 0 17.91 -5.065 -7.035 -11.07 -2.064 -11.07 -7.035 -5.065 -5.065 -37.05 -7.035
4.68 3.939 8.911 19.98 -2.064 9.942 25.98 -3.001 1.97 0 7.973 -3.001 0 0 -2.064 -37.05 -3.001
4.685 11.91 20.92 27.95 3.939 19.98 27.95 -1.032 0 13.98 13.98 -2.064 -1.032 7.973 5.909 -39.02 0.938
4.69 13.98 26.92 19.98 10.97 22.98 27.95 -5.065 0.938 19.98 15.95 0.938 -4.033 11.91 11.91 -38.08 0
4.695 12.94 24.95 2.908 6.941 24.95 25.98 -13.04 2.908 19.98 17.91 -3.001 -12.01 11.91 17.91 -36.02 5.909
4.7 7.973 20.92 -9.004 1.97 21.95 27.95 -19.04 3.939 13.98 17.91 -7.035 -13.04 9.942 21.95 -29.08 11.91
4.705 4.971 16.98 -10.04 0.938 18.95 27.95 -17.07 7.973 9.942 19.98 -7.035 -9.004 7.973 23.92 -14.07 19.98
4.71 4.971 18.95 -2.064 7.973 16.98 27.95 -3.001 11.91 7.973 19.98 -2.064 0.938 9.942 23.92 2.908 23.92
4.715 1.97 18.95 7.973 9.942 9.942 23.92 9.942 9.942 7.973 19.98 15.95 5.909 11.91 17.91 23.92 21.95
4.72 0.938 22.98 18.95 13.98 5.909 15.95 25.98 10.97 5.909 17.91 33.95 20.92 11.91 11.91 41.93 13.98
4.725 1.97 20.92 18.95 18.95 1.97 5.909 31.98 14.91 6.941 11.91 47.93 32.92 13.98 3.939 51.96 5.909
4.73 -3.001 16.98 13.98 17.91 0 -2.064 33.95 15.95 3.939 9.942 51.96 39.96 11.91 -2.064 53.93 3.939
4.735 -5.065 12.94 9.942 21.95 0.938 -5.065 31.98 23.92 0.938 5.909 46.99 43.99 6.941 0 54.96 0
4.74 -6.003 8.911 3.939 17.91 -1.032 -7.035 35.92 28.98 0.938 4.971 38.93 48.96 0.938 0 50.93 1.97
4.745 -11.07 2.908 1.97 13.98 0.938 -9.004 37.99 27.95 -2.064 1.97 25.98 45.96 0 0.938 41.93 1.97
4.75 -15.01 0.938 1.97 6.941 0 -13.04 38.93 27.95 1.97 0.938 18.95 43.99 2.908 1.97 28.98 -2.064
4.755 -24.01 -3.001 -6.003 -3.001 -3.001 -14.07 30.95 19.98 0.938 0.938 19.98 35.92 6.941 1.97 11.91 0.938
4.76 -31.05 -15.01 -17.07 -17.07 -9.004 -17.07 15.95 7.973 -5.065 0 17.91 19.98 7.973 -1.032 -3.001 -7.035
4.765 -36.02 -21.01 -22.04 -26.08 -15.01 -20.07 7.973 -1.032 -11.07 -2.064 16.98 1.97 1.97 -4.033 -23.07 -11.07
4.77 -40.05 -29.08 -24.01 -34.05 -20.07 -23.07 3.939 -16.04 -23.07 -3.001 8.911 -16.04 -4.033 -8.066 -37.05 -15.01
4.775 -45.02 -39.02 -20.07 -38.08 -27.01 -24.01 -2.064 -32.08 -34.05 -12.01 1.97 -33.02 -19.04 -14.07 -45.02 -19.04
4.78 -50.09 -47.09 -22.04 -38.08 -32.08 -27.01 -1.032 -42.02 -41.08 -21.01 -16.04 -44.08 -32.08 -20.07 -49.06 -23.07
4.785 -52.06 -47.09 -20.07 -38.08 -31.05 -26.08 -13.04 -41.08 -41.08 -21.01 -28.04 -47.09 -37.05 -26.08 -47.09 -27.01
4.79 -45.02 -43.05 -19.04 -35.08 -21.01 -23.07 -27.01 -31.05 -33.02 -17.07 -31.05 -39.02 -29.08 -29.08 -41.08 -27.01
4.795 -36.02 -31.05 -12.01 -27.01 -3.001 -20.07 -30.01 -17.07 -17.07 -8.066 -23.07 -25.04 -14.07 -28.04 -31.05 -27.01
4.8 -19.04 -21.01 -3.001 -16.04 8.911 -13.04 -22.04 -1.032 1.97 0 -12.01 -11.07 1.97 -24.01 -24.01 -25.04
4.805 -11.07 -13.04 0 -9.004 19.98 -7.035 -9.004 0 7.973 -2.064 0.938 -3.001 3.939 -19.04 -15.01 -19.04
4.81 -2.064 -3.001 3.939 0.938 30.95 0.938 1.97 8.911 16.98 0.938 8.911 -1.032 8.911 -14.07 -6.003 -13.04
4.815 -2.064 0.938 7.973 3.939 34.99 1.97 11.91 9.942 18.95 0 10.97 3.939 8.911 -10.04 -1.032 -7.035
4.82 3.939 -1.032 5.909 5.909 35.92 1.97 11.91 11.91 15.95 0 7.973 9.942 3.939 -7.035 5.909 -3.001
4.825 15.95 6.941 6.941 6.941 37.99 3.939 9.942 14.91 16.98 3.939 1.97 16.98 3.939 -3.001 13.98 -1.032
4.83 28.98 6.941 8.911 5.909 37.99 5.909 7.973 14.91 13.98 7.973 1.97 16.98 3.939 -1.032 19.98 -2.064
4.835 35.92 6.941 7.973 1.97 33.95 5.909 5.909 9.942 15.95 11.91 5.909 11.91 7.973 -2.064 17.91 0
4.84 38.93 0.938 4.971 0 32.92 5.909 3.939 9.942 19.98 11.91 13.98 13.98 11.91 0 14.91 3.939
4.845 36.96 2.908 -1.032 1.97 30.95 9.942 1.97 9.942 23.92 11.91 17.91 15.95 15.95 1.97 8.911 5.909
4.85 27.95 -1.032 -7.035 -1.032 27.95 15.95 -2.064 9.942 27.95 13.98 13.98 13.98 19.98 1.97 0.938 5.909
4.855 20.92 0.938 -12.01 -2.064 24.95 21.95 -1.032 10.97 31.98 15.95 5.909 12.94 21.95 3.939 -10.04 1.97
4.86 17.91 2.908 -15.01 -2.064 22.98 25.98 -3.001 10.97 31.98 17.91 -1.032 2.908 17.91 3.939 -24.01 -1.032
4.865 17.91 2.908 -13.04 -7.035 17.91 23.92 -9.004 0 27.95 17.91 -11.07 -9.004 7.973 0 -37.05 -13.04
4.87 11.91 -1.032 -13.04 -10.04 9.942 15.95 -15.01 -6.003 13.98 9.942 -15.01 -24.01 -3.001 -1.032 -51.02 -23.07
4.875 3.939 -11.07 -15.01 -17.07 0 5.909 -23.07 -19.04 -2.064 0 -19.04 -37.05 -17.07 -9.004 -61.06 -31.05
4.88 -3.001 -19.04 -17.07 -23.07 -5.065 -1.032 -27.01 -25.04 -15.01 -7.035 -23.07 -41.08 -29.08 -19.04 -67.06 -37.05
4.885 -13.04 -21.01 -17.07 -27.01 -13.04 -11.07 -25.04 -23.07 -27.01 -19.04 -23.07 -39.02 -35.08 -25.04 -67.06 -37.05
4.89 -23.07 -23.07 -13.04 -29.08 -19.04 -23.07 -17.07 -21.01 -35.08 -25.04 -19.04 -37.05 -35.08 -27.01 -61.06 -35.08
4.895 -29.08 -25.04 -5.065 -31.05 -23.07 -31.05 -7.035 -23.07 -39.02 -29.08 -11.07 -35.08 -35.08 -27.01 -51.02 -33.02
4.9 -35.08 -35.08 0.938 -37.05 -27.01 -35.08 0.938 -31.05 -43.05 -31.05 -1.032 -37.05 -35.08 -29.08 -41.08 -29.08
4.905 -39.02 -45.02 1.97 -43.05 -33.02 -37.05 -2.064 -37.05 -45.02 -33.02 0 -39.02 -39.02 -31.05 -31.05 -27.01
4.91 -41.08 -53.09 3.939 -47.09 -35.08 -35.08 -1.032 -41.08 -47.09 -33.02 -2.064 -35.08 -45.02 -35.08 -21.01 -29.08
4.915 -37.05 -51.02 5.909 -45.02 -35.08 -29.08 -3.001 -33.02 -43.05 -31.05 -3.001 -27.01 -45.02 -39.02 -13.04 -29.08
4.92 -27.01 -39.02 7.973 -35.08 -27.01 -21.01 -5.065 -21.01 -37.05 -25.04 -5.065 -13.04 -39.02 -37.05 -3.001 -29.08
4.925 -15.01 -23.07 9.942 -23.07 -15.01 -9.004 -1.032 -7.035 -23.07 -11.07 -1.032 -3.001 -27.01 -29.08 3.939 -27.01
4.93 -3.001 -11.07 11.91 -13.04 0.938 0.938 0 0.938 -11.07 0 1.97 0 -13.04 -21.01 17.91 -21.01
4.935 -2.064 -7.035 11.91 -5.065 11.91 5.909 3.939 0 0.938 13.98 7.973 3.939 -1.032 -13.04 25.98 -17.07
4.94 -2.064 -13.04 7.973 -3.001 25.98 13.98 3.939 1.97 5.909 25.98 5.909 5.909 0 -11.07 29.92 -13.04
4.945 0.938 -17.07 1.97 -3.001 37.99 19.98 0 5.909 9.942 31.98 0.938 5.909 1.97 -9.004 23.92 -11.07
4.95 0.938 -19.04 0.938 -5.065 43.99 21.95 0.938 15.95 15.95 33.95 -7.035 5.909 1.97 -5.065 14.91 -11.07
4.955 0.938 -17.07 -2.064 -3.001 41.93 17.91 -3.001 19.98 17.91 31.98 -7.035 1.97 3.939 -2.064 4.971 -9.004
4.96 -1.032 -15.01 -3.001 -3.001 33.95 11.91 0.938 17.91 17.91 27.95 -2.064 0 5.909 5.909 -2.064 -5.065
4.965 -7.035 -11.07 0 -5.065 23.92 1.97 3.939 7.973 13.98 23.92 9.942 -2.064 5.909 11.91 2.908 1.97
4.97 -15.01 -13.04 -1.032 0.938 17.91 -1.032 15.95 2.908 7.973 17.91 19.98 1.97 5.909 13.98 10.97 2.908
4.975 -19.04 -9.004 7.973 7.973 19.98 -5.065 29.92 5.909 5.909 15.95 21.95 11.91 11.91 9.942 21.95 9.942
4.98 -13.04 0.938 18.95 21.95 32.92 0 41.93 28.98 10.97 11.91 17.91 27.95 18.95 5.909 33.95 16.98
4.985 -5.065 10.97 22.98 38.93 44.93 1.97 45.96 50.93 18.95 9.942 15.95 41.93 26.92 1.97 43.99 22.98
4.99 -2.064 20.92 19.98 43.99 45.96 0.938 41.93 62 23.92 7.973 15.95 47.93 31.98 1.97 45.96 23.92
4.995 0 20.92 9.942 38.93 36.96 0 27.95 56.93 22.98 6.941 17.91 42.96 30.95 4.971 48.96 29.92
5 -7.035 10.97 1.97 20.92 18.95 -8.066 11.91 31.98 15.95 4.971 15.95 26.92 22.98 10.97 45.96 25.98
5.005 -21.01 -3.001 -11.07 -2.064 0.938 -17.07 -1.032 0.938 0 0 7.973 1.97 5.909 13.98 37.99 19.98
5.01 -36.02 -21.01 -17.07 -17.07 -14.07 -20.07 -13.04 -28.04 -12.01 0.938 0 -10.04 -2.064 15.95 31.98 8.911
5.015 -40.05 -35.08 -20.07 -27.01 -20.07 -24.01 -16.04 -42.02 -29.08 -6.003 -15.01 -24.01 -17.07 9.942 19.98 -3.001
5.02 -36.02 -35.08 -13.04 -28.04 -18.01 -20.07 -12.01 -43.05 -37.05 -13.04 -21.01 -28.04 -32.08 -2.064 8.911 -22.04
5.025 -26.08 -33.02 -6.003 -27.01 -12.01 -12.01 -6.003 -34.05 -41.08 -20.07 -17.07 -24.01 -41.08 -19.04 5.909 -39.02
5.03 -16.04 -25.04 0.938 -27.01 -6.003 -4.033 -1.032 -24.01 -40.05 -23.07 -4.033 -20.07 -46.05 -35.08 0 -50.09
5.035 -13.04 -25.04 -2.064 -27.01 -5.065 -2.064 0.938 -19.04 -35.08 -25.04 -2.064 -19.04 -47.09 -47.09 -1.032 -55.06
5.04 -15.01 -19.04 -1.032 -24.01 0 -1.032 -3.001 -15.01 -27.01 -20.07 0 -14.07 -42.02 -42.02 -3.001 -53.09
5.045 -19.04 -21.01 -2.064 -20.07 0 1.97 -9.004 -16.04 -22.04 -14.07 0.938 -10.04 -34.05 -28.04 -6.003 -43.05
5.05 -21.01 -17.07 -1.032 -11.07 0 0.938 -11.07 -15.01 -13.04 -9.004 -11.07 -11.07 -23.07 -9.004 -9.004 -33.02
5.055 -19.04 -11.07 0 0 6.941 0 -9.004 -6.003 -4.033 -1.032 -13.04 -9.004 -10.04 3.939 -5.065 -16.04
5.06 -17.07 -5.065 -4.033 1.97 12.94 -1.032 -3.001 0 2.908 -2.064 -7.035 -9.004 1.97 15.95 -1.032 0
5.065 -19.04 -5.065 -7.035 0 11.91 1.97 1.97 0.938 9.942 0 -2.064 -13.04 3.939 15.95 -2.064 5.909
5.07 -19.04 -9.004 -10.04 -5.065 7.973 5.909 5.909 -4.033 9.942 -2.064 3.939 -19.04 1.97 11.91 2.908 12.94
5.075 -21.01 -15.01 -10.04 -17.07 1.97 7.973 3.939 -13.04 3.939 -1.032 -2.064 -23.07 0 1.97 4.971 14.91
5.08 -19.04 -21.01 -11.07 -23.07 -2.064 7.973 -2.064 -19.04 0.938 -3.001 -11.07 -19.04 -2.064 -2.064 3.939 15.95
5.085 -11.07 -17.07 -6.003 -19.04 1.97 9.942 -5.065 -15.01 -1.032 -1.032 -23.07 -7.035 1.97 1.97 6.941 19.98
5.09 -1.032 -13.04 -7.035 -9.004 7.973 9.942 -11.07 -3.001 0.938 0 -25.04 3.939 9.942 13.98 8.911 27.95
5.095 0 -11.07 -5.065 -1.032 11.91 11.91 -15.01 5.909 3.939 5.909 -11.07 13.98 19.98 25.98 11.91 33.95
5.1 0 -11.07 -3.001 0.938 7.973 7.973 -15.01 9.942 9.942 7.973 0 17.91 25.98 33.95 15.95 37.99
5.105 -3.001 -17.07 -1.032 -5.065 0.938 1.97 -13.04 3.939 5.909 5.909 9.942 11.91 21.95 31.98 15.95 37.99
5.11 -13.04 -23.07 -2.064 -13.04 -11.07 0.938 -7.035 -3.001 -2.064 0 7.973 1.97 11.91 21.95 11.91 29.92
5.115 -21.01 -27.01 0 -19.04 -19.04 -3.001 -1.032 -11.07 -5.065 -2.064 1.97 0.938 1.97 9.942 5.909 21.95
5.12 -21.01 -21.01 3.939 -17.07 -19.04 -1.032 3.939 -13.04 -9.004 -2.064 0.938 -3.001 -2.064 1.97 0 9.942
5.125 -15.01 -13.04 7.973 -11.07 -13.04 0 7.973 -9.004 -5.065 0 0 -3.001 0.938 0.938 -2.064 -2.064
5.13 -7.035 -1.032 13.98 -3.001 -5.065 7.973 7.973 -5.065 0.938 0 7.973 -1.032 0.938 -5.065 0.938 -13.04
5.135 0.938 4.971 19.98 0.938 0.938 13.98 1.97 -1.032 -2.064 0 13.98 -1.032 -5.065 -11.07 -3.001 -27.01
5.14 1.97 12.94 25.98 -2.064 0 19.98 -2.064 0.938 0.938 -2.064 11.91 -3.001 -11.07 -17.07 -7.035 -41.08
5.145 9.942 20.92 29.92 1.97 7.973 23.92 0 0 -1.032 0 3.939 -3.001 -17.07 -21.01 -15.01 -43.05
5.15 19.98 30.95 31.98 9.942 19.98 31.98 9.942 9.942 -2.064 5.909 -1.032 -1.032 -15.01 -17.07 -19.04 -35.08
5.155 29.92 38.93 27.95 21.95 31.98 39.96 19.98 19.98 9.942 15.95 -9.004 -2.064 -5.065 -7.035 -23.07 -19.04
5.16 37.99 42.96 19.98 33.95 39.96 43.99 25.98 27.95 25.98 23.92 -13.04 0 3.939 1.97 -19.04 -1.032
5.165 35.92 42.96 9.942 41.93 41.93 43.99 17.91 29.92 39.96 25.98 -13.04 1.97 15.95 11.91 -11.07 7.973
5.17 27.95 38.93 5.909 41.93 37.99 37.99 3.939 30.95 41.93 19.98 -13.04 4.971 19.98 17.91 -2.064 13.98
5.175 15.95 32.92 3.939 37.99 31.98 27.95 -5.065 27.95 37.99 9.942 -11.07 9.942 15.95 13.98 17.91 15.95
5.18 3.939 26.92 5.909 31.98 27.95 17.91 -7.035 26.92 29.92 0 -7.035 20.92 9.942 7.973 37.99 17.91
5.185 -1.032 24.95 5.909 28.98 23.92 9.942 0.938 26.92 21.95 -1.032 0 30.95 5.909 3.939 49.99 21.95
5.19 -5.065 24.95 7.973 23.92 21.95 5.909 9.942 23.92 17.91 -3.001 13.98 31.98 3.939 3.939 51.96 27.95
5.195 -7.035 24.95 7.973 20.92 18.95 3.939 15.95 19.98 13.98 -5.065 25.98 22.98 3.939 3.939 39.96 29.92
5.2 -10.04 18.95 3.939 12.94 8.911 3.939 9.942 9.942 5.909 -7.035 29.92 5.909 1.97 5.909 19.98 25.98
5.205 -13.04 14.91 -2.064 3.939 0.938 5.909 -2.064 0 0.938 -9.004 23.92 -9.004 0.938 5.909 0 15.95
5.21 -16.04 4.971 -3.001 0 -8.066 7.973 -4.033 -3.001 -8.066 -13.04 13.98 -23.07 -9.004 0.938 -9.004 3.939
5.215 -16.04 0.938 -9.004 -6.003 -14.07 11.91 -4.033 -6.003 -14.07 -15.01 1.97 -28.04 -19.04 -2.064 -13.04 -3.001
5.22 -11.07 -1.032 -11.07 -7.035 -11.07 11.91 0 -11.07 -15.01 -15.01 0.938 -27.01 -25.04 -7.035 -15.01 -11.07
5.225 0 0.938 -9.004 -1.032 -1.032 14.91 8.911 -13.04 -12.01 -11.07 0 -23.07 -27.01 -6.003 -21.01 -10.04
5.23 2.908 4.971 -3.001 -2.064 1.97 14.91 12.94 -16.04 -8.066 -7.035 -2.064 -27.01 -23.07 -4.033 -35.08 -10.04
5.235 5.909 6.941 -2.064 1.97 7.973 15.95 5.909 -19.04 -3.001 -3.001 -7.035 -31.05 -15.01 -1.032 -53.09 -9.004
5.24 5.909 6.941 2.908 5.909 10.97 16.98 0.938 -16.04 0 -1.032 -10.04 -38.08 -11.07 0 -64.06 -8.066
5.245 0.938 4.971 2.908 2.908 5.909 14.91 -4.033 -11.07 1.97 0.938 -11.07 -38.08 -4.033 0 -66.03 -8.066
5.25 -1.032 -1.032 -2.064 -2.064 -2.064 13.98 -7.035 -5.065 5.909 1.97 -11.07 -35.08 -1.032 -2.064 -55.06 -7.035
5.255 -3.001 2.908 -1.032 1.97 -5.065 13.98 -4.033 0 9.942 11.91 -8.066 -19.04 0.938 1.97 -34.05 0
5.26 -1.032 0.938 -5.065 1.97 -6.003 14.91 1.97 7.973 13.98 22.98 -6.003 -3.001 7.973 9.942 -14.07 1.97
5.265 0 0.938 -11.07 1.97 -4.033 19.98 2.908 9.942 19.98 32.92 0.938 2.908 16.98 17.91 0 8.911
5.27 5.909 -1.032 -9.004 -1.032 -2.064 22.98 6.941 17.91 19.98 36.96 2.908 7.973 21.95 21.95 6.941 11.91
5.275 11.91 2.908 -11.07 0 -1.032 21.95 6.941 15.95 17.91 33.95 6.941 5.909 24.95 21.95 13.98 12.94
5.28 9.942 2.908 -13.04 0.938 -3.001 13.98 3.939 9.942 11.91 23.92 7.973 0 17.91 15.95 15.95 11.91
5.285 4.971 6.941 -10.04 -2.064 -13.04 2.908 0.938 3.939 3.939 7.973 5.909 1.97 6.941 7.973 22.98 14.91
5.29 -3.001 -1.032 -12.01 -7.035 -26.08 -6.003 0.938 1.97 -1.032 -3.001 1.97 1.97 -5.065 3.939 30.95 22.98
5.295 -15.01 -5.065 -15.01 -11.07 -43.05 -19.04 -5.065 -5.065 -13.04 -13.04 -1.032 -2.064 -15.01 0 37.99 27.95
5.3 -22.04 -11.07 -17.07 -13.04 -55.06 -24.01 -6.003 -6.003 -14.07 -19.04 0.938 0 -17.07 0.938 39.96 32.92
5.305 -30.01 -15.01 -19.04 -11.07 -57.03 -28.04 -8.066 -7.035 -12.01 -19.04 14.91 0 -19.04 1.97 37.99 28.98
5.31 -31.05 -17.07 -19.04 -13.04 -55.06 -31.05 -11.07 -9.004 -13.04 -21.01 21.95 -5.065 -19.04 -7.035 25.98 13.98
5.315 -28.04 -13.04 -15.01 -12.01 -50.09 -33.02 -12.01 -10.04 -16.04 -23.07 13.98 -16.04 -25.04 -20.07 7.973 0.938
5.32 -22.04 -7.035 -11.07 -10.04 -42.02 -39.02 -18.01 -13.04 -22.04 -31.05 -1.032 -29.08 -37.05 -34.05 -7.035 -19.04
5.325 -19.04 -3.001 -9.004 -11.07 -39.02 -41.08 -21.01 -13.04 -33.02 -37.05 -23.07 -35.08 -49.06 -41.08 -23.07 -31.05
5.33 -16.04 -5.065 -9.004 -8.066 -40.05 -39.02 -17.07 -9.004 -39.02 -39.02 -33.02 -31.05 -57.03 -37.05 -37.05 -33.02
5.335 -13.04 -7.035 -9.004 -6.003 -40.05 -29.08 -11.07 -5.065 -39.02 -33.02 -25.04 -28.04 -55.06 -25.04 -47.09 -29.08
5.34 -9.004 -9.004 -7.035 -3.001 -39.02 -19.04 -3.001 -1.032 -31.05 -21.01 -3.001 -25.04 -43.05 -11.07 -53.09 -21.01
5.345 -1.032 -3.001 -1.032 -1.032 -31.05 -7.035 1.97 0.938 -17.07 -3.001 9.942 -22.04 -27.01 -1.032 -57.03 -13.04
5.35 3.939 0.938 -2.064 1.97 -21.01 -2.064 11.91 0.938 -1.032 7.973 11.91 -26.08 -9.004 -2.064 -61.06 -13.04
5.355 13.98 10.97 1.97 3.939 -13.04 3.939 21.95 1.97 5.909 17.91 0 -27.01 0 0.938 -61.06 -19.04
5.36 21.95 18.95 0 1.97 -9.004 7.973 25.98 0.938 13.98 21.95 -11.07 -24.01 3.939 -7.035 -55.06 -29.08
5.365 19.98 20.92 0.938 0 -11.07 9.942 21.95 1.97 13.98 17.91 -19.04 -17.07 0 -13.04 -45.02 -41.08
5.37 13.98 16.98 -3.001 -2.064 -17.07 11.91 9.942 1.97 7.973 9.942 -17.07 -7.035 -3.001 -19.04 -31.05 -47.09
5.375 3.939 12.94 -5.065 -2.064 -25.04 13.98 -3.001 3.939 -2.064 3.939 -11.07 -1.032 -11.07 -19.04 -17.07 -45.02
5.38 -2.064 8.911 -1.032 0 -29.08 15.95 -17.07 1.97 -5.065 1.97 -7.035 -2.064 -13.04 -15.01 -3.001 -37.05
5.385 0.938 10.97 1.97 3.939 -29.08 15.95 -23.07 0 -7.035 1.97 -9.004 -2.064 -9.004 -9.004 7.973 -25.04
5.39 -2.064 14.91 9.942 7.973 -25.04 13.98 -17.07 -2.064 -5.065 3.939 -13.04 0 -1.032 -3.001 23.92 -11.07
5.395 1.97 18.95 13.98 9.942 -21.01 9.942 -5.065 -2.064 -1.032 3.939 -13.04 5.909 1.97 0.938 39.96 -1.032
5.4 1.97 18.95 11.91 5.909 -19.04 5.909 0 1.97 -2.064 1.97 -1.032 13.98 3.939 -2.064 51.96 1.97
5.405 0 12.94 5.909 0 -19.04 1.97 5.909 5.909 -2.064 0 7.973 21.95 0 0 53.93 9.942
5.41 0.938 8.911 -2.064 0.938 -19.04 0 7.973 7.973 -1.032 1.97 21.95 21.95 -1.032 3.939 43.99 13.98
5.415 0.938 6.941 -3.001 -2.064 -15.01 1.97 5.909 9.942 -5.065 5.909 23.92 17.91 -7.035 3.939 23.92 11.91
5.42 -2.064 12.94 -1.032 5.909 -11.07 5.909 5.909 9.942 -5.065 9.942 15.95 9.942 -7.035 0 0 3.939
5.425 -2.064 18.95 -2.064 11.91 -10.04 5.909 5.909 9.942 -1.032 7.973 1.97 3.939 -5.065 -3.001 -17.07 -5.065
5.43 0.938 22.98 3.939 15.95 -12.01 1.97 5.909 9.942 -1.032 1.97 -3.001 -2.064 -3.001 -17.07 -29.08 -23.07
5.435 -3.001 18.95 7.973 11.91 -19.04 -1.032 3.939 3.939 0 -3.001 -7.035 -2.064 -1.032 -29.08 -33.02 -37.05
5.44 -8.066 8.911 7.973 6.941 -20.07 -5.065 0 -1.032 0.938 -9.004 -5.065 1.97 -1.032 -33.02 -33.02 -43.05
5.445 -12.01 -1.032 3.939 0.938 -14.07 -3.001 0.938 -1.032 2.908 -5.065 -3.001 1.97 0.938 -25.04 -33.02 -35.08
5.45 -9.004 0.938 3.939 1.97 -1.032 1.97 0.938 1.97 7.973 1.97 -3.001 0 5.909 -9.004 -35.08 -19.04
5.455 0 0.938 8.911 12.94 15.95 14.91 0 16.98 20.92 19.98 -5.065 10.97 22.98 3.939 -31.05 1.97
5.46 4.971 8.911 16.98 24.95 33.95 22.98 9.942 32.92 34.99 34.99 -8.066 22.98 42.96 19.98 -27.01 12.94
5.465 9.942 12.94 23.92 31.98 37.99 23.92 19.98 43.99 41.93 37.99 -7.035 31.98 56 25.98 -19.04 19.98
5.47 9.942 10.97 28.98 31.98 32.92 18.95 27.95 47.93 41.93 30.95 1.97 39.96 59 25.98 -7.035 20.92
5.475 1.97 4.971 24.95 17.91 18.95 4.971 27.95 35.92 31.98 12.94 8.911 33.95 50.93 15.95 -2.064 16.98
5.48 -3.001 -1.032 15.95 3.939 0 -5.065 23.92 17.91 15.95 0.938 15.95 21.95 33.95 3.939 3.939 3.939
5.485 -14.07 -5.065 3.939 -6.003 -8.066 -13.04 9.942 2.908 1.97 -12.01 16.98 10.97 15.95 -5.065 7.973 0.938
5.49 -21.01 -11.07 -3.001 -17.07 -15.01 -21.01 -1.032 -1.032 -8.066 -17.07 11.91 3.939 -1.032 -12.01 7.973 -5.065
5.495 -27.01 -17.07 -9.004 -21.01 -21.01 -25.04 -5.065 -5.065 -21.01 -19.04 3.939 -2.064 -5.065 -15.01 13.98 -3.001
5.5 -30.01 -19.04 -12.01 -20.07 -27.01 -30.01 -4.033 -8.066 -27.01 -17.07 1.97 1.97 -8.066 -14.07 20.92 0.938
5.505 -32.08 -23.07 -11.07 -18.01 -37.05 -32.08 0.938 -14.07 -30.01 -17.07 1.97 -1.032 -10.04 -11.07 26.92 4.971
5.51 -30.01 -27.01 -9.004 -20.07 -42.02 -36.02 4.971 -20.07 -28.04 -20.07 7.973 -8.066 -12.01 -8.066 29.92 5.909
5.515 -28.04 -29.08 -9.004 -24.01 -47.09 -34.05 5.909 -24.01 -24.01 -21.01 11.91 -9.004 -14.07 -9.004 30.95 6.941
5.52 -20.07 -29.08 -10.04 -28.04 -47.09 -26.08 -1.032 -24.01 -21.01 -19.04 15.95 -11.07 -14.07 -10.04 26.92 0
5.525 -13.04 -27.01 -13.04 -29.08 -41.08 -15.01 -9.004 -21.01 -19.04 -15.01 11.91 -11.07 -13.04 -13.04 15.95 0.938
5.53 -5.065 -21.01 -15.01 -27.01 -29.08 -5.065 -20.07 -17.07 -10.04 -5.065 9.942 -9.004 -8.066 -10.04 1.97 -1.032
5.535 0 -15.01 -15.01 -22.04 -18.01 0 -19.04 -18.01 -3.001 1.97 -1.032 -14.07 -1.032 -5.065 -11.07 1.97
5.54 -1.032 -11.07 -15.01 -19.04 -7.035 0.938 -15.01 -21.01 -2.064 1.97 -11.07 -19.04 0 -2.064 -29.08 1.97
5.545 0.938 -7.035 -10.04 -17.07 0.938 1.97 -9.004 -23.07 3.939 6.941 -18.01 -21.01 6.941 7.973 -41.08 10.97
5.55 1.97 -5.065 -6.003 -15.01 3.939 0.938 -5.065 -19.04 7.973 10.97 -20.07 -19.04 12.94 21.95 -45.02 20.92
5.555 0.938 -3.001 -1.032 -17.07 9.942 3.939 -3.001 -15.01 7.973 15.95 -13.04 -15.01 19.98 27.95 -37.05 31.98
5.56 1.97 -1.032 -1.032 -12.01 9.942 8.911 0.938 -4.033 8.911 18.95 0.938 -4.033 24.95 27.95 -19.04 40.99
5.565 0 0.938 2.908 -10.04 3.939 6.941 1.97 -1.032 4.971 11.91 16.98 4.971 28.98 21.95 -2.064 44.93
5.57 -3.001 -1.032 3.939 -5.065 -1.032 0 11.91 3.939 0 3.939 21.95 17.91 27.95 9.942 17.91 43.99
5.575 -6.003 0.938 7.973 0 -8.066 -5.065 21.95 10.97 -1.032 -1.032 15.95 30.95 25.98 3.939 27.95 39.96
5.58 -6.003 0.938 9.942 1.97 -14.07 -13.04 23.92 16.98 0 -9.004 7.973 36.96 21.95 1.97 31.98 33.95
5.585 -5.065 -1.032 9.942 -1.032 -17.07 -15.01 19.98 17.91 -3.001 -9.004 3.939 35.92 17.91 1.97 27.95 29.92
5.59 0.938 -1.032 5.909 -9.004 -16.04 -11.07 9.942 13.98 -2.064 -5.065 5.909 25.98 13.98 1.97 19.98 25.98
5.595 -2.064 -11.07 0 -19.04 -16.04 -9.004 0 1.97 -7.035 -3.001 9.942 7.973 3.939 0.938 11.91 15.95
5.6 -1.032 -21.01 -3.001 -29.08 -21.01 -9.004 -7.035 -9.004 -13.04 -7.035 11.91 -9.004 -5.065 -9.004 7.973 3.939
5.605 -5.065 -29.08 -11.07 -37.05 -25.04 -11.07 -15.01 -23.07 -25.04 -13.04 7.973 -25.04 -23.07 -19.04 7.973 -1.032
5.61 -9.004 -33.02 -17.07 -37.05 -25.04 -11.07 -21.01 -31.05 -35.08 -17.07 0 -35.08 -35.08 -21.01 9.942 -5.065
5.615 -7.035 -29.08 -17.07 -31.05 -19.04 -5.065 -25.04 -29.08 -37.05 -9.004 0.938 -35.08 -35.08 -11.07 9.942 0.938
5.62 0.938 -21.01 -13.04 -19.04 -5.065 1.97 -23.07 -23.07 -27.01 1.97 0.938 -29.08 -19.04 0 1.97 7.973
5.625 7.973 -9.004 -5.065 -9.004 3.939 15.95 -17.07 -17.07 -7.035 21.95 -2.064 -23.07 0.938 13.98 -9.004 17.91
5.63 13.98 -3.001 0 -3.001 11.91 21.95 -13.04 -15.01 7.973 33.95 0 -19.04 13.98 19.98 -31.05 21.95
5.635 15.95 -3.001 7.973 -5.065 7.973 21.95 -7.035 -17.07 19.98 33.95 0.938 -19.04 21.95 19.98 -51.02 17.91
5.64 9.942 -9.004 11.91 -11.07 -1.032 11.91 -5.065 -21.01 17.91 23.92 -7.035 -21.01 15.95 15.95 -61.06 13.98
5.645 0 -13.04 11.91 -17.07 -17.07 1.97 -1.032 -23.07 3.939 11.91 -13.04 -19.04 7.973 15.95 -57.03 13.98
5.65 -3.001 -13.04 13.98 -13.04 -27.01 0.938 -2.064 -19.04 -7.035 1.97 -15.01 -15.01 0 21.95 -35.08 21.95
5.655 -5.065 -5.065 13.98 -3.001 -25.04 0.938 3.939 -9.004 -15.01 0 -7.035 -5.065 1.97 25.98 -9.004 31.98
5.66 -3.001 2.908 17.91 3.939 -17.07 0 7.973 -2.064 -15.01 3.939 0 1.97 5.909 25.98 11.91 39.96
5.665 -2.064 12.94 21.95 15.95 -7.035 3.939 11.91 7.973 -9.004 5.909 13.98 11.91 9.942 17.91 27.95 35.92
5.67 0 16.98 23.92 22.98 -1.032 1.97 17.91 16.98 -1.032 3.939 25.98 18.95 7.973 3.939 31.98 21.95
5.675 -2.064 12.94 23.92 20.92 -3.001 -1.032 19.98 16.98 0.938 -1.032 27.95 18.95 0 -7.035 29.92 3.939
5.68 -3.001 4.971 19.98 13.98 -11.07 -11.07 19.98 15.95 -3.001 -13.04 19.98 15.95 -3.001 -19.04 25.98 -5.065
5.685 -10.04 -1.032 9.942 6.941 -17.07 -19.04 11.91 14.91 -11.07 -23.07 1.97 12.94 -11.07 -23.07 23.92 -10.04
5.69 -16.04 -5.065 0.938 4.971 -18.01 -21.01 -2.064 12.94 -19.04 -27.01 -13.04 6.941 -13.04 -21.01 25.98 -10.04
5.695 -21.01 -5.065 -5.065 1.97 -17.07 -17.07 -13.04 5.909 -21.01 -21.01 -29.08 -2.064 -13.04 -17.07 25.98 -9.004
5.7 -20.07 -1.032 -12.01 1.97 -14.07 -11.07 -21.01 0 -15.01 -11.07 -35.08 -5.065 -11.07 -12.01 19.98 -6.003
5.705 -20.07 0.938 -12.01 0 -8.066 -3.001 -21.01 -9.004 -7.035 -1.032 -29.08 -15.01 -4.033 -8.066 7.973 -4.033
5.71 -15.01 4.971 -11.07 -3.001 -3.001 -2.064 -13.04 -21.01 -2.064 1.97 -19.04 -29.08 0.938 -5.065 -3.001 -7.035
5.715 -9.004 2.908 -6.003 -4.033 0.938 1.97 -5.065 -24.01 5.909 8.911 -13.04 -32.08 0.938 0 -19.04 -5.065
5.72 -3.001 -1.032 -4.033 -8.066 9.942 3.939 -5.065 -17.07 11.91 10.97 -12.01 -30.01 8.911 -1.032 -33.02 -7.035
5.725 0.938 -1.032 -5.065 -9.004 13.98 3.939 -9.004 -9.004 9.942 7.973 -19.04 -23.07 7.973 0 -35.08 -9.004
5.73 -1.032 2.908 -3.001 -6.003 19.98 3.939 -15.01 0 5.909 10.97 -20.07 -14.07 6.941 5.909 -26.08 -4.033
5.735 1.97 8.911 0 -1.032 20.92 3.939 -17.07 8.911 3.939 8.911 -12.01 -3.001 7.973 3.939 -12.01 0.938
5.74 -5.065 12.94 -1.032 0 19.98 3.939 -9.004 11.91 1.97 7.973 -2.064 1.97 7.973 5.909 5.909 3.939
5.745 -7.035 12.94 1.97 2.908 19.98 -1.032 0.938 10.97 4.971 6.941 15.95 12.94 13.98 6.941 29.92 15.95
5.75 -13.04 6.941 0.938 1.97 20.92 0.938 4.971 3.939 5.909 0 28.98 17.91 18.95 5.909 44.93 26.92
5.755 -18.01 2.908 -11.07 -2.064 16.98 -9.004 2.908 -4.033 1.97 -2.064 25.98 15.95 14.91 2.908 56 28.98
5.76 -19.04 -11.07 -23.07 -15.01 10.97 -19.04 -2.064 -21.01 0.938 -11.07 8.911 1.97 0.938 -2.064 60.97 26.92
5.765 -25.04 -21.01 -33.02 -26.08 0 -26.08 -21.01 -34.05 -14.07 -20.07 -9.004 -8.066 -11.07 -4.033 59.94 23.92
5.77 -33.02 -27.01 -39.02 -33.02 -5.065 -27.01 -33.02 -41.08 -27.01 -27.01 -21.01 -23.07 -31.05 -7.035 51.96 15.95
5.775 -33.02 -23.07 -36.02 -29.08 -6.003 -23.07 -35.08 -38.08 -35.08 -28.04 -18.01 -33.02 -35.08 -7.035 46.99 13.98
5.78 -30.01 -15.01 -29.08 -14.07 -3.001 -15.01 -29.08 -25.04 -35.08 -24.01 -8.066 -32.08 -32.08 0.938 42.96 12.94
5.785 -23.07 -3.001 -17.07 -1.032 1.97 -5.065 -17.07 -15.01 -27.01 -17.07 0.938 -27.01 -23.07 0 37.99 9.942
5.79 -11.07 2.908 -6.003 6.941 13.98 0.938 -7.035 -7.035 -19.04 -8.066 -1.032 -18.01 -10.04 4.971 25.98 9.942
5.795 -1.032 10.97 0 16.98 18.95 -2.064 0.938 -8.066 -11.07 -4.033 -9.004 -12.01 -6.003 2.908 9.942 3.939
5.8 0 16.98 -2.064 19.98 19.98 -2.064 -2.064 -7.035 -7.035 -5.065 -21.01 -7.035 -7.035 -3.001 -5.065 -9.004
5.805 8.911 20.92 0.938 27.95 20.92 0.938 -2.064 0 -5.065 -7.035 -23.07 -3.001 -12.01 -14.07 -27.01 -28.04
5.81 14.91 22.98 4.971 33.95 22.98 -2.064 1.97 15.95 -3.001 -11.07 -15.01 -3.001 -19.04 -24.01 -45.02 -46.05
5.815 19.98 26.92 7.973 41.93 23.92 0 7.973 31.98 0.938 -9.004 -1.032 -3.001 -17.07 -29.08 -49.06 -59.09
5.82 24.95 32.92 14.91 50.93 32.92 3.939 17.91 42.96 0 -5.065 1.97 0 -11.07 -25.04 -45.02 -60.03
5.825 22.98 34.99 19.98 52.99 35.92 5.909 21.95 42.96 1.97 0.938 0 0.938 0.938 -17.07 -27.01 -50.09
5.83 17.91 36.96 21.95 45.96 37.99 3.939 21.95 37.99 3.939 1.97 -5.065 9.942 5.909 -9.004 -3.001 -33.02
5.835 9.942 30.95 15.95 32.92 33.95 -2.064 15.95 30.95 5.909 0 -11.07 24.95 13.98 -7.035 17.91 -15.01
5.84 1.97 18.95 5.909 16.98 25.98 -5.065 7.973 24.95 3.939 0.938 -7.035 34.99 13.98 -7.035 43.99 0.938
5.845 -3.001 2.908 -1.032 0.938 13.98 -13.04 1.97 11.91 -2.064 -7.035 3.939 33.95 5.909 -9.004 65.94 7.973
5.85 -15.01 -9.004 -13.04 -15.01 1.97 -19.04 0 -2.064 -7.035 -15.01 21.95 23.92 -1.032 -11.07 83.95 13.98
5.855 -23.07 -21.01 -17.07 -27.01 -5.065 -23.07 0 -17.07 -19.04 -21.01 31.98 9.942 -15.01 -9.004 93.98 17.91
5.86 -25.04 -25.04 -15.01 -33.02 -11.07 -21.01 1.97 -31.05 -27.01 -21.01 31.98 -2.064 -23.07 -5.065 91.92 19.98
5.865 -17.07 -23.07 -9.004 -31.05 -3.001 -13.04 1.97 -35.08 -25.04 -19.04 21.95 -3.001 -23.07 0.938 79.91 19.98
5.87 -1.032 -15.01 -7.035 -25.04 5.909 -3.001 0 -27.01 -15.01 -13.04 9.942 -7.035 -15.01 1.97 59.94 21.95
5.875 7.973 -9.004 -11.07 -21.01 23.92 1.97 0.938 -15.01 -1.032 -5.065 1.97 -13.04 -5.065 7.973 35.92 21.95
5.88 13.98 -11.07 -17.07 -23.07 33.95 3.939 -7.035 -7.035 3.939 -1.032 0.938 -25.04 0.938 9.942 15.95 21.95
5.885 11.91 -19.04 -25.04 -29.08 31.98 -2.064 -15.01 -11.07 3.939 -1.032 -5.065 -39.02 -3.001 9.942 -2.064 19.98
5.89 1.97 -27.01 -27.01 -37.05 19.98 -5.065 -23.07 -19.04 0.938 -7.035 -13.04 -49.06 -11.07 3.939 -9.004 13.98
5.895 -1.032 -29.08 -23.07 -37.05 3.939 -13.04 -25.04 -25.04 -11.07 -13.04 -23.07 -49.06 -19.04 -2.064 -19.04 5.909
5.9 0.938 -23.07 -13.04 -27.01 0.938 -13.04 -21.01 -21.01 -19.04 -15.01 -27.01 -37.05 -21.01 -3.001 -27.01 -2.064
5.905 5.909 -9.004 -1.032 -9.004 -2.064 -3.001 -11.07 -9.004 -17.07 -13.04 -25.04 -19.04 -17.07 -7.035 -35.08 -3.001
5.91 19.98 4.971 7.973 7.973 11.91 3.939 0.938 1.97 -7.035 -7.035 -15.01 -1.032 -7.035 -9.004 -41.08 -11.07
5.915 35.92 22.98 23.92 27.95 27.95 17.91 7.973 19.98 3.939 0.938 -1.032 5.909 0.938 -13.04 -45.02 -23.07
5.92 49.99 36.96 37.99 43.99 43.99 25.98 17.91 35.92 19.98 0 11.91 15.95 1.97 -17.07 -41.08 -41.08
5.925 59.94 48.96 49.99 56 56 27.95 31.98 51.96 33.95 3.939 25.98 25.98 5.909 -23.07 -35.08 -61.06
5.93 67.91 59 54.96 65.94 67.91 29.92 45.96 65.94 45.96 9.942 33.95 39.96 13.98 -23.07 -23.07 -73.07
5.935 71.94 66.97 52.99 73.91 71.94 32.92 57.97 77.94 56 15.95 35.92 51.96 25.98 -15.01 -11.07 -65
5.94 69.97 66.97 41.93 75.97 73.91 31.98 65.94 79.91 63.97 23.92 27.95 63.97 37.99 -1.032 0 -39.02
5.945 62 62.94 30.95 69.97 67.91 34.99 65.94 71.94 65.94 31.98 15.95 63.97 49.99 11.91 17.91 0
5.95 51.96 52.99 24.95 62 59.94 32.92 60.97 62 64.91 37.99 5.909 62 59.94 27.95 37.99 32.92
5.955 43.99 44.93 21.95 51.96 49.99 29.92 45.96 53.93 63.97 39.96 3.939 62 69.97 37.99 62 56
5.96 40.99 40.99 25.98 44.93 41.93 22.98 34.99 52.99 62.94 39.96 9.942 66.97 76.91 42.96 79.91 66.97
5.965 40.99 36.96 31.98 38.93 37.99 12.94 26.92 59 62.94 33.95 19.98 72.97 76.91 40.99 87.98 62.94
5.97 33.95 32.92 29.92 27.95 31.98 0.938 17.91 59.94 56 21.95 27.95 71.94 65.94 31.98 83.95 51.96
5.975 22.98 26.92 24.95 20.92 23.92 -13.04 12.94 52.99 44.93 6.941 31.98 56.93 42.96 16.98 65.94 39.96
5.98 4.971 16.98 21.95 13.98 7.973 -24.01 3.939 26.92 23.92 -6.003 31.98 28.98 11.91 2.908 37.99 21.95
5.985 -9.004 6.941 17.91 5.909 -3.001 -33.02 -3.001 -2.064 -2.064 -17.07 27.95 -5.065 -17.07 -5.065 9.942 7.973
5.99 -24.01 2.908 16.98 2.908 -18.01 -37.05 -11.07 -23.07 -17.07 -21.01 15.95 -36.02 -40.05 -10.04 -11.07 0
5.995 -35.08 -3.001 16.98 0.938 -27.01 -39.02 -14.07 -34.05 -32.08 -20.07 0 -53.09 -50.09 -14.07 -27.01 -15.01
6 -40.05 -5.065 11.91 0 -29.08 -38.08 -14.07 -31.05 -38.08 -13.04 -15.01 -44.08 -45.02 -16.04 -39.02 -28.04
6.005 -37.05 -13.04 6.941 0 -27.01 -35.08 -10.04 -24.01 -36.02 -8.066 -31.05 -25.04 -40.05 -20.07 -45.02 -39.02
6.01 -34.05 -15.01 1.97 -6.003 -20.07 -21.01 -3.001 -19.04 -25.04 -3.001 -35.08 -6.003 -28.04 -22.04 -53.09 -46.05
6.015 -23.07 -17.07 -1.032 -7.035 -7.035 -9.004 -1.032 -17.07 -13.04 -2.064 -25.04 -3.001 -17.07 -23.07 -61.06 -49.06
6.02 -2.064 -9.004 1.97 -1.032 1.97 4.971 0.938 -14.07 0 8.911 -7.035 -8.066 -3.001 -16.04 -67.06 -47.09
6.025 10.97 2.908 10.97 -1.032 11.91 15.95 0 -10.04 14.91 18.95 3.939 -22.04 2.908 -6.003 -69.03 -35.08
6.03 21.95 4.971 19.98 3.939 15.95 19.98 -3.001 -3.001 21.95 25.98 9.942 -33.02 11.91 -2.064 -69.03 -21.01
6.035 22.98 4.971 23.92 4.971 9.942 14.91 -6.003 -1.032 22.98 19.98 1.97 -32.08 16.98 -1.032 -59.09 -8.066
6.04 8.911 0.938 15.95 0 0.938 4.971 -8.066 0 8.911 11.91 -3.001 -28.04 12.94 0.938 -49.06 0.938
6.045 -7.035 -15.01 1.97 -11.07 -15.01 0.938 -15.01 -13.04 -1.032 -2.064 -11.07 -19.04 1.97 -2.064 -35.08 9.942
6.05 -23.07 -31.05 -2.064 -23.07 -27.01 0 -18.01 -27.01 -14.07 -1.032 -7.035 -17.07 -3.001 3.939 -17.07 18.95
6.055 -31.05 -35.08 -8.066 -29.08 -31.05 1.97 -21.01 -37.05 -19.04 0.938 0.938 -17.07 -7.035 9.942 -1.032 24.95
6.06 -35.08 -33.02 -13.04 -27.01 -31.05 0.938 -21.01 -31.05 -21.01 -2.064 1.97 -17.07 -9.004 15.95 7.973 25.98
6.065 -37.05 -29.08 -12.01 -25.04 -31.05 -6.003 -19.04 -17.07 -17.07 -1.032 1.97 -13.04 -7.035 13.98 17.91 25.98
6.07 -41.08 -27.01 -14.07 -21.01 -35.08 -17.07 -15.01 -3.001 -21.01 -11.07 0 -5.065 -9.004 5.909 25.98 23.92
6.075 -49.06 -27.01 -13.04 -21.01 -41.08 -25.04 -7.035 1.97 -27.01 -23.07 1.97 -2.064 -11.07 0.938 27.95 21.95
6.08 -51.02 -27.01 -5.065 -21.01 -39.02 -23.07 -2.064 3.939 -29.08 -29.08 7.973 3.939 -9.004 -5.065 27.95 21.95
6.085 -45.02 -23.07 5.909 -15.01 -31.05 -11.07 5.909 1.97 -25.04 -25.04 15.95 9.942 -7.035 -5.065 23.92 23.92
6.09 -29.08 -11.07 23.92 -3.001 -19.04 1.97 7.973 3.939 -15.01 -13.04 19.98 11.91 -1.032 0.938 19.98 25.98
6.095 -13.04 0.938 35.92 3.939 -9.004 13.98 3.939 3.939 -3.001 0.938 17.91 13.98 0.938 1.97 9.942 25.98
6.1 -5.065 12.94 37.99 15.95 -7.035 13.98 0.938 1.97 -2.064 3.939 7.973 11.91 0.938 1.97 -2.064 17.91
6.105 -5.065 18.95 33.95 19.98 -13.04 5.909 -7.035 -2.064 -2.064 1.97 0 7.973 -3.001 0.938 -13.04 5.909
6.11 -7.035 14.91 23.92 17.91 -19.04 -1.032 -9.004 -1.032 -5.065 -1.032 -2.064 1.97 -9.004 -11.07 -27.01 -11.07
6.115 -9.004 6.941 15.95 9.942 -23.07 -13.04 -9.004 -7.035 -11.07 -11.07 -2.064 -1.032 -15.01 -23.07 -41.08 -33.02
6.12 -9.004 -1.032 9.942 1.97 -23.07 -17.07 -9.004 -11.07 -13.04 -17.07 0 -13.04 -19.04 -33.02 -49.06 -55.06
6.125 -5.065 -1.032 7.973 -1.032 -19.04 -15.01 -15.01 -11.07 -9.004 -17.07 0.938 -21.01 -19.04 -37.05 -51.02 -63.03
6.13 -1.032 0.938 3.939 -3.001 -13.04 -9.004 -21.01 -11.07 0.938 -9.004 -7.035 -25.04 -13.04 -31.05 -49.06 -57.03
6.135 -1.032 0.938 0 -3.001 -11.07 -3.001 -25.04 -7.035 3.939 0.938 -13.04 -21.01 -5.065 -17.07 -43.05 -37.05
6.14 -1.032 4.971 -2.064 0.938 -7.035 -1.032 -23.07 -5.065 9.942 3.939 -17.07 -13.04 1.97 -3.001 -37.05 -13.04
6.145 -2.064 10.97 -2.064 1.97 -5.065 -1.032 -13.04 -2.064 9.942 9.942 -15.01 -1.032 11.91 1.97 -29.08 0
6.15 5.909 12.94 1.97 7.973 -3.001 -3.001 -1.032 -2.064 3.939 11.91 -9.004 0.938 15.95 3.939 -23.07 9.942
6.155 15.95 14.91 7.973 11.91 -1.032 -1.032 3.939 -7.035 -2.064 9.942 -1.032 0 11.91 -2.064 -17.07 5.909
6.16 23.92 16.98 11.91 12.94 0 0 11.91 -12.01 -3.001 9.942 1.97 1.97 3.939 -5.065 -9.004 0.938
6.165 25.98 16.98 11.91 12.94 -2.064 3.939 11.91 -14.07 -7.035 9.942 9.942 -2.064 -1.032 -11.07 -1.032 -7.035
6.17 23.92 12.94 7.973 9.942 -3.001 3.939 9.942 -17.07 -9.004 7.973 13.98 -7.035 -11.07 -13.04 1.97 -13.04
6.175 17.91 4.971 0 6.941 -4.033 -2.064 1.97 -13.04 -13.04 1.97 13.98 -7.035 -21.01 -15.01 7.973 -13.04
6.18 8.911 0.938 -7.035 0 -12.01 -11.07 -1.032 -17.07 -21.01 -7.035 7.973 -15.01 -31.05 -15.01 7.973 -13.04
6.185 -1.032 -11.07 -17.07 -13.04 -25.04 -25.04 -9.004 -27.01 -35.08 -25.04 -2.064 -27.01 -43.05 -15.01 1.97 -13.04
6.19 -12.01 -13.04 -25.04 -25.04 -38.08 -36.02 -17.07 -40.05 -49.06 -39.02 -5.065 -38.08 -51.02 -20.07 0.938 -13.04
6.195 -22.04 -13.04 -21.01 -31.05 -47.09 -42.02 -23.07 -48.02 -57.03 -49.06 -15.01 -42.02 -54.03 -24.01 -3.001 -15.01
6.2 -27.01 -13.04 -15.01 -35.08 -53.09 -43.05 -29.08 -49.06 -57.03 -47.09 -23.07 -37.05 -51.02 -33.02 -5.065 -23.07
6.205 -22.04 -7.035 -9.004 -26.08 -43.05 -34.05 -38.08 -36.02 -48.02 -39.02 -32.08 -21.01 -46.05 -36.02 -1.032 -31.05
6.21 -10.04 -5.065 -5.065 -14.07 -28.04 -28.04 -40.05 -22.04 -34.05 -28.04 -38.08 -8.066 -36.02 -36.02 -1.032 -33.02
6.215 -2.064 -3.001 -5.065 -5.065 -19.04 -21.01 -39.02 -13.04 -21.01 -15.01 -39.02 -3.001 -31.05 -35.08 -7.035 -31.05
6.22 3.939 -1.032 -11.07 1.97 -15.01 -17.07 -32.08 -11.07 -10.04 -6.003 -26.08 -7.035 -24.01 -23.07 -19.04 -21.01
6.225 4.971 2.908 -17.07 0 -14.07 -21.01 -24.01 -16.04 -8.066 -2.064 -6.003 -19.04 -15.01 -15.01 -37.05 -7.035
6.23 -2.064 0.938 -19.04 -2.064 -19.04 -23.07 -15.01 -21.01 -9.004 -1.032 1.97 -27.01 -7.035 -5.065 -49.06 5.909
6.235 -1.032 4.971 -16.04 2.908 -16.04 -22.04 -9.004 -9.004 -6.003 0.938 6.941 -19.04 1.97 0.938 -50.09 19.98
6.24 1.97 12.94 -7.035 12.94 -4.033 -15.01 0 5.909 0.938 1.97 2.908 -3.001 15.95 9.942 -37.05 30.95
6.245 3.939 20.92 -2.064 26.92 10.97 -6.003 7.973 35.92 4.971 8.911 0.938 16.98 31.98 13.98 -17.07 36.96
6.25 19.98 30.95 11.91 38.93 28.98 -1.032 22.98 56 21.95 13.98 2.908 33.95 39.96 15.95 1.97 36.96
6.255 31.98 38.93 16.98 46.99 38.93 0 35.92 65.94 34.99 19.98 14.91 45.96 47.93 8.911 20.92 31.98
6.26 33.95 40.99 17.91 49.99 39.96 -5.065 45.96 62 41.93 19.98 25.98 51.96 47.93 0 37.99 21.95
6.265 34.99 36.96 17.91 49.99 36.96 -7.035 48.96 52.99 48.96 18.95 32.92 62 45.96 -3.001 47.93 7.973
6.27 33.95 30.95 15.95 46.99 25.98 -7.035 44.93 43.99 46.99 12.94 30.95 65.94 38.93 -1.032 53.93 -1.032
