    T[sec]  F7  F3  F4  F8  T3  C3  Cz  C4  T4  T5  P3  Pz  P4  T6  O1  O2
41 150.1 150.1 150.1 150.1 150.1 150.1 150.1 150.1 150.1 150.1 150.1 150.1 150.1 150.1 150.1 150.1
0.625 24.99 0 -1.026 -17 8.94 0 0 19.93 -15.02 17.95 9.966 23.96 -1.026 0 21.98 1.979
0.63 4.983 -3.004 1.979 -9.013 3.957 -2.052 0 19.93 -1.026 14 14 25.94 0 3.957 23.96 -3.004
0.635 -3.004 0 8.94 -1.026 1.979 1.979 1.979 21.98 11.94 5.936 11.94 25.94 1.979 4.983 21.98 -5.056
0.64 -9.013 1.979 14.95 7.987 2.931 0.9526 7.987 20.96 21.98 -1.026 5.936 22.94 4.983 7.987 8.94 -6.009
0.645 -9.013 5.936 15.97 9.966 0 0.9526 7.987 17.95 21.98 -11.06 -1.026 14 3.957 5.936 0.9526 -5.056
0.65 -9.013 5.936 14 14 1.979 -3.004 -1.026 11.94 11.94 -20 -15.02 -2.052 0 1.979 -12.02 -5.056
0.655 -5.056 5.936 12.97 11.94 -7.035 -15.02 -9.013 0.9526 1.979 -28.07 -33.05 -12.02 -4.03 -3.004 -20 -8.061
0.66 -1.026 2.931 11.94 8.94 -10.04 -21.03 -23.01 -5.056 -1.026 -27.04 -43.01 -26.01 -17 -7.035 -22.06 -12.02
0.665 10.99 7.987 8.94 5.936 -11.06 -23.01 -31.07 -16.05 -3.004 -20 -45.07 -32.02 -30.04 -15.02 -20 -18.03
0.67 18.98 15.97 1.979 1.979 -3.004 -15.02 -28.07 -21.03 -1.026 -14.07 -37.01 -33.05 -41.04 -27.04 -18.03 -17
0.675 24.99 21.98 0 -9.013 0.9526 -7.035 -21.03 -23.01 0 -7.035 -21.03 -23.01 -39.06 -37.01 -17 -13.04
0.68 24.99 25.94 -1.026 -13.04 2.931 1.979 -7.035 -12.02 -2.052 -1.026 -5.056 -8.061 -24.04 -33.05 -10.04 -2.052
0.685 20.96 24.99 0.9526 -14.07 3.957 3.957 0.9526 -3.004 -1.026 0 3.957 -2.052 -9.013 -32.02 -3.004 3.957
0.69 16.93 23.96 7.987 -7.035 5.936 1.979 0 0 -9.013 1.979 14 5.936 -1.026 -33.05 3.957 5.936
0.695 16.93 29.97 18.98 1.979 8.94 5.936 0 9.966 -17 1.979 19.93 9.966 2.931 -29.02 19.93 10.99
0.7 20.96 35.98 25.94 11.94 8.94 5.936 0 14.95 -19.05 9.966 19.93 6.961 6.961 -17 28.94 9.966
0.705 24.99 33.93 27.99 9.966 7.987 1.979 0.9526 11.94 -17 5.936 11.94 -2.052 1.979 -11.06 19.93 7.987
0.71 14.95 26.97 21.98 2.931 0.9526 0 -7.035 3.957 -11.06 -2.052 0.9526 -16.05 -3.004 -11.06 0.9526 1.979
0.715 -1.026 8.94 3.957 -6.009 -6.009 -16.05 -21.03 -3.004 -1.026 -21.03 -25.06 -38.03 -22.06 -13.04 -29.02 -6.009
0.72 -23.01 -11.06 -5.056 -21.03 -19.05 -33.05 -39.06 -21.03 0 -37.01 -49.02 -57.01 -37.01 -15.02 -55.03 -17
0.725 -41.04 -28.07 -17 -26.01 -26.01 -42.06 -49.02 -34 5.936 -45.07 -61.04 -67.05 -42.06 -13.04 -56.06 -22.06
0.73 -47.04 -38.03 -23.01 -24.04 -29.02 -44.04 -53.05 -40.01 5.936 -48.07 -59.06 -63.02 -43.01 -18.03 -42.06 -24.04
0.735 -41.04 -35.03 -23.01 -21.03 -23.01 -39.06 -47.04 -37.01 0.9526 -41.04 -45.07 -53.05 -33.05 -19.05 -19.05 -17
0.74 -27.04 -27.04 -17 -13.04 -17 -30.04 -37.01 -30.04 -9.013 -26.01 -29.02 -40.01 -20 -11.06 1.979 -10.04
0.745 -19.05 -21.03 -13.04 -9.013 -13.04 -25.06 -33.05 -28.07 -17 -14.07 -21.03 -36.05 -15.02 -10.04 2.931 -9.013
0.75 -15.02 -21.03 -9.013 -7.035 -11.06 -25.06 -33.05 -31.07 -21.03 -13.04 -21.03 -41.04 -19.05 -13.04 -2.052 -9.013
0.755 -17 -21.03 -9.013 -9.013 -13.04 -29.02 -39.06 -37.01 -19.05 -16.05 -27.04 -48.07 -25.06 -17 -3.004 -9.013
0.76 -21.03 -23.01 -9.013 -11.06 -13.04 -29.02 -43.01 -43.01 -11.06 -19.05 -33.05 -46.02 -30.04 -15.02 -1.026 -7.035
0.765 -23.01 -21.03 -11.06 -13.04 -13.04 -29.02 -45.07 -45.07 -9.013 -17 -33.05 -41.04 -31.07 -17 0.9526 -5.056
0.77 -23.01 -19.05 -11.06 -15.02 -9.013 -25.06 -43.01 -47.04 -11.06 -17 -29.02 -37.01 -30.04 -20 -1.026 -1.026
0.775 -19.05 -15.02 -11.06 -13.04 -9.013 -23.01 -41.04 -47.04 -19.05 -19.05 -29.02 -33.05 -26.01 -20 -9.013 -1.026
0.78 -15.02 -11.06 -9.013 -9.013 -11.06 -23.01 -37.01 -45.07 -29.02 -21.03 -33.05 -33.05 -23.01 -17 -25.06 -5.056
0.785 -7.035 -5.056 -3.004 -7.035 -11.06 -23.01 -35.03 -41.04 -33.05 -25.06 -41.04 -37.01 -23.01 -13.04 -37.01 -11.06
0.79 0.9526 -2.052 -2.052 -7.035 -9.013 -21.03 -29.02 -33.05 -35.03 -27.04 -47.04 -38.03 -21.03 -11.06 -38.03 -15.02
0.795 10.99 5.936 3.957 -9.013 -1.026 -15.02 -21.03 -22.06 -32.02 -27.04 -43.01 -32.02 -23.01 -8.061 -24.04 -13.04
0.8 20.96 5.936 3.957 -15.02 3.957 -5.056 -13.04 -17 -27.04 -17 -33.05 -21.03 -17 -5.056 -3.004 -7.035
0.805 20.96 -2.052 -2.052 -19.05 9.966 -2.052 -11.06 -16.05 -20 -5.056 -19.05 -9.013 -16.05 -6.009 16.93 1.979
0.81 12.97 -10.04 -5.056 -18.03 7.987 -1.026 -13.04 -22.06 -16.05 0 -6.009 -9.013 -25.06 -13.04 28.94 2.931
0.815 0.9526 -27.04 -13.04 -19.05 0 -3.004 -21.03 -37.01 -17 -5.056 -3.004 -11.06 -31.07 -19.05 27.99 1.979
0.82 -13.04 -36.05 -17 -20 -6.009 -14.07 -32.02 -43.01 -13.04 -10.04 -4.03 -15.02 -35.03 -13.04 19.93 5.936
0.825 -29.02 -40.01 -19.05 -20 -14.07 -24.04 -44.04 -49.02 -17 -21.03 -14.07 -23.01 -31.07 -11.06 4.983 3.957
0.83 -39.06 -37.01 -17 -23.01 -19.05 -31.07 -49.02 -53.05 -21.03 -31.07 -21.03 -29.02 -29.02 -13.04 -3.004 1.979
0.835 -43.01 -33.05 -16.05 -23.01 -18.03 -32.02 -48.07 -46.02 -24.04 -39.06 -24.04 -31.07 -24.04 -12.02 -15.02 0.9526
0.84 -41.04 -27.04 -16.05 -21.03 -12.02 -25.06 -38.03 -38.03 -21.03 -39.06 -25.06 -29.02 -22.06 -7.035 -23.01 0.9526
0.845 -33.05 -23.01 -17 -19.05 -9.013 -21.03 -29.02 -31.07 -19.05 -39.06 -23.01 -31.07 -21.03 -9.013 -31.07 -2.052
0.85 -17 -17 -16.05 -16.05 -2.052 -15.02 -15.02 -22.06 -16.05 -37.01 -23.01 -28.07 -25.06 -9.013 -31.07 0.9526
0.855 -9.013 -12.02 -12.02 -16.05 -1.026 -8.061 -9.013 -15.02 -15.02 -40.01 -22.06 -25.06 -20 -11.06 -34 1.979
0.86 -5.056 -9.013 -5.056 -15.02 -5.056 -9.013 -5.056 -9.013 -19.05 -41.04 -23.01 -19.05 -11.06 -5.056 -29.02 0
0.865 -7.035 -11.06 0.9526 -15.02 -5.056 -9.013 -4.03 -3.004 -25.06 -39.06 -21.03 -12.02 1.979 0 -19.05 2.931
0.87 -15.02 -14.07 -1.026 -14.07 -6.009 -17 -8.061 -6.009 -29.02 -39.06 -23.01 -12.02 0 -3.004 -13.04 -2.052
0.875 -21.03 -19.05 -9.013 -19.05 -11.06 -19.05 -13.04 -11.06 -37.01 -37.01 -19.05 -13.04 0.9526 -9.013 -9.013 -1.026
0.88 -19.05 -22.06 -18.03 -25.06 -11.06 -20 -14.07 -17 -38.03 -27.04 -11.06 -12.02 -3.004 -9.013 0.9526 -4.03
0.885 -15.02 -17 -25.06 -35.03 -9.013 -23.01 -10.04 -19.05 -36.05 -18.03 -5.056 -9.013 -12.02 -14.07 2.931 -9.013
0.89 -17 -21.03 -27.04 -45.07 -9.013 -19.05 -5.056 -23.01 -29.02 -15.02 0.9526 -11.06 -17 -15.02 3.957 -3.004
0.895 -19.05 -17 -17 -41.04 -5.056 -18.03 0.9526 -16.05 -13.04 -14.07 0 -10.04 -12.02 -11.06 6.961 1.979
0.9 -23.01 -21.03 -4.03 -26.01 -7.035 -18.03 0.9526 -10.04 2.931 -17 -8.061 -13.04 -3.004 -2.052 3.957 9.966
0.905 -23.01 -27.04 0.9526 -7.035 -12.02 -27.04 -7.035 -10.04 23.96 -23.01 -21.03 -19.05 1.979 0.9526 -3.004 15.97
0.91 -19.05 -23.01 6.961 1.979 -17 -32.02 -17 -14.07 31 -35.03 -36.05 -31.07 -3.004 1.979 -15.02 19.93
0.915 -13.04 -21.03 0 -1.026 -23.01 -36.05 -23.01 -20 23.96 -40.01 -42.06 -36.05 -6.009 1.979 -22.06 21.98
0.92 -15.02 -21.03 -5.056 -11.06 -25.06 -37.01 -19.05 -23.01 11.94 -37.01 -37.01 -29.02 -5.056 0 -13.04 21.98
0.925 -19.05 -19.05 -17 -21.03 -21.03 -29.02 -8.061 -17 -1.026 -26.01 -17 -11.06 -1.026 6.961 -1.026 23.96
0.93 -27.04 -24.04 -18.03 -31.07 -19.05 -22.06 1.979 -11.06 -2.052 -15.02 -2.052 2.931 5.936 9.966 17.95 26.97
0.935 -33.05 -31.07 -21.03 -33.05 -15.02 -19.05 -2.052 -3.004 -1.026 -5.056 9.966 14 9.966 1.979 21.98 19.93
0.94 -29.02 -32.02 -17 -30.04 -16.05 -21.03 -4.03 0 0 0.9526 11.94 12.97 11.94 0.9526 19.93 7.987
0.945 -23.01 -33.05 -13.04 -29.02 -19.05 -27.04 -16.05 -7.035 1.979 -2.052 5.936 0.9526 3.957 -14.07 7.987 1.979
0.95 -17 -31.07 -15.02 -31.07 -19.05 -33.05 -25.06 -23.01 3.957 -1.026 -1.026 -11.06 -7.035 -35.03 0.9526 -11.06
0.955 -13.04 -26.01 -16.05 -34 -17 -30.04 -19.05 -29.02 3.957 0 -4.03 -17 -16.05 -45.07 0 -12.02
0.96 -11.06 -27.04 -22.06 -40.01 -14.07 -25.06 -7.035 -30.04 2.931 3.957 -5.056 -6.009 -15.02 -41.04 1.979 -7.035
0.965 -21.03 -35.03 -33.05 -49.02 -15.02 -25.06 -3.004 -31.07 0 9.966 -1.026 0 -9.013 -39.06 1.979 -2.052
0.97 -29.02 -47.04 -46.02 -57.01 -18.03 -27.04 -10.04 -34 1.979 11.94 -1.026 7.987 -6.009 -31.07 0 4.983
0.975 -37.01 -61.04 -56.06 -65.07 -24.04 -36.05 -28.07 -44.04 -8.061 5.936 -8.061 3.957 -6.009 -26.01 1.979 8.94
0.98 -41.04 -69.03 -65.07 -69.03 -29.02 -43.01 -43.01 -53.05 -13.04 0.9526 -11.06 0 -5.056 -19.05 0.9526 11.94
0.985 -31.07 -64.04 -59.06 -62.07 -28.07 -42.06 -46.02 -51 -3.004 -2.052 -6.009 1.979 1.979 -9.013 8.94 19.93
0.99 -23.01 -48.07 -43.01 -50.05 -20 -28.07 -32.02 -41.04 14 0.9526 0.9526 14 1.979 -9.013 23.96 31.95
0.995 -19.05 -31.07 -25.06 -35.03 -11.06 -17 -9.013 -23.01 33.93 7.987 17.95 23.96 11.94 -9.013 37.96 39.94
1 -21.03 -18.03 -11.06 -24.04 -3.004 -6.009 0 -2.052 44.99 14.95 24.99 33.93 17.95 -3.004 42.94 44.99
1.005 -31.07 -15.02 -3.004 -23.01 -5.056 -9.013 1.979 0.9526 36.93 11.94 15.97 27.99 12.97 -2.052 31 32.98
1.01 -37.01 -17 -3.004 -25.06 -11.06 -19.05 -3.004 -1.026 11.94 0.9526 0 3.957 -3.004 -11.06 9.966 9.966
1.015 -37.01 -19.05 -7.035 -29.02 -17 -27.04 -11.06 -8.061 -6.009 -11.06 -11.06 -8.061 -19.05 -16.05 0 -5.056
1.02 -31.07 -17 -13.04 -31.07 -19.05 -27.04 -11.06 -17 -19.05 -7.035 -15.02 -10.04 -23.01 -15.02 -4.03 -15.02
1.025 -25.06 -11.06 -17 -33.05 -13.04 -19.05 -1.026 -15.02 -19.05 1.979 -5.056 0 -17 -11.06 -1.026 -9.013
1.03 -23.01 -5.056 -19.05 -33.05 -5.056 -7.035 9.966 -7.035 -15.02 23.96 9.966 23.96 -1.026 -5.056 0 3.957
1.035 -25.06 -1.026 -19.05 -35.03 0 0 23.96 0 -15.02 45.95 33.93 48 14 -1.026 7.987 27.99
1.04 -23.01 -2.052 -15.02 -33.05 5.936 7.987 31.95 11.94 -19.05 61.99 49.98 59.94 32.98 10.99 15.97 45.95
1.045 -19.05 3.957 -5.056 -27.04 7.987 11.94 37.96 21.98 -19.05 63.97 55.98 59.94 41.99 19.93 23.96 53.93
1.05 -11.06 9.966 1.979 -15.02 5.936 11.94 41.99 27.99 -9.013 52.98 51.95 53.93 42.94 22.94 31.95 55.98
1.055 -5.056 14 11.94 -5.056 1.979 9.966 45.95 31.95 3.957 34.95 41.99 49.98 44.99 26.97 35.98 51.95
1.06 -9.013 14 15.97 -1.026 -2.052 5.936 48 37.96 23.96 19.93 31.95 49.98 45.95 31.95 35.98 49.98
1.065 -17 9.966 9.966 -5.056 -2.052 3.957 43.97 37.96 33.93 14.95 25.94 50.93 49.98 35.98 31.95 49.98
1.07 -21.03 4.983 1.979 -11.06 0 4.983 35.98 33.93 29.97 12.97 27.99 48.95 49.98 33.93 28.94 51.95
1.075 -15.02 3.957 0.9526 -17 3.957 5.936 31.95 27.99 17.95 15.97 35.98 49.98 49.98 35.98 27.99 53.93
1.08 -1.026 10.99 -1.026 -17 8.94 12.97 29.97 26.97 0 27.99 45.95 52.98 54.96 41.99 32.98 53.93
1.085 6.961 16.93 -2.052 -13.04 10.99 18.98 35.98 28.94 -5.056 33.93 55.98 58.99 56.94 41.99 34.95 51.95
1.09 10.99 17.95 3.957 -3.004 9.966 17.95 43.97 33.93 -3.004 37.96 55.98 57.96 49.98 39.94 31.95 43.97
1.095 2.931 12.97 14.95 1.979 6.961 16.93 48 42.94 5.936 36.93 51.95 54.96 46.97 35.98 22.94 34.95
1.1 -5.056 5.936 18.98 9.966 0.9526 9.966 41.99 46.97 25.94 33.93 39.94 48 35.98 32.98 15.97 22.94
1.105 -13.04 0.9526 21.98 14 -1.026 1.979 31.95 39.94 35.98 23.96 25.94 29.97 17.95 27.99 7.987 11.94
1.11 -9.013 0.9526 20.96 9.966 -3.004 -1.026 17.95 23.96 31.95 12.97 14 14 5.936 18.98 7.987 4.983
1.115 0.9526 4.983 16.93 1.979 -5.056 -2.052 11.94 7.987 14.95 2.931 7.987 4.983 0.9526 16.93 10.99 4.983
1.12 6.961 15.97 9.966 0.9526 -3.004 0.9526 19.93 9.966 -1.026 1.979 9.966 11.94 11.94 21.98 17.95 15.97
1.125 12.97 25.94 14 -1.026 2.931 9.966 40.96 24.99 -10.04 11.94 23.96 33.93 35.98 32.98 27.99 35.98
1.13 18.98 36.93 20.96 1.979 14 26.97 66.98 49.98 -2.052 18.98 43.97 58.99 59.94 45.95 38.98 53.93
1.135 24.99 43.97 37.96 17.95 27.99 45.95 85.96 75.99 9.966 25.94 63.97 77.97 77.97 51.95 49.98 67.93
1.14 31 48 54.96 35.98 38.98 56.94 91.96 86.98 23.96 29.97 76.94 88.96 85.96 54.96 61.99 71.96
1.145 32.98 48.95 62.95 46.97 39.94 56.94 77.97 79.95 19.93 31 76.94 82.95 75.99 49.98 66.98 66.98
1.15 28.94 42.94 56.94 42.94 33.93 43.97 51.95 56.94 0.9526 21.98 60.97 63.97 53.93 34.95 62.95 51.95
1.155 16.93 26.97 40.96 32.98 21.98 26.97 33.93 35.98 -19.05 10.99 44.99 44.99 35.98 23.96 56.94 40.96
1.16 2.931 11.94 22.94 17.95 8.94 12.97 23.96 18.98 -27.04 3.957 31 31 27.99 18.98 49.98 31.95
1.165 -1.026 1.979 7.987 9.966 1.979 5.936 23.96 15.97 -19.05 1.979 23.96 25.94 21.98 15.97 43.97 25.94
1.17 -1.026 0.9526 4.983 5.936 0 6.961 26.97 15.97 -2.052 1.979 21.98 22.94 17.95 14 34.95 17.95
1.175 2.931 3.957 5.936 9.966 0.9526 7.987 22.94 14.95 6.961 -7.035 21.98 17.95 11.94 10.99 19.93 11.94
1.18 10.99 3.957 5.936 15.97 -2.052 0 7.987 3.957 14 -19.05 15.97 11.94 1.979 9.966 -2.052 0.9526
1.185 16.93 -1.026 8.94 21.98 -3.004 -4.03 -5.056 -3.004 14.95 -29.02 1.979 -1.026 -2.052 12.97 -16.05 -10.04
1.19 16.93 -5.056 10.99 23.96 -9.013 -17 -19.05 -9.013 11.94 -38.03 -9.013 -9.013 -9.013 10.99 -33.05 -14.07
1.195 14.95 -11.06 11.94 23.96 -15.02 -21.03 -21.03 -9.013 5.936 -43.01 -19.05 -19.05 -11.06 5.936 -39.06 -15.02
1.2 14.95 -7.035 12.97 21.98 -14.07 -19.05 -9.013 1.979 -1.026 -37.01 -21.03 -19.05 -3.004 6.961 -33.05 -2.052
1.205 20.96 -4.03 8.94 19.93 -10.04 -12.02 3.957 8.94 -15.02 -28.07 -13.04 -12.02 0.9526 5.936 -26.01 6.961
1.21 31 1.979 5.936 15.97 -1.026 0.9526 19.93 17.95 -25.06 -21.03 -1.026 -1.026 7.987 -2.052 -19.05 15.97
1.215 38.98 14.95 5.936 15.97 2.931 10.99 31.95 24.99 -23.01 -13.04 11.94 8.94 12.97 0.9526 -12.02 19.93
1.22 40.96 20.96 11.94 23.96 10.99 22.94 35.98 31 -7.035 -3.004 23.96 24.99 18.98 4.983 -4.03 17.95
1.225 34.95 17.95 21.98 33.93 11.94 25.94 37.96 35.98 7.987 0.9526 31.95 31.95 19.93 9.966 -3.004 11.94
1.23 22.94 12.97 33.93 41.99 11.94 24.99 33.93 41.99 23.96 1.979 29.97 34.95 15.97 11.94 -2.052 5.936
1.235 12.97 3.957 41.99 43.97 5.936 17.95 29.97 43.97 25.94 -4.03 23.96 28.94 14 14 -1.026 3.957
1.24 4.983 -1.026 39.94 37.96 -2.052 7.987 21.98 41.99 17.95 -7.035 17.95 21.98 11.94 19.93 0.9526 5.936
1.245 6.961 -7.035 29.97 27.99 -3.004 0 15.97 35.98 7.987 -8.061 14 19.93 14.95 24.99 -2.052 7.987
1.25 12.97 -9.013 17.95 19.93 -5.056 -2.052 14 27.99 0.9526 -14.07 14 15.97 16.93 22.94 -2.052 9.966
1.255 14.95 -9.013 5.936 14 -3.004 0 14 17.95 -11.06 -21.03 15.97 14 14 17.95 -3.004 7.987
1.26 10.99 -9.013 -2.052 11.94 -1.026 1.979 11.94 11.94 -21.03 -23.01 15.97 11.94 10.99 16.93 -9.013 3.957
1.265 0.9526 -13.04 0.9526 9.966 -3.004 0 5.936 1.979 -31.07 -25.06 9.966 1.979 3.957 10.99 -17 -2.052
1.27 -17 -23.01 -1.026 9.966 -9.013 -5.056 -3.004 -3.004 -31.07 -27.04 -2.052 -7.035 0.9526 3.957 -25.06 -3.004
1.275 -31.07 -33.05 0.9526 11.94 -19.05 -19.05 -17 -11.06 -23.01 -27.04 -11.06 -19.05 -3.004 1.979 -27.04 -3.004
1.28 -35.03 -41.04 0 17.95 -23.01 -29.02 -25.06 -13.04 -7.035 -19.05 -21.03 -20 1.979 7.987 -21.03 -2.052
1.285 -27.04 -41.04 3.957 21.98 -23.01 -31.07 -25.06 -10.04 3.957 -9.013 -23.01 -14.07 1.979 14.95 -8.061 3.957
1.29 -17 -33.05 9.966 23.96 -17 -23.01 -17 -7.035 9.966 0.9526 -13.04 -3.004 3.957 9.966 0 9.966
1.295 -7.035 -21.03 14 22.94 -7.035 -11.06 -5.056 -4.03 8.94 7.987 -2.052 7.987 2.931 4.983 16.93 12.97
1.3 -5.056 -11.06 14 18.98 0.9526 0.9526 -2.052 -2.052 2.931 16.93 11.94 19.93 0 0 31 8.94
1.305 -13.04 -3.004 9.966 14 -2.052 3.957 0 -1.026 -2.052 23.96 21.98 21.98 0.9526 -2.052 35.98 3.957
1.31 -17 0 3.957 10.99 0.9526 2.931 0 0.9526 -5.056 20.96 20.96 17.95 -3.004 0.9526 29.97 0
1.315 -17 -1.026 -2.052 8.94 -1.026 -1.026 -4.03 0.9526 -17 11.94 12.97 3.957 -7.035 -1.026 16.93 -11.06
1.32 -15.02 1.979 -1.026 7.987 -3.004 -3.004 -9.013 0.9526 -33.05 1.979 0.9526 -1.026 -11.06 -5.056 -2.052 -25.06
1.325 -5.056 10.99 -2.052 9.966 0 0 -2.052 0 -48.07 1.979 -8.061 -7.035 -16.05 -12.02 -9.013 -37.01
1.33 0.9526 18.98 0 7.987 -1.026 -1.026 -1.026 -3.004 -60.01 -1.026 -12.02 -10.04 -22.06 -21.03 -17 -42.06
1.335 2.931 23.96 0 5.936 5.936 5.936 9.966 -5.056 -59.06 -3.004 -11.06 -3.004 -21.03 -27.04 -11.06 -37.01
1.34 8.94 29.97 6.961 10.99 14.95 17.95 19.93 1.979 -45.07 5.936 0.9526 1.979 -9.013 -14.07 3.957 -21.03
1.345 8.94 29.97 16.93 20.96 20.96 21.98 19.93 5.936 -30.04 16.93 9.966 15.97 0.9526 -1.026 24.99 1.979
1.35 4.983 25.94 19.93 25.94 21.98 25.94 21.98 11.94 -19.05 27.99 25.94 25.94 14 3.957 41.99 17.95
1.355 0.9526 24.99 23.96 27.99 21.98 26.97 20.96 15.97 -12.02 31.95 42.94 36.93 25.94 10.99 55.98 31.95
1.36 -9.013 18.98 21.98 26.97 15.97 25.94 20.96 15.97 -13.04 34.95 53.93 43.97 31 11.94 55.98 39.94
1.365 -19.05 9.966 14 19.93 11.94 19.93 23.96 9.966 -17 29.97 51.95 48 31.95 9.966 48 35.98
1.37 -21.03 0.9526 4.983 7.987 4.983 14.95 22.94 6.961 -24.04 19.93 46.97 44.99 28.94 7.987 35.98 28.94
1.375 -25.06 -8.061 -1.026 -1.026 0.9526 4.983 14.95 4.983 -29.02 6.961 32.98 41.99 26.97 6.961 24.99 18.98
1.38 -31.07 -25.06 -11.06 -9.013 -5.056 -1.026 3.957 5.936 -27.04 0.9526 19.93 33.93 23.96 15.97 15.97 9.966
1.385 -31.07 -35.03 -11.06 -6.009 -10.04 -7.035 0 7.987 -17 -1.026 9.966 27.99 23.96 25.94 8.94 6.961
1.39 -31.07 -33.05 -4.03 0.9526 -8.061 -4.03 1.979 7.987 0 0 10.99 31.95 26.97 29.97 2.931 5.936
1.395 -17 -15.02 6.961 10.99 1.979 4.983 14 14.95 6.961 3.957 24.99 42.94 35.98 37.96 2.931 6.961
1.4 -1.026 7.987 24.99 23.96 14.95 26.97 37.96 29.97 8.94 24.99 40.96 61.99 48.95 45.95 6.961 17.95
1.405 20.96 33.93 41.99 36.93 32.98 48 61.99 48 0 49.98 59.94 82 59.94 51.95 18.98 31
1.41 36.93 53.93 48 39.94 43.97 65.95 75.99 59.94 -9.013 63.97 69.98 91.96 67.93 45.95 33.93 41.99
1.415 42.94 60.97 51.95 41.99 49.98 72.98 82.95 68.95 -17 72.98 72.98 97.97 66.98 36.93 52.98 46.97
1.42 46.97 58.99 50.93 41.99 46.97 68.95 76.94 66.98 -12.02 71.96 66.98 90.94 62.95 31.95 69.98 48.95
1.425 46.97 51.95 49.98 41.99 39.94 55.98 65.95 57.96 -5.056 67.93 53.93 75.99 51.95 25.94 73.94 39.94
1.43 56.94 54.96 53.93 42.94 33.93 51.95 54.96 55.98 0.9526 58.99 48 59.94 40.96 17.95 69.98 27.99
1.435 58.99 58.99 55.98 43.97 33.93 46.97 48.95 49.98 0.9526 49.98 44.99 48.95 35.98 16.93 57.96 14
1.44 56.94 59.94 53.93 43.97 27.99 41.99 43.97 48 1.979 48 45.95 39.94 29.97 17.95 45.95 3.957
1.445 42.94 51.95 48.95 44.99 22.94 39.94 37.96 43.97 6.961 44.99 43.97 35.98 24.99 19.93 38.98 -2.052
1.45 18.98 37.96 36.93 42.94 14.95 33.93 27.99 28.94 14 33.93 41.99 27.99 14 16.93 31.95 -9.013
1.455 0.9526 17.95 21.98 37.96 1.979 15.97 7.987 9.966 21.98 14 31.95 19.93 3.957 14 21.98 -17
1.46 -7.035 10.99 12.97 35.98 -2.052 2.931 -2.052 0.9526 18.98 -2.052 20.96 8.94 2.931 17.95 11.94 -16.05
1.465 0.9526 18.98 8.94 31.95 -4.03 0 -10.04 -6.009 8.94 -7.035 8.94 1.979 2.931 14.95 1.979 -15.02
1.47 6.961 39.94 11.94 25.94 -1.026 0.9526 -1.026 -3.004 -7.035 -11.06 1.979 -2.052 3.957 7.987 -11.06 -13.04
1.475 18.98 65 25.94 28.94 5.936 10.99 12.97 5.936 -23.01 -5.056 6.961 3.957 9.966 1.979 -18.03 -9.013
1.48 20.96 78.99 43.97 36.93 15.97 24.99 36.93 27.99 -33.05 4.983 18.98 21.98 15.97 0 -17 -6.009
1.485 10.99 79.95 57.96 41.99 21.98 37.96 53.93 45.95 -37.01 19.93 31.95 39.94 21.98 1.979 -3.004 0.9526
1.49 -1.026 65.95 61.99 46.97 23.96 43.97 55.98 56.94 -34 28.94 45.95 53.93 31.95 3.957 10.99 6.961
1.495 -3.004 48 53.93 42.94 23.96 39.94 45.95 62.95 -28.07 31.95 57.96 61.99 42.94 12.97 28.94 18.98
1.5 -9.013 31.95 41.99 33.93 21.98 33.93 27.99 59.94 -17 33.93 63.97 61.99 51.95 23.96 39.94 29.97
1.505 -9.013 19.93 31.95 27.99 17.95 27.99 15.97 52.98 -3.004 37.96 61.99 54.96 55.98 32.98 40.96 35.98
1.51 -7.035 15.97 25.94 27.99 15.97 23.96 9.966 37.96 7.987 35.98 53.93 40.96 49.98 29.97 29.97 31.95
1.515 -3.004 17.95 25.94 33.93 11.94 21.98 11.94 25.94 15.97 23.96 37.96 27.99 31.95 25.94 14 19.93
1.52 0.9526 21.98 23.96 39.94 9.966 19.93 14 15.97 15.97 11.94 19.93 19.93 15.97 23.96 0.9526 1.979
1.525 8.94 27.99 19.93 41.99 9.966 17.95 17.95 11.94 7.987 1.979 7.987 15.97 2.931 20.96 -13.04 -9.013
1.53 14.95 31.95 15.97 37.96 9.966 19.93 19.93 14 -2.052 -1.026 5.936 17.95 0 12.97 -19.05 -17
1.535 16.93 29.97 15.97 33.93 11.94 23.96 23.96 21.98 -1.026 -1.026 14 23.96 0.9526 7.987 -19.05 -17
1.54 12.97 23.96 23.96 35.98 14 27.99 27.99 38.98 0.9526 6.961 27.99 32.98 6.961 10.99 -10.04 -13.04
1.545 4.983 15.97 37.96 43.97 14 27.99 29.97 56.94 5.936 16.93 37.96 38.98 17.95 16.93 1.979 -3.004
1.55 -1.026 7.987 53.93 57.96 11.94 21.98 27.99 65.95 9.966 19.93 37.96 33.93 21.98 17.95 1.979 0.9526
1.555 -7.035 3.957 63.97 69.98 3.957 9.966 18.98 66.98 11.94 12.97 31 22.94 25.94 25.94 8.94 -1.026
1.56 -11.06 5.936 65.95 70.93 0.9526 0 8.94 58.99 14 2.931 18.98 17.95 31 34.95 12.97 2.931
1.565 -11.06 11.94 59.94 63.97 -3.004 0.9526 3.957 43.97 11.94 -1.026 11.94 15.97 33.93 37.96 11.94 9.966
1.57 -15.02 14 46.97 54.96 -3.004 -2.052 4.983 27.99 5.936 -7.035 14.95 19.93 37.96 29.97 14 16.93
1.575 -19.05 15.97 36.93 46.97 -1.026 5.936 8.94 9.966 0 -9.013 18.98 28.94 32.98 17.95 19.93 22.94
1.58 -25.06 15.97 21.98 41.99 -2.052 11.94 9.966 0.9526 0 -5.056 23.96 35.98 29.97 5.936 23.96 21.98
1.585 -27.04 14 12.97 42.94 0 10.99 3.957 -6.009 0 1.979 27.99 33.93 23.96 -2.052 34.95 19.93
1.59 -27.04 11.94 6.961 43.97 -1.026 4.983 -7.035 -5.056 1.979 0.9526 21.98 21.98 16.93 0 40.96 9.966
1.595 -21.03 14 5.936 41.99 -1.026 -2.052 -17 -1.026 1.979 1.979 14 11.94 14 -2.052 43.97 -2.052
1.6 -9.013 16.93 17.95 45.95 0 1.979 -14.07 10.99 1.979 1.979 6.961 3.957 15.97 11.94 39.94 -6.009
1.605 0.9526 22.94 37.96 54.96 1.979 2.931 -3.004 27.99 1.979 -1.026 1.979 -1.026 17.95 25.94 31 -14.07
1.61 14.95 31.95 59.94 63.97 3.957 14 9.966 43.97 3.957 0.9526 0.9526 -2.052 14 25.94 23.96 -19.05
1.615 26.97 40.96 82.95 79.95 14.95 27.99 28.94 58.99 14.95 1.979 4.983 4.983 16.93 25.94 29.97 -18.03
1.62 32.98 52.98 95.99 84.93 27.99 39.94 46.97 69.98 24.99 9.966 20.96 21.98 25.94 26.97 41.99 -11.06
1.625 36.93 61.99 95.99 79.95 37.96 55.98 61.99 82 31.95 31.95 45.95 41.99 41.99 27.99 63.97 1.979
1.63 40.96 70.93 86.98 69.98 49.98 68.95 71.96 88.96 32.98 56.94 69.98 62.95 57.96 27.99 76.94 20.96
1.635 42.94 74.96 72.98 56.94 54.96 76.94 82.95 90.94 24.99 69.98 80.97 77.97 66.98 25.94 71.96 34.95
1.64 42.94 71.96 59.94 46.97 56.94 78.99 82.95 86.98 18.98 72.98 76.94 77.97 67.93 28.94 58.99 36.93
1.645 40.96 68.95 48.95 42.94 52.98 74.96 76.94 76.94 20.96 61.99 62.95 69.98 60.97 27.99 35.98 31
1.65 38.98 60.97 44.99 48 48 68.95 61.99 66.98 26.97 44.99 43.97 52.98 53.93 29.97 20.96 18.98
1.655 40.96 59.94 43.97 55.98 43.97 59.94 51.95 61.99 23.96 27.99 33.93 41.99 45.95 29.97 9.966 9.966
1.66 48.95 60.97 48 66.98 39.94 51.95 42.94 61.99 18.98 21.98 31 37.96 45.95 38.98 7.987 5.936
1.665 58.99 66.98 52.98 73.94 31 43.97 34.95 58.99 2.931 21.98 24.99 31 44.99 39.94 5.936 2.931
1.67 58.99 67.93 51.95 71.96 17.95 29.97 27.99 45.95 -5.056 7.987 11.94 14 27.99 27.99 -1.026 -3.004
1.675 44.99 60.97 53.93 70.93 2.931 14.95 15.97 25.94 -9.013 -8.061 0.9526 1.979 5.936 15.97 -8.061 -12.02
1.68 20.96 42.94 48 63.97 -6.009 0.9526 2.931 6.961 -2.052 -29.02 -18.03 -15.02 -7.035 1.979 -7.035 -24.04
1.685 -3.004 25.94 39.94 53.93 -15.02 -9.013 -11.06 -7.035 11.94 -39.06 -33.05 -29.02 -21.03 -7.035 -1.026 -35.03
1.69 -23.01 11.94 34.95 49.98 -16.05 -12.02 -21.03 -17 19.93 -38.03 -37.01 -37.01 -32.02 -18.03 0.9526 -37.01
1.695 -29.02 7.987 31 44.99 -11.06 -8.061 -27.04 -18.03 15.97 -26.01 -33.05 -39.06 -37.01 -25.06 1.979 -39.06
1.7 -23.01 7.987 25.94 48 -5.056 -3.004 -31.07 -15.02 3.957 -9.013 -33.05 -41.04 -37.01 -25.06 -7.035 -41.04
1.705 -13.04 9.966 32.98 52.98 0.9526 -2.052 -26.01 -7.035 -1.026 0 -26.01 -40.01 -30.04 -19.05 -19.05 -38.03
1.71 -5.056 11.94 40.96 60.97 0 1.979 -16.05 3.957 -3.004 1.979 -16.05 -37.01 -21.03 -11.06 -31.07 -32.02
1.715 0.9526 15.97 49.98 67.93 3.957 7.987 -3.004 15.97 1.979 -1.026 -5.056 -23.01 -5.056 0.9526 -35.03 -23.01
1.72 -1.026 25.94 57.96 70.93 5.936 11.94 4.983 32.98 15.97 -4.03 0.9526 -5.056 14.95 10.99 -30.04 -12.02
1.725 4.983 41.99 59.94 63.97 9.966 15.97 14.95 36.93 27.99 -6.009 6.961 -1.026 27.99 21.98 -24.04 -6.009
1.73 12.97 51.95 53.93 55.98 11.94 17.95 15.97 33.93 27.99 -15.02 1.979 -1.026 27.99 19.93 -27.04 -9.013
1.735 14.95 55.98 43.97 45.95 11.94 19.93 9.966 24.99 19.93 -20 -5.056 -14.07 19.93 16.93 -32.02 -15.02
1.74 10.99 45.95 33.93 37.96 9.966 17.95 1.979 14.95 14 -20 -17 -28.07 6.961 14.95 -26.01 -23.01
1.745 2.931 29.97 25.94 33.93 7.987 14 0.9526 7.987 7.987 -21.03 -25.06 -35.03 0.9526 14 -15.02 -31.07
1.75 -1.026 15.97 21.98 31.95 5.936 9.966 -5.056 5.936 3.957 -17 -25.06 -35.03 -4.03 10.99 1.979 -33.05
1.755 4.983 9.966 19.93 31.95 1.979 5.936 -9.013 3.957 0 -13.04 -23.01 -27.04 -4.03 4.983 19.93 -31.07
1.76 12.97 11.94 15.97 29.97 0.9526 0.9526 -17 -2.052 -1.026 -7.035 -21.03 -23.01 -3.004 1.979 25.94 -23.01
1.765 18.98 11.94 9.966 29.97 -7.035 -11.06 -29.02 -5.056 -5.056 -9.013 -25.06 -27.04 -3.004 0 14 -15.02
1.77 12.97 1.979 3.957 27.99 -17 -23.01 -39.06 -15.02 -7.035 -17 -33.05 -36.05 -4.03 0.9526 -2.052 -7.035
1.775 0.9526 -9.013 -2.052 27.99 -25.06 -33.05 -47.04 -20 -1.026 -29.02 -43.01 -44.04 -7.035 -1.026 -22.06 0.9526
1.78 -17 -27.04 -1.026 27.99 -29.02 -37.01 -49.02 -25.06 14 -33.05 -47.04 -47.04 -3.004 3.957 -33.05 0
1.785 -25.06 -37.01 -5.056 26.97 -27.04 -35.03 -46.02 -28.07 28.94 -31.07 -48.07 -41.04 -6.009 2.931 -30.04 -1.026
1.79 -21.03 -35.03 -9.013 22.94 -25.06 -31.07 -44.04 -34 31 -31.07 -46.02 -42.06 -17 -5.056 -26.01 -4.03
1.795 -11.06 -25.06 -15.02 17.95 -25.06 -27.04 -45.07 -45.07 21.98 -31.07 -45.07 -45.07 -33.05 -21.03 -25.06 -17
1.8 0.9526 -17 -18.03 18.98 -29.02 -31.07 -46.02 -49.02 17.95 -32.02 -40.01 -49.02 -39.06 -29.02 -25.06 -24.04
1.805 2.931 -19.05 -18.03 23.96 -35.03 -37.01 -52.03 -50.05 14 -39.06 -36.05 -46.02 -35.03 -28.07 -24.04 -29.02
1.81 -7.035 -31.07 -21.03 21.98 -45.07 -45.07 -59.06 -51 15.97 -51 -31.07 -45.07 -31.07 -23.01 -23.01 -33.05
1.815 -19.05 -48.07 -24.04 14 -47.04 -51 -63.02 -47.04 14.95 -55.03 -25.06 -38.03 -22.06 -13.04 -19.05 -31.07
1.82 -33.05 -64.04 -36.05 -1.026 -45.07 -53.05 -69.03 -49.02 7.987 -53.05 -27.04 -31.07 -16.05 -2.052 -17 -26.01
1.825 -35.03 -75.04 -53.05 -15.02 -37.01 -51 -69.03 -51 -5.056 -47.04 -31.07 -31.07 -15.02 -3.004 -13.04 -21.03
1.83 -27.04 -70.05 -61.04 -25.06 -29.02 -44.04 -62.07 -51 -12.02 -40.01 -34 -28.07 -13.04 -6.009 -11.06 -13.04
1.835 -19.05 -58.04 -55.03 -25.06 -21.03 -36.05 -47.04 -42.06 -9.013 -35.03 -33.05 -28.07 -8.061 -6.009 -6.009 -3.004
1.84 -11.06 -43.01 -35.03 -9.013 -17 -29.02 -27.04 -23.01 0 -27.04 -29.02 -15.02 1.979 1.979 -1.026 7.987
1.845 2.931 -23.01 -6.009 7.987 -11.06 -14.07 -2.052 0 11.94 -15.02 -12.02 -1.026 25.94 17.95 3.957 29.97
1.85 6.961 -3.004 11.94 24.99 -2.052 -2.052 14 25.94 19.93 -7.035 0 15.97 40.96 31 14 45.95
1.855 22.94 11.94 23.96 29.97 1.979 5.936 27.99 39.94 11.94 -1.026 15.97 31.95 45.95 29.97 15.97 53.93
1.86 40.96 28.94 29.97 31 14.95 23.96 38.98 49.98 6.961 6.961 31 43.97 44.99 25.94 23.96 54.96
1.865 52.98 37.96 33.93 27.99 24.99 34.95 48 52.98 4.983 18.98 39.94 50.93 41.99 17.95 28.94 48.95
1.87 58.99 43.97 33.93 25.94 33.93 45.95 61.99 55.98 9.966 23.96 45.95 57.96 35.98 7.987 31.95 35.98
1.875 62.95 46.97 41.99 27.99 39.94 54.96 76.94 65 17.95 22.94 50.93 61.99 35.98 7.987 35.98 27.99
1.88 62.95 48 50.93 36.93 44.99 58.99 86.98 74.96 21.98 22.94 53.93 67.93 37.96 18.98 31.95 20.96
1.885 65 51.95 55.98 42.94 48 58.99 83.98 75.99 26.97 16.93 44.99 58.99 32.98 23.96 16.93 9.966
1.89 68.95 53.93 52.98 46.97 44.99 52.98 62.95 62.95 27.99 2.931 29.97 41.99 21.98 24.99 -1.026 -1.026
1.895 72.98 48.95 43.97 45.95 33.93 38.98 38.98 42.94 33.93 -6.009 6.961 14 3.957 14 -19.05 -7.035
1.9 65 33.93 31.95 39.94 21.98 21.98 11.94 21.98 37.96 -17 -11.06 -3.004 -5.056 9.966 -27.04 -15.02
1.905 48.95 11.94 19.93 29.97 6.961 6.961 0.9526 4.983 40.96 -22.06 -25.06 -20 -13.04 1.979 -18.03 -18.03
1.91 31 -4.03 5.936 10.99 0 0.9526 -2.052 -1.026 32.98 -26.01 -36.05 -31.07 -16.05 1.979 -7.035 -20
1.915 8.94 -21.03 -5.056 0.9526 -5.056 -9.013 -3.004 -7.035 21.98 -29.02 -39.06 -37.01 -19.05 -1.026 0.9526 -21.03
1.92 0.9526 -33.05 -15.02 -8.061 -6.009 -10.04 -1.026 -5.056 7.987 -25.06 -41.04 -37.01 -16.05 0.9526 1.979 -19.05
1.925 -5.056 -33.05 -20 -13.04 -3.004 -8.061 0 -3.004 -1.026 -15.02 -34 -32.02 -11.06 7.987 1.979 -21.03
1.93 -9.013 -37.01 -23.01 -13.04 -1.026 -3.004 -2.052 -1.026 -7.035 -13.04 -27.04 -25.06 -7.035 14 0 -17
1.935 -3.004 -30.04 -19.05 -11.06 -2.052 -1.026 5.936 0.9526 -3.004 -5.056 -11.06 -6.009 1.979 20.96 2.931 -9.013
1.94 4.983 -20 -13.04 -7.035 1.979 6.961 16.93 7.987 0.9526 -1.026 -1.026 6.961 9.966 31 9.966 -3.004
1.945 18.98 -3.004 -5.056 -7.035 5.936 9.966 25.94 9.966 14 5.936 11.94 17.95 11.94 31.95 17.95 -3.004
1.95 36.93 8.94 0 -4.03 9.966 11.94 27.99 3.957 25.94 1.979 14 11.94 4.983 18.98 19.93 -8.061
1.955 50.93 18.98 0 -7.035 9.966 9.966 21.98 -3.004 31 -1.026 7.987 -1.026 -8.061 1.979 17.95 -17
1.96 46.97 19.93 -3.004 -3.004 3.957 1.979 5.936 -15.02 29.97 -15.02 -5.056 -13.04 -25.06 -5.056 9.966 -27.04
1.965 38.98 11.94 -4.03 1.979 0.9526 -2.052 0 -20 29.97 -21.03 -14.07 -18.03 -27.04 -10.04 4.983 -27.04
1.97 20.96 3.957 -2.052 -1.026 -1.026 -2.052 1.979 -15.02 31.95 -22.06 -14.07 -17 -21.03 -3.004 1.979 -24.04
1.975 8.94 -2.052 -2.052 5.936 -2.052 3.957 11.94 1.979 33.93 -17 -1.026 0.9526 -2.052 5.936 7.987 -9.013
1.98 0.9526 0 3.957 10.99 7.987 15.97 34.95 31 40.96 -3.004 12.97 18.98 29.97 35.98 20.96 8.94
1.985 0.9526 3.957 9.966 14.95 17.95 27.99 54.96 52.98 44.99 7.987 24.99 35.98 58.99 60.97 31 36.93
1.99 4.983 5.936 14 19.93 19.93 29.97 59.94 59.94 45.95 5.936 23.96 37.96 67.93 67.93 29.97 55.98
1.995 4.983 3.957 11.94 21.98 11.94 19.93 48 54.96 52.98 0.9526 11.94 31 63.97 62.95 24.99 69.98
2 0.9526 -2.052 11.94 23.96 -2.052 3.957 27.99 38.98 57.96 -7.035 -2.052 16.93 53.93 51.95 10.99 69.98
2.005 -1.026 -5.056 11.94 25.94 -9.013 -3.004 9.966 23.96 63.97 -17 -3.004 3.957 35.98 39.94 0.9526 59.94
2.01 -7.035 -9.013 14 25.94 -13.04 -5.056 3.957 17.95 67.93 -19.05 -2.052 0 23.96 31.95 -7.035 43.97
2.015 -9.013 -9.013 15.97 23.96 -9.013 0.9526 7.987 21.98 65.95 -13.04 9.966 5.936 19.93 31.95 -5.056 29.97
2.02 -7.035 -9.013 9.966 17.95 -3.004 3.957 14 25.94 55.98 -2.052 23.96 15.97 23.96 37.96 1.979 23.96
2.025 -3.004 -11.06 0.9526 9.966 0.9526 5.936 11.94 19.93 37.96 -3.004 27.99 23.96 25.94 37.96 15.97 21.98
2.03 -3.004 -17 -19.05 -2.052 -3.004 0.9526 -2.052 1.979 17.95 -14.07 17.95 17.95 20.96 24.99 27.99 21.98
2.035 -3.004 -25.06 -37.01 -5.056 -13.04 -15.02 -17 -19.05 0 -30.04 0 0.9526 4.983 2.931 31 14
2.04 -5.056 -29.02 -45.07 -7.035 -19.05 -29.02 -33.05 -37.01 -1.026 -45.07 -17 -17 -3.004 -5.056 23.96 3.957
2.045 -5.056 -27.04 -35.03 -3.004 -21.03 -33.05 -37.01 -38.03 0 -49.02 -35.03 -32.02 -13.04 -12.02 6.961 -8.061
2.05 -1.026 -17 -13.04 5.936 -17 -27.04 -27.04 -22.06 9.966 -45.07 -44.04 -46.02 -23.01 -12.02 -8.061 -24.04
2.055 4.983 -3.004 9.966 17.95 -9.013 -17 -7.035 -2.052 23.96 -33.05 -45.07 -49.02 -25.06 -3.004 -25.06 -33.05
2.06 12.97 5.936 33.93 27.99 -1.026 -3.004 5.936 24.99 31.95 -14.07 -32.02 -38.03 -10.04 5.936 -29.02 -24.04
2.065 18.98 16.93 41.99 33.93 1.979 5.936 18.98 42.94 29.97 1.979 -20 -24.04 2.931 19.93 -29.02 -4.03
2.07 18.98 21.98 39.94 33.93 9.966 15.97 23.96 48 27.99 7.987 -3.004 -13.04 21.98 29.97 -25.06 15.97
2.075 16.93 24.99 27.99 28.94 15.97 21.98 24.99 43.97 25.94 12.97 6.961 0.9526 35.98 38.98 -18.03 39.94
2.08 8.94 20.96 15.97 22.94 15.97 19.93 18.98 31.95 25.94 14 19.93 7.987 44.99 49.98 -12.02 49.98
2.085 -1.026 11.94 3.957 11.94 11.94 15.97 14 17.95 25.94 11.94 25.94 15.97 41.99 48 -7.035 48
2.09 -7.035 0.9526 -3.004 1.979 9.966 9.966 8.94 6.961 15.97 12.97 27.99 20.96 26.97 39.94 -1.026 38.98
2.095 -15.02 -4.03 -13.04 -10.04 9.966 8.94 4.983 0.9526 0 9.966 28.94 17.95 9.966 20.96 -1.026 23.96
2.1 -15.02 -11.06 -19.05 -19.05 14 7.987 1.979 0 -15.02 15.97 21.98 11.94 0.9526 7.987 0.9526 3.957
2.105 -5.056 -11.06 -19.05 -20 18.98 10.99 -2.052 -1.026 -21.03 22.94 14 -2.052 -12.02 -2.052 -3.004 -8.061
2.11 0.9526 -4.03 -19.05 -17 18.98 8.94 -2.052 -3.004 -21.03 21.98 -1.026 -15.02 -29.02 -6.009 -17 -28.07
2.115 6.961 -2.052 -15.02 -15.02 7.987 0 -13.04 -15.02 -11.06 7.987 -15.02 -39.06 -39.06 -9.013 -37.01 -47.04
2.12 4.983 3.957 -10.04 -7.035 -1.026 -5.056 -21.03 -26.01 0 1.979 -29.02 -49.02 -45.07 -6.009 -49.02 -57.01
2.125 2.931 1.979 -12.02 -5.056 -8.061 -15.02 -29.02 -35.03 -1.026 -7.035 -40.01 -50.05 -43.01 -1.026 -58.04 -54.01
2.13 -7.035 -1.026 -16.05 -7.035 -18.03 -22.06 -31.07 -31.07 -1.026 -13.04 -48.07 -47.04 -34 0.9526 -63.02 -44.04
2.135 -11.06 -5.056 -18.03 -9.013 -20 -27.04 -27.04 -25.06 1.979 -17 -56.06 -46.02 -23.01 0.9526 -74.01 -28.07
2.14 -11.06 -13.04 -18.03 -9.013 -18.03 -27.04 -27.04 -12.02 -4.03 -10.04 -61.04 -47.04 -9.013 0.9526 -81.05 -13.04
2.145 -13.04 -21.03 -19.05 -13.04 -17 -29.02 -31.07 -7.035 -13.04 -3.004 -57.01 -53.05 -7.035 0 -81.05 -7.035
2.15 -13.04 -26.01 -19.05 -13.04 -14.07 -28.07 -38.03 -7.035 -23.01 0 -46.02 -55.03 -13.04 0 -71.01 -6.009
2.155 -11.06 -29.02 -21.03 -20 -12.02 -26.01 -47.04 -18.03 -31.07 4.983 -23.01 -55.03 -24.04 -11.06 -51 -10.04
2.16 -11.06 -27.04 -27.04 -27.04 -11.06 -23.01 -51 -33.05 -35.03 14 -1.026 -39.06 -35.03 -17 -27.04 -13.04
2.165 -1.026 -22.06 -29.02 -32.02 -5.056 -10.04 -46.02 -44.04 -29.02 25.94 16.93 -21.03 -37.01 -24.04 0 -11.06
2.17 4.983 -18.03 -31.07 -34 0 -3.004 -34 -48.07 -19.05 31 27.99 0 -36.05 -31.07 9.966 -6.009
2.175 16.93 -15.02 -31.07 -35.03 3.957 0 -23.01 -45.07 -11.06 31.95 27.99 3.957 -31.07 -33.05 17.95 0.9526
2.18 26.97 -16.05 -29.02 -30.04 3.957 0 -16.05 -37.01 -15.02 31.95 19.93 3.957 -26.01 -23.01 20.96 -2.052
2.185 28.94 -22.06 -31.07 -32.02 0 -5.056 -28.07 -37.01 -25.06 31 0.9526 -5.056 -33.05 -24.04 18.98 -5.056
2.19 26.97 -29.02 -39.06 -39.06 -3.004 -19.05 -47.04 -51 -37.01 17.95 -15.02 -35.03 -51 -31.07 9.966 -29.02
2.195 20.96 -38.03 -49.02 -43.01 -13.04 -35.03 -68 -66.02 -49.02 1.979 -38.03 -66.02 -72.03 -43.01 1.979 -54.01
2.2 10.99 -45.07 -53.05 -47.04 -21.03 -47.04 -81.05 -74.01 -49.02 -12.02 -60.01 -92.04 -84.05 -47.04 -13.04 -74.01
2.205 -1.026 -47.04 -49.02 -41.04 -27.04 -53.05 -79.07 -73.06 -41.04 -31.07 -77.02 -105 -79.07 -39.06 -33.05 -79.07
2.21 -5.056 -47.04 -37.01 -35.03 -29.02 -49.02 -67.05 -60.01 -31.07 -43.01 -82.07 -102 -59.06 -26.01 -54.01 -64.04
2.215 -9.013 -41.04 -27.04 -25.06 -25.06 -43.01 -51 -40.01 -19.05 -43.01 -77.02 -86.03 -33.05 -10.04 -66.02 -34
2.22 -5.056 -37.01 -21.03 -25.06 -19.05 -33.05 -41.04 -29.02 -5.056 -35.03 -61.04 -63.02 -9.013 -2.052 -71.01 -5.056
2.225 0.9526 -35.03 -23.01 -27.04 -11.06 -27.04 -37.01 -23.01 1.979 -20 -39.06 -37.01 0.9526 4.983 -54.01 15.97
2.23 4.983 -33.05 -31.07 -33.05 -5.056 -19.05 -37.01 -25.06 3.957 -6.009 -13.04 -13.04 6.961 0.9526 -29.02 31.95
2.235 6.961 -33.05 -37.01 -35.03 -1.026 -13.04 -33.05 -27.04 1.979 -1.026 7.987 1.979 7.987 -1.026 3.957 37.96
2.24 0.9526 -35.03 -37.01 -33.05 0.9526 -7.035 -29.02 -25.06 -1.026 0.9526 25.94 19.93 11.94 -2.052 37.96 33.93
2.245 -5.056 -39.06 -33.05 -27.04 0.9526 -3.004 -21.03 -21.03 -11.06 3.957 35.98 27.99 7.987 -2.052 57.96 23.96
2.25 -17 -43.01 -25.06 -21.03 -1.026 -3.004 -15.02 -19.05 -19.05 0 35.98 23.96 -2.052 -1.026 57.96 5.936
2.255 -23.01 -43.01 -23.01 -19.05 -5.056 -5.056 -13.04 -21.03 -25.06 0.9526 27.99 15.97 -11.06 -9.013 43.97 -7.035
2.26 -21.03 -43.01 -25.06 -25.06 -7.035 -9.013 -11.06 -25.06 -29.02 1.979 15.97 8.94 -19.05 -15.02 26.97 -19.05
2.265 -15.02 -39.06 -31.07 -33.05 -9.013 -15.02 -13.04 -30.04 -29.02 -2.052 0 -1.026 -31.07 -18.03 6.961 -23.01
2.27 -11.06 -35.03 -39.06 -43.01 -11.06 -23.01 -19.05 -35.03 -29.02 -1.026 -15.02 -11.06 -39.06 -25.06 -9.013 -25.06
2.275 -5.056 -32.02 -41.04 -46.02 -15.02 -31.07 -33.05 -42.06 -24.04 -7.035 -41.04 -33.05 -46.02 -28.07 -30.04 -28.07
2.28 -3.004 -30.04 -41.04 -44.04 -19.05 -39.06 -47.04 -52.03 -20 -17 -66.02 -54.01 -53.05 -27.04 -52.03 -40.01
2.285 -1.026 -27.04 -37.01 -37.01 -21.03 -41.04 -59.06 -59.06 -15.02 -25.06 -83.02 -75.04 -57.01 -27.04 -67.05 -53.05
2.29 6.961 -16.05 -31.07 -26.01 -16.05 -34 -56.06 -57.01 -8.061 -26.01 -74.01 -77.02 -51 -21.03 -65.07 -58.04
2.295 18.98 -2.052 -23.01 -16.05 -4.03 -18.03 -38.03 -43.01 1.979 -15.02 -44.04 -60.01 -29.02 -13.04 -38.03 -43.01
2.3 31 7.987 -13.04 -13.04 5.936 0 -11.06 -21.03 3.957 0 -1.026 -19.05 0.9526 -2.052 0.9526 -11.06
2.305 44.99 27.99 0.9526 -5.056 22.94 24.99 16.93 0.9526 9.966 26.97 39.94 24.99 34.95 16.93 41.99 25.94
2.31 54.96 39.94 8.94 -1.026 36.93 42.94 40.96 22.94 6.961 44.99 65.95 61.99 56.94 26.97 68.95 60.97
2.315 58.99 51.95 19.93 -1.026 43.97 55.98 57.96 39.94 -1.026 49.98 75.99 77.97 61.99 29.97 77.97 77.97
2.32 65 62.95 28.94 0.9526 49.98 61.99 65.95 48.95 -11.06 54.96 72.98 80.97 57.96 32.98 71.96 73.94
2.325 70.93 71.96 36.93 6.961 55.98 65.95 71.96 55.98 -14.07 55.98 66.98 72.98 46.97 27.99 58.99 54.96
2.33 72.98 82 37.96 9.966 55.98 69.98 73.94 53.93 -7.035 49.98 57.96 57.96 29.97 11.94 39.94 29.97
2.335 78.99 90.94 46.97 17.95 60.97 70.93 74.96 55.98 8.94 46.97 49.98 43.97 17.95 2.931 26.97 4.983
2.34 82.95 97.97 52.98 28.94 62.95 69.98 74.96 54.96 25.94 43.97 46.97 37.96 14 1.979 12.97 -3.004
2.345 84.93 99.95 61.99 37.96 59.94 69.98 67.93 53.93 35.98 43.97 37.96 27.99 11.94 -2.052 0 -13.04
2.35 76.94 94.97 67.93 45.95 58.99 65.95 62.95 51.95 35.98 34.95 24.99 20.96 11.94 0.9526 -4.03 -15.02
2.355 70.93 89.99 70.93 48 49.98 59.94 53.93 53.93 32.98 20.96 9.966 3.957 6.961 6.961 -17 -16.05
2.36 54.96 79.95 67.93 48 39.94 45.95 41.99 49.98 23.96 9.966 -5.056 -5.056 0 7.987 -27.04 -17
2.365 48.95 72.98 59.94 41.99 32.98 33.93 35.98 42.94 19.93 6.961 -17 -21.03 0 8.94 -34 -21.03
2.37 48.95 68.95 44.99 28.94 29.97 28.94 23.96 31 14.95 5.936 -21.03 -29.02 -3.004 1.979 -33.05 -18.03
2.375 56.94 69.98 29.97 12.97 32.98 31.95 24.99 24.99 14.95 11.94 -6.009 -23.01 0 1.979 -15.02 -8.061
2.38 62.95 68.95 18.98 1.979 41.99 40.96 29.97 28.94 20.96 31.95 15.97 1.979 23.96 14 1.979 10.99
2.385 66.98 68.95 15.97 -7.035 50.93 53.93 43.97 40.96 31.95 50.93 51.95 39.94 52.98 32.98 34.95 37.96
2.39 56.94 59.94 14 -15.02 53.93 61.99 51.95 48 43.97 57.96 75.99 73.94 71.96 39.94 51.95 61.99
2.395 44.99 43.97 12.97 -17 48 59.94 55.98 49.98 46.97 56.94 83.98 87.93 74.96 40.96 53.93 72.98
2.4 26.97 20.96 3.957 -19.05 34.95 41.99 44.99 31.95 35.98 42.94 68.95 74.96 59.94 31 42.94 65.95
2.405 14.95 0 -3.004 -19.05 19.93 23.96 23.96 5.936 15.97 25.94 41.99 43.97 21.98 5.936 21.98 45.95
2.41 8.94 -5.056 -16.05 -24.04 8.94 7.987 2.931 -20 -3.004 3.957 10.99 7.987 -11.06 -18.03 4.983 21.98
2.415 10.99 -4.03 -26.01 -29.02 0.9526 1.979 -10.04 -39.06 -22.06 -4.03 -3.004 -11.06 -37.01 -36.05 0 4.983
2.42 12.97 -3.004 -35.03 -39.06 -2.052 -1.026 -19.05 -47.04 -31.07 -5.056 -7.035 -13.04 -41.04 -41.04 -1.026 -1.026
2.425 10.99 -1.026 -40.01 -44.04 1.979 -3.004 -19.05 -41.04 -36.05 -3.004 -2.052 -6.009 -30.04 -29.02 -1.026 0
2.43 -1.026 -12.02 -48.07 -54.01 0.9526 -5.056 -23.01 -36.05 -45.07 -4.03 -2.052 0 -19.05 -26.01 -1.026 -1.026
2.435 -11.06 -29.02 -61.04 -65.07 -9.013 -15.02 -33.05 -41.04 -49.02 -13.04 -9.013 -11.06 -15.02 -25.06 -7.035 -5.056
2.44 -21.03 -49.02 -73.06 -71.01 -20 -28.07 -50.05 -50.05 -50.05 -20 -19.05 -25.06 -20 -28.07 -12.02 -8.061
2.445 -29.02 -63.02 -83.02 -79.07 -28.07 -40.01 -70.05 -66.02 -45.07 -28.07 -31.07 -44.04 -32.02 -36.05 -13.04 -11.06
2.45 -37.01 -73.06 -87.05 -87.05 -33.05 -49.02 -83.02 -79.07 -37.01 -33.05 -35.03 -55.03 -47.04 -47.04 -9.013 -7.035
2.455 -35.03 -72.03 -85 -88.01 -32.02 -46.02 -82.07 -83.02 -29.02 -29.02 -26.01 -50.05 -49.02 -49.02 0.9526 1.979
2.46 -33.05 -64.04 -79.07 -84.05 -26.01 -40.01 -72.03 -75.04 -26.01 -16.05 -6.009 -31.07 -41.04 -41.04 17.95 12.97
2.465 -29.02 -57.01 -69.03 -79.07 -19.05 -29.02 -55.03 -59.06 -25.06 -3.004 1.979 -13.04 -27.04 -31.07 27.99 15.97
2.47 -17 -48.07 -59.06 -64.04 -11.06 -21.03 -39.06 -42.06 -18.03 0.9526 10.99 1.979 -15.02 -23.01 27.99 16.93
2.475 -3.004 -40.01 -47.04 -54.01 -7.035 -15.02 -29.02 -26.01 -8.061 0.9526 3.957 0 -8.061 -16.05 14.95 6.961
2.48 2.931 -31.07 -37.01 -43.01 -3.004 -11.06 -25.06 -17 0.9526 -5.056 0.9526 0 -7.035 -11.06 1.979 0.9526
2.485 4.983 -27.04 -31.07 -41.04 -1.026 -9.013 -23.01 -12.02 0.9526 -7.035 -5.056 -1.026 -5.056 -6.009 -2.052 -5.056
2.49 -1.026 -27.04 -31.07 -43.01 -1.026 -7.035 -21.03 -13.04 -11.06 -7.035 -5.056 0 -5.056 -13.04 0 -9.013
2.495 -9.013 -35.03 -35.03 -51 -3.004 -7.035 -21.03 -17 -27.04 -7.035 -1.026 -3.004 -9.013 -19.05 3.957 -9.013
2.5 -21.03 -47.04 -45.07 -59.06 -5.056 -9.013 -23.01 -23.01 -39.06 0.9526 -3.004 -11.06 -11.06 -21.03 15.97 -11.06
2.505 -29.02 -57.01 -53.05 -65.07 -9.013 -17 -31.07 -35.03 -39.06 3.957 -17 -27.04 -21.03 -23.01 17.95 -17
2.51 -33.05 -63.02 -59.06 -67.05 -15.02 -27.04 -43.01 -47.04 -29.02 4.983 -39.06 -51 -35.03 -27.04 9.966 -27.04
2.515 -31.07 -63.02 -59.06 -65.07 -21.03 -37.01 -57.01 -59.06 -21.03 0 -57.01 -73.06 -47.04 -27.04 -1.026 -33.05
2.52 -29.02 -59.06 -57.01 -59.06 -27.04 -45.07 -65.07 -63.02 -15.02 1.979 -63.02 -79.07 -42.06 -18.03 -11.06 -31.07
2.525 -27.04 -55.03 -53.05 -51 -31.07 -47.04 -63.02 -53.05 -13.04 1.979 -49.02 -65.07 -26.01 -2.052 -4.03 -13.04
2.53 -25.06 -53.05 -43.01 -41.04 -31.07 -41.04 -51 -37.01 -13.04 0.9526 -25.06 -41.04 -1.026 5.936 5.936 1.979
2.535 -23.01 -53.05 -33.05 -31.07 -27.04 -35.03 -33.05 -14.07 -7.035 0 0.9526 -18.03 16.93 18.98 26.97 22.94
2.54 -23.01 -47.04 -21.03 -21.03 -21.03 -25.06 -17 2.931 0.9526 -2.052 3.957 -2.052 33.93 26.97 36.93 34.95
2.545 -21.03 -35.03 -9.013 -11.06 -15.02 -19.05 -7.035 14 9.966 -2.052 -2.052 -7.035 31.95 23.96 29.97 29.97
2.55 -21.03 -21.03 -1.026 -5.056 -13.04 -17 -5.056 12.97 12.97 -2.052 -16.05 -20 15.97 11.94 10.99 16.93
2.555 -23.01 -7.035 -2.052 -5.056 -15.02 -15.02 -3.004 4.983 8.94 -9.013 -32.02 -34 0 -1.026 -3.004 0.9526
2.56 -23.01 0 0 -7.035 -17 -17 -3.004 0.9526 0 -13.04 -41.04 -43.01 -15.02 -15.02 -17 -9.013
2.565 -23.01 3.957 -2.052 -9.013 -15.02 -15.02 -1.026 -4.03 0 -8.061 -36.05 -37.01 -23.01 -26.01 -27.04 -21.03
2.57 -21.03 3.957 -3.004 -11.06 -11.06 -9.013 2.931 -1.026 -4.03 -5.056 -26.01 -31.07 -32.02 -38.03 -32.02 -39.06
2.575 -15.02 3.957 -5.056 -15.02 -1.026 -3.004 5.936 -1.026 -5.056 -1.026 -17 -29.02 -39.06 -45.07 -39.06 -61.04
2.58 -5.056 3.957 -8.061 -19.05 1.979 0 8.94 0 -11.06 1.979 -9.013 -26.01 -37.01 -39.06 -41.04 -70.05
2.585 -1.026 7.987 -8.061 -21.03 5.936 7.987 10.99 6.961 -19.05 0.9526 -3.004 -24.04 -27.04 -28.07 -38.03 -64.04
2.59 4.983 14 -7.035 -21.03 11.94 17.95 14 11.94 -25.06 1.979 0 -17 -13.04 -15.02 -25.06 -43.01
2.595 12.97 19.93 -2.052 -24.04 17.95 23.96 25.94 17.95 -23.01 5.936 14.95 -2.052 9.966 1.979 0 -2.052
2.6 16.93 25.94 -4.03 -24.04 21.98 31.95 31.95 22.94 -16.05 16.93 31.95 17.95 36.93 14 24.99 35.98
2.605 22.94 27.99 -5.056 -29.02 27.99 37.96 35.98 23.96 -5.056 29.97 48 35.98 53.93 23.96 49.98 67.93
2.61 26.97 28.94 -8.061 -27.04 31.95 37.96 33.93 22.94 0 40.96 56.94 44.99 52.98 16.93 63.97 76.94
2.615 28.94 25.94 -9.013 -26.01 29.97 35.98 26.97 15.97 -1.026 42.94 56.94 39.94 39.94 4.983 66.98 63.97
2.62 28.94 15.97 -6.009 -17 25.94 27.99 20.96 10.99 -9.013 38.98 44.99 33.93 22.94 0.9526 56.94 41.99
2.625 18.98 5.936 -1.026 -10.04 17.95 19.93 12.97 7.987 -13.04 28.94 28.94 17.95 11.94 -4.03 36.93 17.95
2.63 8.94 0 -2.052 -7.035 7.987 7.987 5.936 4.983 -15.02 10.99 10.99 6.961 4.983 -6.009 15.97 2.931
2.635 -3.004 -9.013 -9.013 -15.02 0 -2.052 -2.052 0 -9.013 -3.004 0.9526 -1.026 3.957 -3.004 -2.052 -2.052
2.64 -9.013 -15.02 -22.06 -28.07 -5.056 -7.035 -11.06 -4.03 -4.03 -10.04 -7.035 -11.06 6.961 0.9526 -8.061 0
2.645 -13.04 -19.05 -36.05 -44.04 -9.013 -11.06 -23.01 -15.02 -1.026 -9.013 -12.02 -20 0 0.9526 -12.02 -1.026
2.65 -15.02 -19.05 -45.07 -59.06 -9.013 -13.04 -35.03 -29.02 -5.056 -3.004 -15.02 -31.07 -13.04 -17 -15.02 -5.056
2.655 -7.035 -19.05 -42.06 -59.06 -7.035 -9.013 -34 -32.02 0.9526 4.983 -17 -36.05 -29.02 -30.04 -20 -18.03
2.66 -1.026 -13.04 -30.04 -51 -1.026 -3.004 -24.04 -25.06 9.966 16.93 -13.04 -34 -37.01 -33.05 -23.01 -30.04
2.665 0.9526 -7.035 -15.02 -33.05 1.979 0 -11.06 -7.035 29.97 25.94 -13.04 -29.02 -29.02 -19.05 -31.07 -35.03
2.67 0.9526 0.9526 -1.026 -15.02 5.936 3.957 -1.026 9.966 42.94 25.94 -4.03 -15.02 -8.061 -1.026 -28.07 -23.01
2.675 -3.004 3.957 0 -5.056 5.936 5.936 8.94 24.99 40.96 18.98 2.931 0.9526 14 28.94 -21.03 -5.056
2.68 -11.06 3.957 0.9526 -5.056 1.979 3.957 11.94 35.98 25.94 17.95 15.97 11.94 37.96 49.98 0.9526 17.95
2.685 -19.05 -2.052 -7.035 -9.013 -2.052 1.979 9.966 36.93 6.961 23.96 28.94 26.97 56.94 59.94 15.97 44.99
2.69 -23.01 -7.035 -11.06 -19.05 -1.026 0 9.966 31 -2.052 24.99 31 34.95 59.94 48 28.94 60.97
2.695 -21.03 -11.06 -13.04 -23.01 -1.026 0 9.966 21.98 -7.035 25.94 19.93 29.97 48 23.96 29.97 61.99
2.7 -19.05 -13.04 -9.013 -21.03 -1.026 0 5.936 14.95 -2.052 21.98 0 12.97 27.99 6.961 24.99 46.97
2.705 -17 -5.056 -3.004 -15.02 -3.004 -1.026 3.957 6.961 -2.052 9.966 -19.05 -8.061 1.979 -8.061 8.94 14.95
2.71 -19.05 -1.026 0.9526 -7.035 -9.013 -9.013 -2.052 -1.026 -2.052 -7.035 -41.04 -39.06 -37.01 -29.02 -11.06 -23.01
2.715 -23.01 -1.026 -1.026 -3.004 -17 -19.05 -5.056 -11.06 -3.004 -26.01 -57.01 -63.02 -64.04 -44.04 -30.04 -59.06
2.72 -27.04 -9.013 -9.013 -5.056 -23.01 -25.06 -11.06 -15.02 -9.013 -28.07 -61.04 -69.03 -72.03 -46.02 -39.06 -77.02
2.725 -29.02 -19.05 -17 -13.04 -23.01 -25.06 -13.04 -13.04 -15.02 -13.04 -55.03 -59.06 -63.02 -31.07 -35.03 -73.06
2.73 -25.06 -27.04 -23.01 -19.05 -15.02 -19.05 -9.013 0.9526 -15.02 2.931 -37.01 -39.06 -37.01 -7.035 -15.02 -47.04
2.735 -19.05 -27.04 -21.03 -21.03 -7.035 -7.035 -2.052 11.94 -7.035 21.98 -13.04 -11.06 -1.026 15.97 5.936 -11.06
2.74 -15.02 -21.03 -15.02 -15.02 0.9526 -2.052 9.966 25.94 0.9526 31.95 5.936 9.966 21.98 35.98 27.99 14
2.745 -17 -15.02 -7.035 -7.035 -2.052 3.957 19.93 27.99 1.979 29.97 19.93 21.98 35.98 37.96 37.96 33.93
2.75 -25.06 -9.013 -3.004 -1.026 -1.026 3.957 21.98 17.95 0 16.93 23.96 22.94 31 19.93 37.96 41.99
2.755 -33.05 -7.035 -3.004 -2.052 -5.056 0 17.95 5.936 -4.03 1.979 19.93 18.98 19.93 1.979 32.98 48
2.76 -33.05 -3.004 -1.026 -2.052 -5.056 0 17.95 1.979 -17 -3.004 19.93 19.93 14 -7.035 31.95 55.98
2.765 -23.01 3.957 0.9526 1.979 -2.052 5.936 25.94 14.95 -24.04 -1.026 23.96 31.95 22.94 0 42.94 67.93
2.77 0.9526 25.94 3.957 0.9526 7.987 17.95 41.99 36.93 -22.06 7.987 33.93 41.99 37.96 7.987 54.96 76.94
2.775 18.98 51.95 15.97 5.936 19.93 31.95 61.99 55.98 -17 14 39.94 51.95 48 17.95 57.96 73.94
2.78 38.98 78.99 27.99 14.95 27.99 42.94 76.94 69.98 -3.004 15.97 42.94 52.98 51.95 24.99 49.98 60.97
2.785 50.93 94.97 36.93 20.96 34.95 48.95 78.99 63.97 -1.026 16.93 34.95 39.94 34.95 18.98 27.99 34.95
2.79 54.96 99.95 37.96 23.96 33.93 48 67.93 45.95 -1.026 11.94 23.96 14 5.936 3.957 0 3.957
2.795 56.94 96.95 36.93 19.93 34.95 46.97 48.95 28.94 0 14.95 14.95 -3.004 -15.02 -8.061 -14.07 -13.04
2.8 62.95 88.96 32.98 14 32.98 46.97 32.98 18.98 -1.026 23.96 10.99 -17 -33.05 -17 -22.06 -29.02
2.805 56.94 77.97 25.94 9.966 31.95 39.94 21.98 15.97 5.936 33.93 7.987 -19.05 -37.01 -21.03 -23.01 -39.06
2.81 48.95 72.98 22.94 8.94 28.94 35.98 25.94 19.93 12.97 35.98 6.961 -14.07 -27.04 -16.05 -16.05 -37.01
2.815 34.95 67.93 22.94 14 21.98 25.94 35.98 32.98 21.98 23.96 3.957 0 -6.009 -10.04 -10.04 -24.04
2.82 20.96 57.96 25.94 19.93 15.97 17.95 43.97 43.97 25.94 14 -2.052 5.936 11.94 3.957 -5.056 -5.056
2.825 12.97 53.93 35.98 29.97 9.966 20.96 52.98 54.96 33.93 6.961 -2.052 18.98 32.98 22.94 0 14
2.83 8.94 48.95 42.94 34.95 12.97 23.96 52.98 57.96 38.98 5.936 6.961 25.94 45.95 32.98 2.931 34.95
2.835 12.97 41.99 39.94 33.93 14 25.94 45.95 55.98 43.97 9.966 17.95 23.96 49.98 37.96 7.987 45.95
2.84 16.93 37.96 35.98 31.95 17.95 29.97 36.93 52.98 51.95 19.93 29.97 24.99 51.95 40.96 11.94 50.93
2.845 18.98 34.95 26.97 28.94 16.93 26.97 29.97 41.99 55.98 28.94 35.98 17.95 48 39.94 9.966 43.97
2.85 20.96 35.98 19.93 25.94 9.966 19.93 19.93 27.99 51.95 25.94 23.96 7.987 29.97 25.94 0 21.98
2.855 22.94 38.98 15.97 26.97 4.983 8.94 14 14 43.97 15.97 7.987 -3.004 8.94 10.99 -10.04 1.979
2.86 22.94 40.96 14 27.99 1.979 1.979 6.961 0.9526 31.95 2.931 -13.04 -27.04 -8.061 1.979 -28.07 -27.04
2.865 20.96 37.96 8.94 25.94 -3.004 -10.04 -3.004 -15.02 15.97 0.9526 -36.05 -46.02 -30.04 -9.013 -44.04 -57.01
2.87 18.98 31 0 11.94 -4.03 -14.07 -14.07 -29.02 3.957 -2.052 -43.01 -61.04 -48.07 -26.01 -48.07 -69.03
2.875 16.93 26.97 -5.056 -1.026 0 -10.04 -19.05 -35.03 -5.056 0 -35.03 -59.06 -50.05 -34 -40.01 -65.07
2.88 20.96 25.94 -13.04 -13.04 5.936 0 -7.035 -29.02 -17 21.98 -11.06 -41.04 -35.03 -33.05 -17 -43.01
2.885 31 32.98 -14.07 -16.05 14.95 16.93 5.936 -13.04 -23.01 46.97 15.97 -9.013 -7.035 -19.05 3.957 -7.035
2.89 36.93 35.98 -9.013 -13.04 21.98 29.97 22.94 4.983 -27.04 51.95 33.93 20.96 17.95 -6.009 21.98 24.99
2.895 31 31.95 -5.056 -3.004 15.97 25.94 29.97 17.95 -21.03 43.97 37.96 37.96 45.95 3.957 25.94 53.93
2.9 12.97 22.94 -2.052 0.9526 4.983 15.97 24.99 19.93 -8.061 19.93 24.99 41.99 59.94 18.98 20.96 70.93
2.905 -1.026 5.936 -11.06 0 -5.056 -2.052 10.99 6.961 3.957 1.979 0 26.97 54.96 18.98 11.94 69.98
2.91 -17 0.9526 -21.03 -7.035 -15.02 -17 -1.026 -9.013 9.966 -17 -15.02 1.979 29.97 3.957 0 53.93
2.915 -15.02 1.979 -26.01 -15.02 -9.013 -17 -5.056 -22.06 14 -17 -19.05 -10.04 2.931 -10.04 1.979 28.94
2.92 -1.026 8.94 -26.01 -20 0 -3.004 -1.026 -23.01 4.983 0 -10.04 -14.07 -11.06 -26.01 1.979 1.979
2.925 12.97 27.99 -11.06 -13.04 7.987 11.94 9.966 -7.035 0.9526 17.95 5.936 -3.004 -13.04 -27.04 1.979 -13.04
2.93 32.98 48.95 2.931 0.9526 22.94 34.95 32.98 14.95 -8.061 33.93 31 14 -1.026 -17 6.961 -13.04
2.935 42.94 65 18.98 11.94 28.94 48.95 48.95 34.95 -8.061 42.94 46.97 35.98 14 -4.03 8.94 -5.056
2.94 44.99 69.98 27.99 19.93 29.97 48 48 39.94 -3.004 41.99 45.95 41.99 25.94 3.957 9.966 -2.052
2.945 44.99 70.93 26.97 22.94 24.99 38.98 40.96 31.95 1.979 38.98 28.94 29.97 24.99 2.931 5.936 0
2.95 38.98 65 17.95 16.93 17.95 28.94 24.99 9.966 7.987 29.97 4.983 0.9526 1.979 -8.061 -3.004 -22.06
2.955 34.95 53.93 9.966 11.94 14 17.95 7.987 -5.056 7.987 21.98 -11.06 -23.01 -21.03 -27.04 -23.01 -55.03
2.96 31 48 7.987 8.94 14 19.93 3.957 -8.061 8.94 21.98 -17 -31.07 -31.07 -29.02 -34 -76.06
2.965 34.95 48 14 12.97 19.93 27.99 15.97 0.9526 8.94 28.94 -3.004 -17 -24.04 -22.06 -32.02 -79.07
2.97 42.94 51.95 19.93 19.93 27.99 41.99 37.96 21.98 7.987 33.93 17.95 7.987 0.9526 -7.035 -23.01 -55.03
2.975 44.99 55.98 25.94 27.99 31.95 49.98 59.94 43.97 10.99 37.96 41.99 44.99 31.95 6.961 -2.052 -13.04
2.98 36.93 48 25.94 31.95 29.97 48 69.98 57.96 11.94 34.95 49.98 70.93 60.97 23.96 7.987 27.99
2.985 14.95 25.94 15.97 27.99 17.95 33.93 59.94 53.93 15.97 25.94 39.94 69.98 73.94 35.98 17.95 57.96
2.99 -9.013 -1.026 0 19.93 0 11.94 33.93 37.96 17.95 11.94 15.97 51.95 67.93 35.98 17.95 71.96
2.995 -29.02 -31.07 -9.013 7.987 -11.06 -3.004 5.936 15.97 21.98 2.931 -1.026 23.96 48 29.97 14 63.97
3 -33.05 -49.02 -15.02 1.979 -17 -13.04 -5.056 -2.052 27.99 2.931 -13.04 1.979 25.94 23.96 3.957 41.99
3.005 -21.03 -43.01 -11.06 3.957 -13.04 -11.06 -5.056 -5.056 31.95 9.966 -11.06 -3.004 5.936 9.966 0.9526 7.987
3.01 0.9526 -23.01 -2.052 17.95 -1.026 -2.052 1.979 -3.004 35.98 20.96 -1.026 -13.04 -9.013 0.9526 -9.013 -21.03
3.015 14.95 0 17.95 35.98 3.957 11.94 19.93 0 31.95 25.94 1.979 -13.04 -20 -9.013 -17 -51
3.02 22.94 17.95 33.93 49.98 11.94 21.98 31.95 14 25.94 29.97 7.987 -9.013 -19.05 -5.056 -19.05 -63.02
3.025 16.93 21.98 39.94 53.93 14 25.94 35.98 25.94 14 31 11.94 0.9526 -8.061 5.936 -15.02 -57.01
3.03 4.983 11.94 33.93 51.95 11.94 23.96 31.95 33.93 1.979 31 17.95 5.936 0.9526 17.95 -5.056 -35.03
3.035 -7.035 -5.056 23.96 41.99 5.936 17.95 21.98 35.98 -1.026 25.94 23.96 17.95 14 25.94 1.979 -7.035
3.04 -19.05 -23.01 11.94 29.97 0 7.987 11.94 31.95 -4.03 18.98 23.96 25.94 26.97 26.97 9.966 12.97
3.045 -29.02 -32.02 1.979 19.93 -3.004 0.9526 0 22.94 -2.052 5.936 17.95 25.94 31.95 26.97 11.94 31
3.05 -33.05 -29.02 1.979 14 -7.035 -9.013 -3.004 11.94 -2.052 -7.035 7.987 19.93 27.99 17.95 7.987 35.98
3.055 -23.01 -14.07 5.936 9.966 -8.061 -14.07 -7.035 4.983 4.983 -17 -2.052 14 23.96 18.98 5.936 40.96
3.06 -5.056 1.979 11.94 15.97 -4.03 -10.04 0.9526 4.983 16.93 -16.05 -2.052 15.97 29.97 31 9.966 44.99
3.065 6.961 9.966 17.95 23.96 -2.052 -1.026 7.987 9.966 25.94 -3.004 3.957 27.99 33.93 39.94 19.93 43.97
3.07 24.99 14.95 20.96 29.97 10.99 10.99 20.96 16.93 29.97 10.99 17.95 41.99 36.93 40.96 26.97 43.97
3.075 24.99 8.94 18.98 31.95 20.96 20.96 20.96 19.93 25.94 24.99 27.99 48 31.95 35.98 31 37.96
3.08 18.98 0.9526 11.94 27.99 21.98 23.96 11.94 14 14 27.99 33.93 48 25.94 25.94 31.95 29.97
3.085 4.983 -7.035 2.931 22.94 19.93 17.95 1.979 9.966 0.9526 26.97 31.95 39.94 17.95 20.96 32.98 28.94
3.09 -3.004 -12.02 1.979 12.97 9.966 10.99 -8.061 4.983 -5.056 15.97 23.96 25.94 9.966 14.95 33.93 27.99
3.095 -9.013 -13.04 -5.056 3.957 3.957 1.979 -13.04 -2.052 -13.04 1.979 15.97 11.94 0 5.936 31.95 19.93
3.1 -7.035 -7.035 -4.03 0 0.9526 -1.026 -11.06 -3.004 -7.035 0 6.961 3.957 -1.026 1.979 31 8.94
3.105 0.9526 1.979 0.9526 1.979 1.979 -1.026 0 -5.056 0.9526 -1.026 4.983 -1.026 -4.03 -5.056 25.94 -8.061
3.11 2.931 9.966 2.931 6.961 9.966 10.99 9.966 -4.03 2.931 4.983 8.94 2.931 -9.013 -14.07 25.94 -29.02
3.115 10.99 27.99 14 15.97 19.93 24.99 20.96 0 3.957 14.95 20.96 12.97 -4.03 -13.04 27.99 -38.03
3.12 20.96 41.99 28.94 25.94 32.98 42.94 35.98 17.95 1.979 31.95 38.98 29.97 7.987 4.983 38.98 -24.04
3.125 28.94 49.98 37.96 31.95 37.96 53.93 45.95 33.93 -1.026 45.95 51.95 49.98 29.97 31.95 53.93 -2.052
3.13 32.98 52.98 42.94 36.93 39.94 56.94 46.97 46.97 -3.004 49.98 55.98 59.94 51.95 52.98 61.99 33.93
3.135 31 43.97 36.93 34.95 31.95 41.99 40.96 45.95 -6.009 38.98 43.97 57.96 57.96 62.95 54.96 62.95
3.14 18.98 33.93 27.99 29.97 15.97 23.96 25.94 33.93 -7.035 21.98 21.98 45.95 61.99 59.94 37.96 82
3.145 2.931 24.99 22.94 25.94 4.983 8.94 18.98 23.96 -3.004 6.961 3.957 37.96 55.98 51.95 20.96 91.96
3.15 -3.004 24.99 20.96 23.96 0.9526 4.983 18.98 14.95 -1.026 0 0 33.93 48.95 38.98 8.94 85.96
3.155 -3.004 31.95 23.96 23.96 5.936 11.94 25.94 11.94 0 -3.004 5.936 39.94 39.94 29.97 7.987 67.93
3.16 2.931 38.98 31.95 25.94 16.93 26.97 35.98 16.93 4.983 -1.026 19.93 45.95 31.95 26.97 9.966 42.94
3.165 20.96 44.99 39.94 31.95 26.97 36.93 39.94 20.96 8.94 5.936 25.94 43.97 19.93 20.96 7.987 6.961
3.17 36.93 49.98 45.95 39.94 27.99 37.96 31.95 19.93 11.94 5.936 25.94 31.95 3.957 7.987 1.979 -23.01
3.175 46.97 54.96 49.98 51.95 25.94 31.95 23.96 22.94 14.95 3.957 19.93 19.93 -1.026 0.9526 -1.026 -46.02
3.18 48.95 55.98 49.98 59.94 21.98 25.94 19.93 27.99 20.96 4.983 19.93 15.97 0 6.961 -3.004 -50.05
3.185 48.95 55.98 51.95 63.97 19.93 25.94 25.94 37.96 25.94 14 23.96 21.98 5.936 21.98 0 -37.01
3.19 44.99 53.93 49.98 57.96 21.98 31.95 35.98 48 27.99 24.99 31.95 33.93 24.99 37.96 11.94 -13.04
3.195 40.96 49.98 41.99 48 25.94 35.98 41.99 49.98 21.98 34.95 39.94 41.99 36.93 45.95 21.98 3.957
3.2 36.93 41.99 31.95 33.93 23.96 31.95 31.95 39.94 14 39.94 33.93 41.99 39.94 45.95 23.96 15.97
3.205 28.94 31.95 19.93 23.96 17.95 19.93 9.966 21.98 5.936 37.96 21.98 25.94 31 35.98 17.95 17.95
3.21 20.96 23.96 7.987 17.95 7.987 3.957 -7.035 0 1.979 28.94 9.966 9.966 15.97 19.93 11.94 21.98
3.215 12.97 15.97 1.979 15.97 1.979 0.9526 -19.05 -7.035 5.936 17.95 5.936 1.979 9.966 15.97 21.98 31.95
3.22 6.961 15.97 3.957 17.95 0 0.9526 -13.04 -5.056 15.97 20.96 14 14 17.95 25.94 43.97 49.98
3.225 4.983 21.98 9.966 21.98 3.957 3.957 0.9526 1.979 21.98 26.97 27.99 31.95 35.98 45.95 71.96 71.96
3.23 4.983 29.97 17.95 21.98 5.936 7.987 9.966 15.97 23.96 25.94 35.98 48 48 57.96 83.98 85.96
3.235 2.931 33.93 19.93 21.98 1.979 3.957 9.966 17.95 17.95 17.95 31.95 51.95 49.98 59.94 73.94 82
3.24 -1.026 31.95 17.95 21.98 -5.056 -5.056 -3.004 5.936 15.97 2.931 11.94 40.96 39.94 49.98 44.99 61.99
3.245 -5.056 19.93 9.966 17.95 -17 -23.01 -27.04 -12.02 15.97 -9.013 -7.035 14.95 15.97 32.98 6.961 31
3.25 -11.06 3.957 1.979 15.97 -25.06 -35.03 -47.04 -37.01 17.95 -23.01 -27.04 -9.013 -9.013 5.936 -19.05 0.9526
3.255 -13.04 -1.026 0 11.94 -25.06 -37.01 -55.03 -52.03 20.96 -26.01 -34 -29.02 -32.02 -6.009 -30.04 -26.01
3.26 -9.013 -3.004 0 6.961 -19.05 -27.04 -50.05 -56.06 20.96 -17 -32.02 -40.01 -45.07 -19.05 -26.01 -48.07
3.265 -3.004 0 1.979 3.957 -9.013 -15.02 -41.04 -47.04 17.95 -5.056 -27.04 -41.04 -49.02 -25.06 -13.04 -67.05
3.27 -1.026 6.961 3.957 4.983 -1.026 -7.035 -32.02 -37.01 14.95 -1.026 -22.06 -37.01 -55.03 -32.02 -7.035 -79.07
3.275 -1.026 8.94 5.936 12.97 0.9526 -4.03 -28.07 -29.02 14 0 -24.04 -36.05 -55.03 -36.05 -8.061 -91.01
3.28 0.9526 5.936 7.987 19.93 -1.026 -7.035 -31.07 -19.05 7.987 -5.056 -31.07 -31.07 -47.04 -27.04 -19.05 -87.05
3.285 -3.004 -1.026 12.97 29.97 -4.03 -14.07 -30.04 -10.04 1.979 -10.04 -33.05 -26.01 -30.04 -7.035 -29.02 -68
3.29 -9.013 -6.009 12.97 31.95 -8.061 -20 -25.06 -3.004 1.979 -18.03 -33.05 -19.05 -10.04 4.983 -34 -37.01
3.295 -15.02 -11.06 11.94 21.98 -17 -25.06 -25.06 -1.026 -9.013 -27.04 -29.02 -17 1.979 15.97 -25.06 -5.056
3.3 -19.05 -9.013 4.983 8.94 -18.03 -24.04 -21.03 -2.052 -13.04 -27.04 -18.03 -12.02 14 25.94 -5.056 18.98
3.305 -21.03 -11.06 0 1.979 -20 -24.04 -22.06 -11.06 -16.05 -24.04 -12.02 -10.04 20.96 24.99 16.93 39.94
3.31 -21.03 -9.013 -7.035 -5.056 -21.03 -27.04 -29.02 -27.04 -13.04 -23.01 -13.04 -13.04 9.966 14 35.98 45.95
3.315 -19.05 -4.03 -7.035 -3.004 -17 -27.04 -33.05 -42.06 -13.04 -24.04 -12.02 -17 0.9526 -1.026 39.94 41.99
3.32 -19.05 -1.026 -7.035 -1.026 -21.03 -33.05 -43.01 -54.01 -7.035 -25.06 -17 -20 -13.04 -3.004 27.99 31.95
3.325 -17 -5.056 -7.035 3.957 -27.04 -37.01 -47.04 -63.02 -13.04 -25.06 -25.06 -23.01 -27.04 -9.013 5.936 11.94
3.33 -15.02 -8.061 -10.04 7.987 -26.01 -35.03 -44.04 -63.02 -18.03 -25.06 -25.06 -21.03 -31.07 -13.04 -6.009 -4.03
3.335 -13.04 -10.04 -13.04 1.979 -21.03 -28.07 -38.03 -54.01 -26.01 -22.06 -20 -15.02 -30.04 -7.035 -13.04 -22.06
3.34 -7.035 -11.06 -15.02 -2.052 -15.02 -15.02 -29.02 -41.04 -29.02 -15.02 -15.02 -11.06 -25.06 0.9526 -7.035 -35.03
3.345 -1.026 -5.056 -9.013 -2.052 -4.03 -3.004 -19.05 -26.01 -26.01 -2.052 -10.04 -9.013 -17 5.936 0.9526 -40.01
3.35 0.9526 0 -1.026 4.983 1.979 -1.026 -12.02 -18.03 -13.04 0.9526 -15.02 -17 -23.01 0.9526 -4.03 -48.07
3.355 4.983 -1.026 9.966 12.97 1.979 -5.056 -15.02 -14.07 0 -6.009 -28.07 -32.02 -36.05 -7.035 -26.01 -64.04
3.36 6.961 2.931 16.93 20.96 -6.009 -15.02 -24.04 -14.07 9.966 -15.02 -43.01 -49.02 -49.02 -18.03 -56.06 -84.05
3.365 6.961 5.936 17.95 21.98 -14.07 -19.05 -29.02 -18.03 20.96 -20 -52.03 -55.03 -57.01 -27.04 -81.05 -96.07
3.37 8.94 9.966 17.95 21.98 -15.02 -19.05 -27.04 -19.05 15.97 -19.05 -47.04 -53.05 -57.01 -31.07 -87.05 -95.04
3.375 14.95 18.98 14 25.94 -9.013 -8.061 -18.03 -16.05 2.931 -12.02 -28.07 -31.07 -42.06 -23.01 -69.03 -72.03
3.38 14.95 20.96 14.95 27.99 -2.052 0.9526 -8.061 -11.06 -10.04 0.9526 -4.03 -3.004 -13.04 -5.056 -36.05 -32.02
3.385 6.961 14 15.97 25.94 -3.004 0.9526 -5.056 -3.004 -27.04 3.957 9.966 15.97 5.936 9.966 -1.026 7.987
3.39 -1.026 5.936 17.95 24.99 -5.056 -5.056 -4.03 1.979 -31.07 0.9526 21.98 32.98 25.94 23.96 23.96 48
3.395 -9.013 -2.052 17.95 19.93 -13.04 -15.02 -5.056 -1.026 -27.04 -8.061 14.95 35.98 35.98 31 35.98 65.95
3.4 -17 -13.04 9.966 9.966 -21.03 -23.01 -13.04 0.9526 -11.06 -21.03 0 23.96 29.97 29.97 31.95 65.95
3.405 -15.02 -15.02 0.9526 -1.026 -24.04 -28.07 -20 -9.013 1.979 -30.04 -16.05 4.983 14.95 24.99 16.93 53.93
3.41 -9.013 -13.04 -8.061 -6.009 -24.04 -28.07 -27.04 -26.01 0 -37.01 -34 -16.05 -5.056 7.987 -3.004 24.99
3.415 -5.056 -17 -21.03 -15.02 -21.03 -27.04 -33.05 -41.04 -1.026 -39.06 -45.07 -37.01 -29.02 -3.004 -23.01 -1.026
3.42 -1.026 -20 -26.01 -17 -16.05 -22.06 -33.05 -49.02 -10.04 -26.01 -45.07 -43.01 -42.06 -12.02 -32.02 -21.03
3.425 0.9526 -20 -26.01 -21.03 -10.04 -14.07 -32.02 -46.02 -25.06 -6.009 -37.01 -42.06 -46.02 -15.02 -31.07 -38.03
3.43 0.9526 -17 -21.03 -27.04 -1.026 -9.013 -21.03 -35.03 -37.01 5.936 -29.02 -35.03 -47.04 -21.03 -29.02 -49.02
3.435 4.983 -2.052 -11.06 -26.01 5.936 -1.026 -10.04 -17 -43.01 22.94 -20 -22.06 -41.04 -24.04 -24.04 -53.05
3.44 14.95 6.961 0.9526 -22.06 14 5.936 1.979 0.9526 -44.04 31.95 -12.02 -11.06 -39.06 -26.01 -27.04 -57.01
3.445 22.94 19.93 3.957 -19.05 15.97 9.966 0 5.936 -37.01 33.93 -13.04 -3.004 -35.03 -27.04 -33.05 -65.07
3.45 28.94 25.94 14 -8.061 14 9.966 4.983 12.97 -18.03 27.99 -6.009 -1.026 -31.07 -25.06 -32.02 -64.04
3.455 28.94 29.97 21.98 -2.052 11.94 11.94 7.987 12.97 0.9526 22.94 1.979 7.987 -22.06 -18.03 -18.03 -58.04
3.46 26.97 31.95 27.99 5.936 11.94 15.97 15.97 17.95 23.96 23.96 9.966 23.96 -11.06 -9.013 -2.052 -39.06
3.465 22.94 33.93 31.95 9.966 11.94 17.95 21.98 24.99 33.93 29.97 21.98 34.95 -1.026 0 20.96 -12.02
3.47 16.93 29.97 27.99 5.936 11.94 17.95 23.96 25.94 25.94 24.99 23.96 34.95 1.979 -3.004 34.95 11.94
3.475 4.983 17.95 11.94 -1.026 1.979 5.936 15.97 19.93 5.936 5.936 11.94 23.96 -2.052 -9.013 33.93 33.93
3.48 -9.013 0 -5.056 -19.05 -11.06 -11.06 -2.052 1.979 -13.04 -17 -9.013 3.957 -1.026 -9.013 17.95 41.99
3.485 -31.07 -17 -27.04 -35.03 -33.05 -37.01 -21.03 -19.05 -25.06 -42.06 -39.06 -13.04 -9.013 -7.035 0.9526 37.96
3.49 -53.05 -37.01 -41.04 -45.07 -49.02 -57.01 -41.04 -43.01 -23.01 -60.01 -63.02 -31.07 -21.03 -5.056 -25.06 23.96
3.495 -65.07 -49.02 -47.04 -45.07 -53.05 -65.07 -51 -57.01 -7.035 -61.04 -71.01 -43.01 -29.02 -3.004 -43.01 9.966
3.5 -69.03 -55.03 -43.01 -39.06 -47.04 -59.06 -49.02 -55.03 5.936 -39.06 -63.02 -37.01 -27.04 -1.026 -49.02 0
3.505 -61.04 -55.03 -37.01 -35.03 -35.03 -43.01 -41.04 -41.04 19.93 -11.06 -39.06 -21.03 -19.05 -2.052 -41.04 0.9526
3.51 -49.02 -55.03 -33.05 -33.05 -23.01 -27.04 -29.02 -27.04 23.96 0 -15.02 0.9526 -7.035 -1.026 -25.06 -2.052
3.515 -39.06 -59.06 -35.03 -35.03 -17 -19.05 -21.03 -17 15.97 4.983 0 15.97 -1.026 -3.004 -9.013 -2.052
3.52 -33.05 -59.06 -41.04 -43.01 -15.02 -15.02 -19.05 -13.04 9.966 0.9526 9.966 25.94 4.983 -1.026 0 -3.004
3.525 -29.02 -63.02 -45.07 -47.04 -15.02 -15.02 -19.05 -15.02 0 -2.052 9.966 27.99 -2.052 -3.004 3.957 -15.02
3.53 -27.04 -61.04 -47.04 -47.04 -13.04 -13.04 -21.03 -21.03 -3.004 0 5.936 15.97 -8.061 -13.04 0 -29.02
3.535 -29.02 -57.01 -45.07 -47.04 -11.06 -13.04 -21.03 -25.06 -11.06 -5.056 3.957 3.957 -18.03 -25.06 -2.052 -39.06
3.54 -33.05 -51 -39.06 -43.01 -11.06 -13.04 -21.03 -25.06 -15.02 -11.06 -2.052 -5.056 -23.01 -33.05 0.9526 -41.04
3.545 -33.05 -43.01 -31.07 -39.06 -17 -19.05 -23.01 -25.06 -14.07 -19.05 -7.035 -13.04 -21.03 -37.01 -2.052 -35.03
3.55 -35.03 -38.03 -22.06 -34 -25.06 -29.02 -25.06 -26.01 -14.07 -32.02 -19.05 -20 -21.03 -41.04 -10.04 -25.06
3.555 -39.06 -33.05 -19.05 -31.07 -37.01 -43.01 -29.02 -31.07 -13.04 -47.04 -33.05 -25.06 -23.01 -37.01 -25.06 -11.06
3.56 -37.01 -30.04 -14.07 -26.01 -45.07 -49.02 -29.02 -32.02 -10.04 -48.07 -42.06 -24.04 -20 -27.04 -36.05 1.979
3.565 -33.05 -28.07 -10.04 -22.06 -42.06 -46.02 -25.06 -32.02 -6.009 -33.05 -38.03 -20 -12.02 -11.06 -34 4.983
3.57 -27.04 -25.06 -9.013 -17 -33.05 -35.03 -19.05 -25.06 0.9526 -17 -25.06 -9.013 -3.004 0.9526 -23.01 11.94
3.575 -17 -20 -6.009 -10.04 -20 -18.03 -7.035 -8.061 7.987 -2.052 -2.052 4.983 12.97 9.966 1.979 22.94
3.58 -11.06 -15.02 0.9526 -3.004 -8.061 -6.009 0 5.936 22.94 18.98 15.97 29.97 33.93 25.94 17.95 29.97
3.585 -15.02 -15.02 0.9526 -3.004 -3.004 -1.026 7.987 15.97 33.93 27.99 25.94 41.99 48 35.98 27.99 29.97
3.59 -17 -15.02 0 -4.03 -5.056 -1.026 8.94 14.95 36.93 31.95 26.97 45.95 42.94 29.97 18.98 22.94
3.595 -23.01 -17 -6.009 -12.02 -2.052 -2.052 4.983 2.931 31 24.99 22.94 38.98 26.97 15.97 3.957 5.936
3.6 -23.01 -19.05 -11.06 -19.05 -3.004 -1.026 -1.026 -5.056 20.96 17.95 17.95 32.98 9.966 1.979 -3.004 -3.004
3.605 -17 -13.04 -10.04 -16.05 -2.052 0 1.979 -8.061 12.97 14.95 14.95 26.97 0.9526 -3.004 -5.056 -19.05
3.61 -11.06 -9.013 0 -8.061 -1.026 -2.052 1.979 -4.03 8.94 14 18.98 25.94 2.931 -9.013 1.979 -24.04
3.615 -7.035 -5.056 3.957 0.9526 0.9526 1.979 -2.052 0 9.966 7.987 21.98 23.96 7.987 -9.013 3.957 -25.06
3.62 -1.026 -1.026 15.97 5.936 0 2.931 -2.052 11.94 12.97 4.983 21.98 23.96 15.97 -3.004 3.957 -17
3.625 -1.026 0 16.93 8.94 -2.052 -1.026 0.9526 8.94 11.94 1.979 10.99 16.93 14.95 -1.026 1.979 -14.07
3.63 -5.056 0 11.94 5.936 -7.035 -1.026 0.9526 0 3.957 -1.026 -1.026 3.957 3.957 -3.004 -13.04 -11.06
3.635 -1.026 6.961 10.99 6.961 -6.009 -4.03 0.9526 1.979 1.979 -5.056 -12.02 -1.026 0.9526 -3.004 -18.03 0
3.64 0.9526 16.93 10.99 6.961 -9.013 -5.056 0 -1.026 -4.03 -10.04 -16.05 -1.026 8.94 3.957 -14.07 12.97
3.645 2.931 23.96 15.97 11.94 -7.035 -3.004 7.987 7.987 -5.056 -5.056 -11.06 7.987 25.94 19.93 -3.004 29.97
3.65 6.961 28.94 24.99 18.98 -3.004 0.9526 15.97 20.96 1.979 0.9526 0 24.99 43.97 29.97 4.983 41.99
3.655 10.99 32.98 27.99 19.93 1.979 7.987 25.94 27.99 4.983 14 19.93 35.98 51.95 33.93 14.95 43.97
3.66 20.96 35.98 29.97 23.96 14 21.98 33.93 31.95 17.95 33.93 37.96 43.97 48 31.95 14 39.94
3.665 34.95 43.97 31.95 23.96 27.99 35.98 39.94 29.97 27.99 51.95 48 49.98 38.98 23.96 11.94 23.96
3.67 46.97 55.98 27.99 17.95 39.94 48 45.95 31.95 27.99 56.94 51.95 49.98 24.99 11.94 5.936 7.987
3.675 56.94 63.97 23.96 11.94 41.99 49.98 48 29.97 21.98 51.95 51.95 48 14 3.957 0 -2.052
3.68 58.99 61.99 14 1.979 37.96 43.97 45.95 29.97 9.966 46.97 49.98 48 12.97 3.957 1.979 -1.026
3.685 52.98 49.98 3.957 -3.004 29.97 33.93 39.94 27.99 1.979 38.98 43.97 45.95 14.95 5.936 0 -1.026
3.69 42.94 35.98 0.9526 -11.06 21.98 23.96 31.95 21.98 -2.052 25.94 35.98 37.96 15.97 3.957 -1.026 -1.026
3.695 36.93 27.99 -1.026 -11.06 17.95 21.98 25.94 15.97 0 15.97 25.94 27.99 14 0 -13.04 -3.004
3.7 34.95 27.99 -2.052 -9.013 15.97 21.98 23.96 14 7.987 5.936 11.94 15.97 11.94 0 -23.01 -5.056
3.705 34.95 35.98 3.957 -5.056 14 17.95 19.93 14 11.94 0.9526 0.9526 1.979 7.987 0.9526 -33.05 -9.013
3.71 28.94 43.97 5.936 -5.056 5.936 9.966 15.97 11.94 9.966 -10.04 -11.06 -5.056 -2.052 -5.056 -31.07 -11.06
3.715 18.98 41.99 3.957 -9.013 -1.026 0.9526 9.966 7.987 5.936 -20 -19.05 -9.013 -5.056 -11.06 -19.05 -11.06
3.72 2.931 31.95 0.9526 -13.04 -13.04 -15.02 3.957 1.979 0 -23.01 -23.01 -9.013 -5.056 -13.04 -1.026 -5.056
3.725 -5.056 17.95 -7.035 -17 -21.03 -25.06 -2.052 0.9526 0 -21.03 -23.01 -7.035 0.9526 -11.06 7.987 -2.052
3.73 -9.013 1.979 -11.06 -15.02 -21.03 -27.04 0.9526 -5.056 -2.052 -18.03 -23.01 -2.052 2.931 -9.013 15.97 5.936
3.735 -5.056 -1.026 -9.013 -11.06 -17 -21.03 0.9526 -5.056 -2.052 -15.02 -17 0 9.966 -8.061 16.93 9.966
3.74 0.9526 -1.026 -3.004 -7.035 -9.013 -9.013 -2.052 -5.056 0.9526 -9.013 -11.06 -1.026 14 -3.004 11.94 9.966
3.745 12.97 -2.052 0 0 -3.004 0.9526 1.979 1.979 -1.026 -1.026 -1.026 0.9526 14.95 1.979 8.94 4.983
3.75 22.94 7.987 7.987 2.931 -2.052 3.957 7.987 6.961 4.983 11.94 3.957 -7.035 11.94 1.979 8.94 1.979
3.755 28.94 17.95 17.95 9.966 1.979 9.966 15.97 15.97 15.97 14 11.94 -13.04 3.957 0.9526 11.94 -9.013
3.76 34.95 28.94 27.99 16.93 5.936 14.95 26.97 31.95 32.98 19.93 20.96 -8.061 7.987 2.931 19.93 -12.02
3.765 38.98 36.93 34.95 20.96 14 24.99 40.96 43.97 48 24.99 28.94 1.979 12.97 5.936 25.94 -12.02
3.77 42.94 39.94 33.93 17.95 23.96 37.96 51.95 48 48 33.93 43.97 21.98 15.97 5.936 25.94 -11.06
3.775 48.95 42.94 28.94 14 34.95 52.98 62.95 52.98 35.98 45.95 60.97 45.95 25.94 8.94 22.94 -3.004
3.78 52.98 42.94 18.98 3.957 42.94 62.95 65 52.98 14.95 59.94 70.93 60.97 32.98 12.97 12.97 1.979
3.785 50.93 39.94 7.987 -3.004 41.99 63.97 55.98 41.99 0.9526 65.95 67.93 59.94 33.93 15.97 1.979 9.966
3.79 42.94 35.98 -1.026 -6.009 36.93 50.93 37.96 25.94 -5.056 53.93 49.98 42.94 25.94 14 0 20.96
3.795 24.99 27.99 0 -8.061 18.98 27.99 14 4.983 -5.056 28.94 21.98 18.98 14.95 7.987 2.931 28.94
3.8 10.99 19.93 -3.004 -5.056 0 1.979 -2.052 -9.013 1.979 0 -2.052 1.979 5.936 5.936 7.987 33.93
3.805 -1.026 14.95 0.9526 -3.004 -3.004 -7.035 -4.03 -18.03 17.95 -14.07 -8.061 1.979 3.957 5.936 14.95 29.97
3.81 2.931 14 0.9526 1.979 -5.056 -8.061 1.979 -16.05 20.96 -23.01 -6.009 0 0.9526 -1.026 10.99 20.96
3.815 -1.026 7.987 0.9526 -1.026 -1.026 -2.052 7.987 -7.035 15.97 -23.01 0.9526 3.957 -3.004 -7.035 -1.026 -2.052
3.82 4.983 5.936 -2.052 0.9526 4.983 9.966 14.95 -1.026 8.94 -9.013 2.931 9.966 -8.061 -12.02 -16.05 -19.05
3.825 4.983 0.9526 -5.056 -3.004 14 19.93 12.97 0.9526 0 0 4.983 6.961 -17 -15.02 -30.04 -39.06
3.83 4.983 -2.052 -5.056 -3.004 9.966 17.95 3.957 0.9526 -3.004 1.979 0.9526 0.9526 -27.04 -23.01 -41.04 -49.02
3.835 4.983 -1.026 1.979 1.979 5.936 14 0.9526 -9.013 -5.056 0.9526 -7.035 -6.009 -29.02 -25.06 -44.04 -47.04
3.84 8.94 3.957 6.961 7.987 1.979 5.936 0 -8.061 -13.04 1.979 -21.03 -13.04 -26.01 -18.03 -49.02 -44.04
3.845 12.97 5.936 18.98 16.93 -1.026 0.9526 0.9526 -3.004 -20 1.979 -29.02 -19.05 -22.06 -16.05 -56.06 -40.01
3.85 18.98 9.966 26.97 23.96 3.957 1.979 6.961 -1.026 -25.06 0.9526 -35.03 -29.02 -22.06 -18.03 -65.07 -40.01
3.855 16.93 2.931 22.94 24.99 5.936 5.936 7.987 1.979 -23.01 1.979 -27.04 -32.02 -21.03 -19.05 -64.04 -39.06
3.86 8.94 -3.004 15.97 14 7.987 7.987 1.979 3.957 -13.04 1.979 -17 -27.04 -17 -15.02 -49.02 -37.01
3.865 -1.026 -16.05 5.936 3.957 9.966 9.966 1.979 -1.026 -1.026 14 1.979 -16.05 -9.013 -3.004 -16.05 -23.01
3.87 -3.004 -19.05 0.9526 -1.026 8.94 7.987 0 1.979 2.931 17.95 14.95 1.979 0.9526 1.979 12.97 0.9526
3.875 -7.035 -13.04 1.979 -1.026 7.987 7.987 1.979 -2.052 0 15.97 27.99 17.95 15.97 1.979 39.94 21.98
3.88 -1.026 0 14 4.983 9.966 10.99 18.98 12.97 0.9526 11.94 31 35.98 36.93 12.97 48.95 40.96
3.885 -1.026 20.96 27.99 21.98 11.94 14 34.95 28.94 0 4.983 24.99 46.97 43.97 19.93 36.93 45.95
3.89 0.9526 33.93 35.98 33.93 11.94 15.97 39.94 35.98 3.957 0.9526 7.987 35.98 37.96 14 14 33.93
3.895 0.9526 33.93 38.98 36.93 6.961 17.95 33.93 32.98 1.979 -6.009 -9.013 16.93 18.98 3.957 -2.052 4.983
3.9 2.931 25.94 28.94 26.97 2.931 6.961 17.95 15.97 0.9526 -5.056 -23.01 -2.052 -1.026 -5.056 -15.02 -24.04
3.905 4.983 5.936 14 7.987 0.9526 -2.052 0.9526 -1.026 -15.02 -2.052 -35.03 -21.03 -29.02 -21.03 -13.04 -55.03
3.91 10.99 -6.009 -1.026 0.9526 1.979 -1.026 -8.061 -20 -24.04 5.936 -30.04 -24.04 -46.02 -38.03 -6.009 -69.03
3.915 12.97 -20 -4.03 -3.004 0.9526 2.931 -6.009 -26.01 -25.06 9.966 -18.03 -19.05 -49.02 -42.06 0 -69.03
3.92 10.99 -27.04 -5.056 0.9526 3.957 7.987 0.9526 -25.06 -9.013 11.94 -9.013 -11.06 -39.06 -33.05 -5.056 -59.06
3.925 0.9526 -32.02 0.9526 6.961 5.936 8.94 1.979 -19.05 9.966 10.99 -10.04 -9.013 -26.01 -13.04 -17 -46.02
3.93 -9.013 -38.03 0 14.95 0 -1.026 -6.009 -21.03 26.97 0 -24.04 -26.01 -19.05 1.979 -33.05 -38.03
3.935 -27.04 -45.07 0 17.95 -7.035 -11.06 -23.01 -31.07 27.99 -13.04 -41.04 -49.02 -23.01 3.957 -43.01 -31.07
3.94 -37.01 -49.02 0.9526 14.95 -19.05 -25.06 -35.03 -34 18.98 -27.04 -53.05 -55.03 -17 11.94 -32.02 -16.05
3.945 -39.06 -53.05 -7.035 6.961 -27.04 -31.07 -35.03 -30.04 2.931 -34 -43.01 -39.06 -6.009 14.95 -4.03 2.931
3.95 -39.06 -57.01 -17 -1.026 -25.06 -29.02 -21.03 -23.01 -7.035 -35.03 -19.05 -9.013 9.966 15.97 21.98 27.99
3.955 -39.06 -59.06 -27.04 -11.06 -19.05 -21.03 -5.056 -11.06 -13.04 -29.02 7.987 24.99 27.99 14.95 48.95 49.98
3.96 -39.06 -59.06 -35.03 -21.03 -11.06 -13.04 1.979 -5.056 -11.06 -20 31.95 48.95 36.93 11.94 59.94 57.96
3.965 -39.06 -57.01 -39.06 -27.04 -3.004 -7.035 3.957 -9.013 -7.035 -11.06 39.94 49.98 29.97 5.936 51.95 45.95
3.97 -33.05 -53.05 -39.06 -29.02 -2.052 -1.026 -2.052 -17 -7.035 -9.013 27.99 31.95 7.987 -3.004 29.97 21.98
3.975 -25.06 -45.07 -35.03 -27.04 1.979 0.9526 -7.035 -27.04 -13.04 -14.07 7.987 7.987 -11.06 -13.04 3.957 0.9526
3.98 -19.05 -39.06 -33.05 -25.06 0 -1.026 -19.05 -31.07 -19.05 -18.03 -11.06 -9.013 -27.04 -17 -15.02 -21.03
3.985 -19.05 -39.06 -31.07 -21.03 0.9526 -7.035 -27.04 -35.03 -23.01 -23.01 -27.04 -21.03 -37.01 -15.02 -33.05 -33.05
3.99 -27.04 -43.01 -29.02 -15.02 -5.056 -15.02 -31.07 -33.05 -25.06 -23.01 -35.03 -29.02 -43.01 -14.07 -41.04 -37.01
3.995 -35.03 -49.02 -23.01 -9.013 -11.06 -17 -29.02 -31.07 -27.04 -25.06 -35.03 -31.07 -43.01 -16.05 -45.07 -33.05
4 -39.06 -53.05 -15.02 -1.026 -13.04 -15.02 -21.03 -23.01 -29.02 -17 -25.06 -21.03 -31.07 -11.06 -37.01 -19.05
4.005 -37.01 -51 -7.035 -2.052 -9.013 -7.035 -11.06 -13.04 -24.04 -3.004 -13.04 -8.061 -19.05 -2.052 -27.04 -1.026
4.01 -31.07 -51 -3.004 0 -7.035 -1.026 -5.056 -9.013 -24.04 0.9526 -1.026 0 -8.061 1.979 -17 9.966
4.015 -29.02 -53.05 -13.04 -1.026 -7.035 -5.056 -15.02 -11.06 -19.05 0.9526 0.9526 -3.004 -3.004 0.9526 -9.013 19.93
4.02 -33.05 -57.01 -25.06 -11.06 -11.06 -15.02 -31.07 -21.03 -16.05 -1.026 -1.026 -10.04 1.979 0 -3.004 22.94
4.025 -39.06 -63.02 -35.03 -16.05 -17 -31.07 -47.04 -31.07 -12.02 -2.052 -4.03 -20 1.979 2.931 0 20.96
4.03 -41.04 -59.06 -35.03 -17 -17 -33.05 -53.05 -33.05 -11.06 -7.035 -3.004 -19.05 0 7.987 7.987 21.98
4.035 -31.07 -49.02 -20 -4.03 -15.02 -23.01 -39.06 -21.03 -1.026 -9.013 0.9526 0.9526 10.99 19.93 20.96 31
4.04 -17 -31.07 1.979 6.961 -3.004 -2.052 -13.04 -1.026 1.979 -9.013 14.95 21.98 28.94 31.95 31 44.99
4.045 -7.035 -17 11.94 21.98 0 9.966 3.957 11.94 9.966 -5.056 29.97 45.95 37.96 39.94 39.94 49.98
4.05 -3.004 -5.056 16.93 28.94 3.957 18.98 12.97 11.94 6.961 -4.03 32.98 50.93 31.95 29.97 34.95 41.99
4.055 -7.035 -4.03 10.99 24.99 3.957 12.97 8.94 1.979 -4.03 -11.06 21.98 36.93 5.936 6.961 20.96 14
4.06 -17 -11.06 -2.052 15.97 -2.052 1.979 -2.052 -7.035 -27.04 -11.06 7.987 9.966 -13.04 -11.06 0 -13.04
4.065 -19.05 -20 -3.004 7.987 1.979 0 -6.009 -15.02 -42.06 -4.03 -2.052 -4.03 -29.02 -22.06 -13.04 -36.05
4.07 -23.01 -28.07 -7.035 4.983 1.979 1.979 -5.056 -16.05 -47.04 0 1.979 -15.02 -34 -27.04 -25.06 -41.04
4.075 -27.04 -39.06 -9.013 1.979 -2.052 1.979 -5.056 -17 -35.03 0 3.957 -11.06 -25.06 -15.02 -21.03 -25.06
4.08 -33.05 -47.04 -12.02 1.979 1.979 4.983 -4.03 -14.07 -14.07 5.936 15.97 1.979 -3.004 3.957 -5.056 0.9526
4.085 -39.06 -51 -17 0 -4.03 -1.026 -10.04 -19.05 1.979 6.961 22.94 6.961 10.99 17.95 12.97 29.97
4.09 -41.04 -50.05 -19.05 0.9526 -14.07 -9.013 -17 -20 1.979 0 21.98 9.966 20.96 24.99 31 51.95
4.095 -45.07 -47.04 -17 -1.026 -20 -18.03 -22.06 -19.05 2.931 0 18.98 10.99 22.94 23.96 44.99 55.98
4.1 -41.04 -39.06 -12.02 0.9526 -20 -20 -16.05 -10.04 -1.026 -1.026 19.93 14.95 25.94 23.96 51.95 60.97
4.105 -37.01 -37.01 -9.013 -1.026 -15.02 -13.04 -3.004 -1.026 -3.004 0.9526 27.99 19.93 25.94 17.95 53.93 61.99
4.11 -31.07 -38.03 -11.06 -2.052 -6.009 1.979 3.957 2.931 -11.06 2.931 36.93 27.99 26.97 9.966 49.98 61.99
4.115 -31.07 -44.04 -15.02 -15.02 1.979 2.931 4.983 1.979 -16.05 6.961 37.96 31 25.94 0.9526 43.97 58.99
4.12 -37.01 -49.02 -27.04 -27.04 -1.026 0 0.9526 -2.052 -23.01 5.936 27.99 23.96 17.95 0.9526 29.97 49.98
4.125 -39.06 -50.05 -30.04 -36.05 -9.013 -8.061 -12.02 -7.035 -22.06 0.9526 7.987 8.94 7.987 0 20.96 31.95
4.13 -39.06 -43.01 -30.04 -40.01 -19.05 -22.06 -26.01 -15.02 -16.05 -16.05 -12.02 -4.03 0 -7.035 8.94 14
4.135 -35.03 -33.05 -29.02 -35.03 -23.01 -27.04 -29.02 -21.03 -9.013 -31.07 -31.07 -21.03 -9.013 -13.04 -2.052 -3.004
4.14 -25.06 -23.01 -24.04 -28.07 -21.03 -20 -25.06 -21.03 -1.026 -33.05 -34 -23.01 -12.02 -17 -4.03 -12.02
4.145 -15.02 -17 -20 -20 -13.04 -7.035 -15.02 -15.02 -1.026 -21.03 -22.06 -23.01 -10.04 -19.05 -12.02 -20
4.15 -13.04 -13.04 -15.02 -15.02 -3.004 3.957 -5.056 -9.013 -9.013 -7.035 -7.035 -23.01 -13.04 -27.04 -21.03 -23.01
4.155 -9.013 -7.035 -7.035 -6.009 -2.052 7.987 0.9526 -2.052 -12.02 1.979 2.931 -18.03 -10.04 -28.07 -27.04 -24.04
4.16 -5.056 -1.026 1.979 -2.052 -1.026 1.979 -2.052 5.936 -16.05 0.9526 9.966 -10.04 0 -21.03 -19.05 -20
4.165 -9.013 -2.052 9.966 5.936 -9.013 -7.035 -2.052 11.94 -15.02 -5.056 15.97 -2.052 7.987 -7.035 -1.026 -5.056
4.17 -11.06 -1.026 14 11.94 -15.02 -17 1.979 11.94 -14.07 -11.06 21.98 14.95 22.94 1.979 23.96 17.95
4.175 -19.05 -15.02 5.936 9.966 -17 -19.05 1.979 9.966 -12.02 -7.035 31.95 32.98 33.93 10.99 53.93 48
4.18 -19.05 -27.04 0.9526 3.957 -13.04 -9.013 0 5.936 -7.035 -2.052 39.94 45.95 43.97 17.95 69.98 73.94
4.185 -15.02 -31.07 -5.056 0 -5.056 -2.052 -2.052 5.936 -2.052 9.966 37.96 45.95 48 20.96 67.93 79.95
4.19 -3.004 -19.05 -1.026 1.979 -2.052 5.936 -1.026 5.936 3.957 15.97 25.94 29.97 33.93 10.99 41.99 59.94
4.195 10.99 1.979 7.987 11.94 1.979 7.987 -5.056 5.936 9.966 5.936 3.957 1.979 11.94 -1.026 5.936 25.94
4.2 24.99 31.95 21.98 21.98 0 1.979 -9.013 1.979 7.987 -4.03 -17 -21.03 -9.013 -13.04 -23.01 -9.013
4.205 26.97 48 25.94 25.94 -1.026 -3.004 -17 -3.004 0 -14.07 -41.04 -45.07 -33.05 -25.06 -47.04 -41.04
4.21 12.97 43.97 17.95 19.93 -9.013 -15.02 -25.06 -15.02 -1.026 -23.01 -53.05 -57.01 -53.05 -33.05 -57.01 -57.01
4.215 -3.004 23.96 0 5.936 -13.04 -21.03 -33.05 -27.04 -5.056 -21.03 -55.03 -57.01 -61.04 -37.01 -53.05 -57.01
4.22 -15.02 3.957 -9.013 -5.056 -11.06 -19.05 -39.06 -31.07 -5.056 -6.009 -43.01 -42.06 -50.05 -33.05 -39.06 -45.07
4.225 -11.06 -2.052 -13.04 -13.04 -3.004 -11.06 -35.03 -24.04 -1.026 11.94 -21.03 -22.06 -29.02 -22.06 -18.03 -25.06
4.23 2.931 7.987 -7.035 -11.06 3.957 -2.052 -23.01 -15.02 -2.052 27.99 -2.052 -1.026 -11.06 -17 0.9526 -3.004
4.235 20.96 25.94 -2.052 -6.009 14 9.966 -9.013 -4.03 0.9526 34.95 19.93 14 2.931 -10.04 12.97 14.95
4.24 28.94 35.98 3.957 -2.052 15.97 15.97 0.9526 1.979 2.931 31.95 31 21.98 17.95 -3.004 24.99 32.98
4.245 18.98 31.95 1.979 -3.004 7.987 11.94 3.957 -2.052 3.957 21.98 29.97 25.94 19.93 0.9526 33.93 48
4.25 2.931 18.98 1.979 -2.052 0.9526 0 0.9526 0 4.983 9.966 22.94 25.94 23.96 -1.026 39.94 58.99
4.255 -17 2.931 0 1.979 -9.013 -7.035 -2.052 0 2.931 -1.026 16.93 19.93 26.97 0 43.97 62.95
4.26 -27.04 -2.052 0 7.987 -13.04 -13.04 -9.013 7.987 -2.052 -2.052 9.966 17.95 31.95 9.966 41.99 65.95
4.265 -15.02 10.99 16.93 27.99 -11.06 -8.061 -3.004 22.94 0 3.957 10.99 17.95 37.96 20.96 36.93 61.99
4.27 0.9526 28.94 38.98 45.95 -3.004 -1.026 5.936 39.94 11.94 1.979 9.966 16.93 39.94 24.99 20.96 43.97
4.275 10.99 49.98 55.98 57.96 0.9526 7.987 23.96 49.98 31.95 -11.06 0 7.987 25.94 21.98 0.9526 15.97
4.28 18.98 65.95 60.97 62.95 0.9526 16.93 36.93 52.98 52.98 -21.03 -11.06 -1.026 6.961 11.94 -20 -14.07
4.285 22.94 65.95 51.95 52.98 -1.026 14.95 31 39.94 59.94 -26.01 -30.04 -25.06 -15.02 -2.052 -33.05 -53.05
4.29 20.96 59.94 27.99 35.98 0.9526 3.957 5.936 11.94 51.95 -29.02 -49.02 -55.03 -49.02 -29.02 -43.01 -85
4.295 24.99 50.93 3.957 19.93 1.979 0.9526 -19.05 -12.02 31.95 -24.04 -57.01 -79.07 -67.05 -45.07 -41.04 -92.04
4.3 26.97 42.94 0 16.93 -2.052 -9.013 -38.03 -31.07 14.95 -17 -54.01 -82.07 -64.04 -43.01 -27.04 -79.07
4.305 31 33.93 0.9526 19.93 -5.056 -11.06 -35.03 -25.06 7.987 -11.06 -37.01 -65.07 -41.04 -21.03 -11.06 -47.04
4.31 31 36.93 11.94 33.93 -1.026 -2.052 -11.06 0 11.94 -7.035 -12.02 -28.07 -1.026 2.931 5.936 -9.013
4.315 28.94 36.93 26.97 37.96 0.9526 3.957 11.94 27.99 16.93 -1.026 6.961 3.957 23.96 26.97 25.94 16.93
4.32 24.99 35.98 27.99 31.95 0 9.966 23.96 41.99 14 -2.052 17.95 27.99 39.94 35.98 43.97 33.93
4.325 18.98 33.93 16.93 18.98 0 8.94 14.95 34.95 9.966 1.979 20.96 33.93 33.93 33.93 55.98 37.96
4.33 12.97 25.94 -1.026 3.957 -1.026 0.9526 -5.056 10.99 4.983 0 12.97 19.93 16.93 18.98 60.97 35.98
4.335 6.961 17.95 -7.035 -1.026 -6.009 -7.035 -30.04 -10.04 6.961 -6.009 2.931 0 1.979 5.936 53.93 33.93
4.34 6.961 15.97 -8.061 5.936 -14.07 -16.05 -41.04 -22.06 8.94 -15.02 -2.052 -11.06 -6.009 6.961 34.95 23.96
4.345 10.99 19.93 0.9526 18.98 -19.05 -22.06 -36.05 -18.03 11.94 -23.01 -18.03 -27.04 -11.06 9.966 3.957 9.966
4.35 14.95 23.96 11.94 31.95 -19.05 -25.06 -27.04 -11.06 1.979 -29.02 -39.06 -47.04 -19.05 3.957 -27.04 -11.06
4.355 16.93 28.94 16.93 33.93 -17 -23.01 -19.05 -9.013 -2.052 -29.02 -62.07 -73.06 -37.01 -2.052 -63.02 -42.06
4.36 18.98 26.97 9.966 27.99 -11.06 -24.04 -25.06 -22.06 -7.035 -25.06 -84.05 -102 -59.06 -12.02 -89.03 -77.02
4.365 14.95 19.93 1.979 17.95 -11.06 -23.01 -39.06 -33.05 -3.004 -13.04 -97.02 -119 -79.07 -21.03 -105 -105
4.37 10.99 16.93 -1.026 14.95 -8.061 -19.05 -40.01 -35.03 2.931 -3.004 -88.01 -114 -84.05 -17 -101.1 -111
4.375 10.99 18.98 5.936 14 -6.009 -11.06 -33.05 -16.05 11.94 1.979 -63.02 -85 -69.03 -7.035 -89.03 -100
4.38 10.99 23.96 17.95 23.96 -7.035 -7.035 -11.06 5.936 15.97 0 -33.05 -41.04 -39.06 11.94 -73.06 -79.07
4.385 14.95 29.97 29.97 31 -4.03 -4.03 6.961 29.97 19.93 2.931 -2.052 1.979 -1.026 32.98 -51 -43.01
4.39 10.99 29.97 26.97 34.95 -8.061 -8.061 18.98 34.95 28.94 1.979 11.94 31.95 20.96 42.94 -32.02 -16.05
4.395 0.9526 14 14 27.99 -13.04 -13.04 14 23.96 31.95 1.979 19.93 43.97 31.95 37.96 -17 0
4.4 -9.013 -4.03 -1.026 17.95 -19.05 -16.05 0 3.957 33.93 7.987 29.97 46.97 35.98 32.98 2.931 17.95
4.405 -19.05 -28.07 -16.05 0 -19.05 -18.03 -11.06 -10.04 21.98 17.95 31 41.99 27.99 22.94 24.99 25.94
4.41 -29.02 -43.01 -29.02 -13.04 -13.04 -17 -27.04 -21.03 -2.052 19.93 29.97 29.97 15.97 9.966 43.97 21.98
4.415 -19.05 -38.03 -34 -24.04 -7.035 -11.06 -30.04 -25.06 -24.04 18.98 24.99 15.97 2.931 0 55.98 14.95
4.42 -7.035 -22.06 -28.07 -24.04 0.9526 -5.056 -24.04 -19.05 -42.06 14 12.97 1.979 -1.026 2.931 53.93 6.961
4.425 0.9526 -1.026 -15.02 -17 -2.052 -3.004 -15.02 -13.04 -45.07 0 -7.035 -13.04 -13.04 3.957 31.95 0.9526
4.43 10.99 14 -2.052 0 -1.026 -3.004 -2.052 -8.061 -34 -11.06 -32.02 -39.06 -29.02 5.936 1.979 -16.05
4.435 12.97 21.98 9.966 10.99 -7.035 -7.035 -2.052 -8.061 -16.05 -34 -59.06 -59.06 -50.05 0 -34 -36.05
4.44 6.961 17.95 14 17.95 -13.04 -15.02 -3.004 -9.013 -5.056 -51 -81.05 -81.05 -69.03 -5.056 -61.04 -55.03
4.445 0.9526 7.987 5.936 15.97 -17 -23.01 -11.06 -14.07 -3.004 -55.03 -91.01 -88.01 -75.04 -8.061 -72.03 -65.07
4.45 -5.056 -2.052 0.9526 5.936 -19.05 -27.04 -13.04 -15.02 -7.035 -48.07 -81.05 -80.02 -70.05 -7.035 -71.01 -59.06
4.455 -5.056 -1.026 -7.035 0.9526 -13.04 -21.03 -3.004 -7.035 -11.06 -33.05 -55.03 -49.02 -47.04 -2.052 -55.03 -39.06
4.46 -1.026 0.9526 -7.035 -5.056 -3.004 -7.035 14 9.966 -9.013 -5.056 -17 -3.004 -7.035 17.95 -33.05 -7.035
4.465 12.97 3.957 0.9526 -5.056 5.936 3.957 39.94 35.98 -3.004 18.98 11.94 39.94 31.95 37.96 -5.056 19.93
4.47 22.94 9.966 5.936 -1.026 14 17.95 55.98 55.98 -2.052 36.93 33.93 69.98 57.96 45.95 19.93 43.97
4.475 26.97 9.966 7.987 0.9526 17.95 19.93 53.93 55.98 -2.052 41.99 39.94 73.94 63.97 41.99 48 53.93
4.48 26.97 7.987 0 0.9526 15.97 15.97 37.96 37.96 -1.026 41.99 35.98 61.99 51.95 34.95 69.98 51.95
4.485 22.94 3.957 -5.056 -3.004 11.94 9.966 17.95 9.966 -9.013 42.94 29.97 41.99 27.99 20.96 77.97 48
4.49 22.94 1.979 -15.02 -9.013 7.987 7.987 5.936 -9.013 -17 41.99 23.96 19.93 5.936 5.936 61.99 37.96
4.495 24.99 0 -17 -11.06 9.966 7.987 3.957 -19.05 -23.01 35.98 19.93 5.936 -3.004 1.979 33.93 31.95
4.5 24.99 0 -15.02 -17 9.966 5.936 5.936 -17 -22.06 22.94 3.957 0 -7.035 -4.03 1.979 23.96
4.505 24.99 -3.004 -15.02 -19.05 5.936 0 5.936 -15.02 -19.05 7.987 -15.02 -19.05 -15.02 -7.035 -19.05 9.966
4.51 16.93 -11.06 -19.05 -25.06 -2.052 -9.013 -3.004 -21.03 -12.02 -6.009 -47.04 -48.07 -31.07 -13.04 -33.05 -5.056
4.515 14.95 -19.05 -23.01 -33.05 -7.035 -21.03 -19.05 -31.07 -10.04 -19.05 -75.04 -80.02 -51 -27.04 -31.07 -29.02
4.52 14.95 -19.05 -29.02 -39.06 -13.04 -27.04 -29.02 -39.06 -15.02 -19.05 -85 -99.07 -61.04 -31.07 -27.04 -45.07
4.525 20.96 -11.06 -25.06 -38.03 -11.06 -19.05 -25.06 -35.03 -22.06 -10.04 -75.04 -96.07 -57.01 -26.01 -25.06 -48.07
4.53 26.97 0.9526 -21.03 -36.05 -1.026 -3.004 -9.013 -19.05 -33.05 -1.026 -49.02 -69.03 -37.01 -15.02 -25.06 -36.05
4.535 24.99 5.936 -13.04 -31.07 3.957 3.957 5.936 0.9526 -39.06 5.936 -17 -31.07 -5.056 -5.056 -23.01 -13.04
4.54 14.95 1.979 -6.009 -26.01 7.987 9.966 21.98 14 -33.05 11.94 9.966 7.987 26.97 8.94 -13.04 14.95
4.545 2.931 -1.026 -8.061 -24.04 7.987 7.987 25.94 23.96 -18.03 17.95 35.98 44.99 50.93 23.96 3.957 42.94
4.55 -5.056 -11.06 -11.06 -23.01 5.936 5.936 23.96 21.98 -3.004 17.95 49.98 59.94 55.98 29.97 23.96 55.98
4.555 -5.056 -13.04 -10.04 -21.03 3.957 5.936 17.95 16.93 1.979 18.98 53.93 61.99 48.95 31.95 35.98 61.99
4.56 -5.056 -8.061 -4.03 -19.05 6.961 11.94 15.97 14.95 10.99 19.93 49.98 50.93 40.96 35.98 35.98 53.93
4.565 0.9526 -3.004 0.9526 -15.02 7.987 14 17.95 19.93 11.94 19.93 39.94 35.98 37.96 39.94 21.98 45.95
4.57 2.931 1.979 7.987 -10.04 8.94 14.95 17.95 23.96 16.93 14.95 27.99 23.96 36.93 44.99 8.94 38.98
4.575 6.961 0.9526 10.99 -7.035 7.987 11.94 16.93 24.99 17.95 6.961 18.98 16.93 39.94 46.97 0 34.95
4.58 4.983 -4.03 7.987 -8.061 6.961 3.957 12.97 21.98 16.93 0 6.961 10.99 42.94 45.95 -10.04 31
4.585 4.983 -13.04 0 -15.02 3.957 1.979 4.983 8.94 11.94 -2.052 1.979 2.931 35.98 38.98 -18.03 20.96
4.59 2.931 -18.03 -15.02 -26.01 2.931 1.979 -3.004 -2.052 6.961 -4.03 -11.06 -5.056 18.98 24.99 -28.07 3.957
4.595 -9.013 -23.01 -27.04 -35.03 0 -3.004 -17 -15.02 0 -3.004 -21.03 -21.03 0.9526 7.987 -37.01 -7.035
4.6 -17 -28.07 -32.02 -39.06 1.979 -5.056 -25.06 -20 2.931 3.957 -25.06 -34 -10.04 0 -41.04 -15.02
4.605 -23.01 -35.03 -34 -33.05 -3.004 -9.013 -29.02 -22.06 11.94 16.93 -17 -35.03 -12.02 1.979 -39.06 -11.06
4.61 -29.02 -41.04 -31.07 -29.02 -3.004 -11.06 -27.04 -19.05 19.93 25.94 -5.056 -31.07 -7.035 -2.052 -25.06 -7.035
4.615 -29.02 -51 -28.07 -24.04 -7.035 -13.04 -21.03 -11.06 24.99 29.97 7.987 -12.02 2.931 3.957 -7.035 4.983
4.62 -31.07 -59.06 -26.01 -24.04 -9.013 -13.04 -13.04 -1.026 23.96 23.96 21.98 1.979 22.94 10.99 3.957 18.98
4.625 -35.03 -63.02 -27.04 -27.04 -11.06 -11.06 -5.056 0 15.97 17.95 31.95 19.93 37.96 17.95 17.95 27.99
4.63 -35.03 -59.06 -25.06 -28.07 -11.06 -13.04 0.9526 3.957 7.987 10.99 33.93 31.95 39.94 21.98 25.94 36.93
4.635 -33.05 -51 -21.03 -28.07 -9.013 -11.06 -2.052 5.936 0.9526 4.983 31.95 31 31.95 18.98 27.99 34.95
4.64 -27.04 -39.06 -17 -23.01 -7.035 -11.06 0.9526 3.957 3.957 7.987 25.94 27.99 21.98 15.97 23.96 29.97
4.645 -17 -29.02 -11.06 -17 -5.056 -11.06 -5.056 0 14.95 9.966 14 18.98 7.987 7.987 11.94 14
4.65 -13.04 -31.07 -9.013 -11.06 -5.056 -11.06 -11.06 -3.004 24.99 4.983 -2.052 2.931 -3.004 1.979 -5.056 -1.026
4.655 -13.04 -35.03 -11.06 -9.013 -9.013 -15.02 -21.03 -7.035 29.97 -7.035 -13.04 -11.06 -17 -11.06 -33.05 -19.05
4.66 -17 -41.04 -15.02 -9.013 -17 -23.01 -31.07 -11.06 26.97 -20 -31.07 -30.04 -19.05 -14.07 -57.01 -31.07
4.665 -23.01 -43.01 -15.02 -11.06 -23.01 -33.05 -35.03 -13.04 16.93 -29.02 -51 -45.07 -17 -12.02 -71.01 -29.02
4.67 -23.01 -39.06 -15.02 -15.02 -27.04 -39.06 -35.03 -15.02 5.936 -35.03 -59.06 -55.03 -17 -13.04 -73.06 -17
4.675 -23.01 -33.05 -11.06 -15.02 -25.06 -37.01 -29.02 -15.02 0 -30.04 -53.05 -55.03 -9.013 -10.04 -59.06 0.9526
4.68 -23.01 -31.07 -9.013 -15.02 -17 -25.06 -17 -9.013 1.979 -13.04 -35.03 -35.03 -2.052 -4.03 -33.05 14
4.685 -23.01 -33.05 -9.013 -13.04 -7.035 -11.06 -3.004 -3.004 3.957 3.957 -3.004 -7.035 14 -2.052 -1.026 29.97
4.69 -23.01 -39.06 -9.013 -11.06 -2.052 -2.052 3.957 1.979 3.957 24.99 23.96 19.93 27.99 1.979 21.98 37.96
4.695 -17 -43.01 -9.013 -7.035 3.957 5.936 11.94 9.966 0 34.95 49.98 41.99 35.98 1.979 41.99 41.99
4.7 -7.035 -39.06 -9.013 -1.026 7.987 7.987 11.94 14 0 39.94 61.99 51.95 39.94 5.936 48 37.96
4.705 0.9526 -31.07 -5.056 0 7.987 5.936 9.966 11.94 3.957 43.97 59.94 45.95 37.96 7.987 41.99 27.99
4.71 10.99 -23.01 -3.004 0 1.979 0 3.957 5.936 7.987 40.96 45.95 31 24.99 5.936 25.94 11.94
4.715 8.94 -21.03 -3.004 -2.052 0.9526 -1.026 0.9526 0.9526 9.966 33.93 27.99 12.97 9.966 1.979 10.99 -1.026
4.72 -1.026 -29.02 -7.035 -1.026 -7.035 -9.013 -7.035 -9.013 3.957 27.99 11.94 0 -3.004 -9.013 0.9526 -17
4.725 -21.03 -43.01 -11.06 -3.004 -17 -19.05 -17 -16.05 -4.03 20.96 -2.052 -1.026 -12.02 -19.05 -8.061 -28.07
4.73 -39.06 -55.03 -11.06 0 -25.06 -31.07 -25.06 -22.06 -20 6.961 -9.013 -13.04 -21.03 -30.04 -18.03 -34
4.735 -47.04 -59.06 -7.035 0 -29.02 -41.04 -33.05 -23.01 -31.07 -7.035 -25.06 -25.06 -27.04 -39.06 -35.03 -37.01
4.74 -39.06 -55.03 -3.004 2.931 -33.05 -48.07 -37.01 -20 -26.01 -22.06 -38.03 -36.05 -22.06 -37.01 -47.04 -34
4.745 -31.07 -48.07 -5.056 -1.026 -37.01 -52.03 -40.01 -21.03 -15.02 -29.02 -48.07 -47.04 -16.05 -31.07 -63.02 -32.02
4.75 -29.02 -51 -15.02 -9.013 -39.06 -57.01 -45.07 -27.04 -3.004 -29.02 -51 -53.05 -15.02 -31.07 -69.03 -27.04
4.755 -31.07 -58.04 -32.02 -22.06 -38.03 -56.06 -48.07 -36.05 -1.026 -22.06 -42.06 -48.07 -12.02 -25.06 -62.07 -17
4.76 -35.03 -70.05 -48.07 -29.02 -36.05 -50.05 -48.07 -44.04 -6.009 -10.04 -23.01 -31.07 -8.061 -21.03 -42.06 -7.035
4.765 -37.01 -77.02 -55.03 -35.03 -27.04 -43.01 -43.01 -45.07 -17 0 -1.026 -11.06 -3.004 -11.06 -15.02 3.957
4.77 -27.04 -66.02 -46.02 -31.07 -16.05 -27.04 -30.04 -37.01 -21.03 12.97 17.95 4.983 0.9526 -6.009 6.961 18.98
4.775 -15.02 -45.07 -30.04 -24.04 -6.009 -11.06 -15.02 -22.06 -17 24.99 35.98 17.95 7.987 -6.009 29.97 25.94
4.78 0.9526 -21.03 -13.04 -15.02 -2.052 -1.026 -3.004 -7.035 -7.035 31.95 41.99 23.96 14 -5.056 37.96 23.96
4.785 10.99 -2.052 1.979 -9.013 5.936 2.931 3.957 4.983 -1.026 37.96 40.96 27.99 18.98 -1.026 37.96 18.98
4.79 14.95 12.97 1.979 -2.052 5.936 6.961 12.97 14 -3.004 38.98 31.95 26.97 14 -2.052 27.99 7.987
4.795 8.94 15.97 0 -2.052 7.987 5.936 17.95 17.95 -17 31.95 19.93 23.96 7.987 -1.026 9.966 -2.052
4.8 6.961 19.93 1.979 -1.026 8.94 6.961 21.98 15.97 -26.01 25.94 9.966 21.98 5.936 1.979 -2.052 -2.052
4.805 6.961 20.96 -3.004 0 7.987 5.936 20.96 11.94 -26.01 19.93 5.936 14.95 0.9526 0.9526 -7.035 -1.026
4.81 8.94 21.98 -7.035 -5.056 11.94 5.936 11.94 0 -15.02 17.95 3.957 1.979 -1.026 -1.026 -9.013 -3.004
4.815 14.95 29.97 -3.004 -4.03 14 6.961 6.961 1.979 -2.052 16.93 8.94 0 0.9526 -5.056 -7.035 0
4.82 18.98 38.98 1.979 1.979 16.93 8.94 3.957 1.979 14.95 17.95 14 1.979 7.987 0 0 2.931
4.825 16.93 44.99 14.95 10.99 12.97 8.94 10.99 18.98 23.96 17.95 18.98 4.983 25.94 16.93 1.979 14
4.83 16.93 46.97 25.94 24.99 10.99 10.99 17.95 33.93 26.97 21.98 23.96 17.95 39.94 31.95 -1.026 22.94
4.835 14.95 43.97 27.99 31 5.936 8.94 22.94 40.96 21.98 18.98 24.99 24.99 49.98 37.96 -2.052 28.94
4.84 12.97 39.94 17.95 23.96 3.957 5.936 17.95 33.93 14 25.94 25.94 29.97 48 33.93 5.936 31.95
4.845 12.97 36.93 5.936 10.99 5.936 5.936 10.99 19.93 2.931 35.98 33.93 31 42.94 22.94 19.93 31.95
4.85 18.98 37.96 1.979 1.979 12.97 8.94 3.957 3.957 -12.02 51.95 41.99 27.99 29.97 5.936 35.98 22.94
4.855 20.96 37.96 -1.026 -5.056 17.95 15.97 7.987 0.9526 -27.04 57.96 48 23.96 15.97 -9.013 48 7.987
4.86 24.99 44.99 1.979 -2.052 21.98 20.96 12.97 0 -31.07 56.94 45.95 20.96 7.987 -14.07 48 -3.004
4.865 24.99 48 7.987 -2.052 21.98 18.98 15.97 2.931 -25.06 45.95 34.95 7.987 0.9526 -15.02 33.93 -18.03
4.87 24.99 51.95 9.966 3.957 14 11.94 9.966 -2.052 -9.013 25.94 7.987 -5.056 -5.056 -21.03 7.987 -31.07
4.875 26.97 57.96 10.99 2.931 10.99 7.987 1.979 -4.03 -2.052 8.94 -9.013 -21.03 -11.06 -22.06 -5.056 -33.05
4.88 38.98 60.97 12.97 1.979 12.97 5.936 1.979 -9.013 5.936 4.983 -19.05 -26.01 -12.02 -14.07 -8.061 -32.02
4.885 48.95 67.93 17.95 5.936 19.93 11.94 1.979 -3.004 1.979 14 -13.04 -19.05 -5.056 -5.056 0 -21.03
4.89 60.97 78.99 28.94 15.97 32.98 26.97 18.98 8.94 1.979 31 7.987 -1.026 2.931 0.9526 24.99 -7.035
4.895 66.98 84.93 40.96 28.94 38.98 38.98 34.95 26.97 -1.026 44.99 32.98 16.93 14.95 5.936 48.95 1.979
4.9 68.95 83.98 48 35.98 41.99 43.97 43.97 41.99 -1.026 48 49.98 31.95 27.99 14 59.94 9.966
4.905 65 80.97 49.98 38.98 35.98 40.96 42.94 49.98 -1.026 43.97 56.94 41.99 40.96 27.99 59.94 18.98
4.91 58.99 69.98 43.97 34.95 27.99 32.98 31.95 44.99 -4.03 32.98 48.95 34.95 42.94 33.93 49.98 20.96
4.915 50.93 63.97 35.98 35.98 19.93 23.96 17.95 35.98 -3.004 19.93 31.95 23.96 41.99 37.96 33.93 19.93
4.92 44.99 59.94 31.95 40.96 17.95 19.93 5.936 31 2.931 16.93 19.93 15.97 41.99 40.96 26.97 14.95
4.925 40.96 55.98 33.93 45.95 17.95 19.93 1.979 26.97 14.95 22.94 14 11.94 28.94 31.95 24.99 2.931
4.93 38.98 51.95 35.98 51.95 19.93 21.98 3.957 21.98 25.94 25.94 15.97 7.987 11.94 15.97 25.94 -5.056
4.935 36.93 45.95 37.96 49.98 19.93 21.98 7.987 19.93 29.97 29.97 21.98 6.961 1.979 -1.026 32.98 -15.02
4.94 36.93 41.99 35.98 41.99 17.95 17.95 9.966 17.95 21.98 24.99 25.94 6.961 -8.061 -1.026 39.94 -21.03
4.945 36.93 41.99 33.93 35.98 14 11.94 5.936 11.94 11.94 15.97 21.98 0 -11.06 -1.026 39.94 -21.03
4.95 34.95 43.97 29.97 35.98 5.936 1.979 -1.026 3.957 9.966 0 7.987 -7.035 -15.02 0.9526 29.97 -23.01
4.955 32.98 48 29.97 37.96 0.9526 -3.004 -17 0.9526 11.94 -12.02 -7.035 -23.01 -19.05 -1.026 14 -27.04
4.96 32.98 49.98 27.99 39.94 -3.004 -11.06 -29.02 -7.035 14 -20 -25.06 -35.03 -21.03 -1.026 0 -31.07
4.965 34.95 49.98 25.94 35.98 -3.004 -13.04 -37.01 -9.013 7.987 -21.03 -33.05 -33.05 -21.03 0.9526 -1.026 -33.05
4.97 36.93 43.97 19.93 27.99 -2.052 -9.013 -31.07 -9.013 -1.026 -13.04 -25.06 -20 -16.05 -6.009 1.979 -25.06
4.975 36.93 33.93 11.94 17.95 5.936 0.9526 -19.05 -5.056 -18.03 -4.03 -5.056 0 -10.04 -7.035 14 -11.06
4.98 28.94 19.93 5.936 11.94 7.987 3.957 -7.035 -3.004 -23.01 0.9526 5.936 14 -1.026 -3.004 21.98 -2.052
4.985 14.95 7.987 -2.052 12.97 5.936 5.936 -5.056 -4.03 -14.07 0.9526 9.966 20.96 1.979 -1.026 15.97 3.957
4.99 0.9526 0.9526 -1.026 14.95 0 1.979 -9.013 -14.07 0 -4.03 1.979 10.99 -5.056 0 -5.056 -2.052
4.995 -13.04 -3.004 -7.035 9.966 -3.004 -3.004 -19.05 -27.04 3.957 -19.05 -13.04 -13.04 -21.03 -9.013 -35.03 -15.02
5 -21.03 -7.035 -8.061 4.983 -11.06 -13.04 -28.07 -28.07 2.931 -21.03 -29.02 -37.01 -35.03 -13.04 -57.01 -32.02
5.005 -25.06 -5.056 -10.04 -1.026 -15.02 -21.03 -32.02 -26.01 0 -22.06 -39.06 -57.01 -38.03 -12.02 -61.04 -42.06
5.01 -29.02 -5.056 -5.056 0.9526 -19.05 -27.04 -33.05 -17 -2.052 -21.03 -43.01 -63.02 -39.06 -11.06 -51 -49.02
5.015 -25.06 -3.004 -1.026 0.9526 -21.03 -29.02 -30.04 -10.04 3.957 -20 -39.06 -60.01 -33.05 -6.009 -41.04 -48.07
5.02 -23.01 0.9526 8.94 11.94 -21.03 -31.07 -28.07 -5.056 8.94 -18.03 -36.05 -55.03 -29.02 -7.035 -37.01 -50.05
5.025 -19.05 0 11.94 17.95 -19.05 -25.06 -27.04 -9.013 3.957 -15.02 -37.01 -51 -25.06 -11.06 -43.01 -51
5.03 -9.013 3.957 11.94 21.98 -11.06 -15.02 -19.05 -9.013 -5.056 -6.009 -32.02 -48.07 -25.06 -23.01 -50.05 -47.04
5.035 0.9526 5.936 3.957 18.98 0.9526 -3.004 -11.06 -10.04 -22.06 1.979 -22.06 -39.06 -18.03 -31.07 -46.02 -41.04
5.04 8.94 7.987 -2.052 11.94 3.957 1.979 -1.026 -9.013 -33.05 5.936 -5.056 -25.06 -9.013 -29.02 -27.04 -21.03
5.045 18.98 7.987 0 5.936 7.987 9.966 0.9526 -5.056 -26.01 14.95 10.99 -6.009 0.9526 -14.07 -1.026 0.9526
5.05 20.96 9.966 -1.026 0.9526 7.987 7.987 1.979 1.979 -14.07 11.94 21.98 7.987 11.94 -4.03 20.96 23.96
5.055 18.98 14 0.9526 -2.052 3.957 1.979 0 1.979 -3.004 0.9526 17.95 15.97 23.96 -2.052 27.99 33.93
5.06 14.95 11.94 0 0.9526 -1.026 1.979 0.9526 8.94 1.979 -8.061 9.966 21.98 31.95 4.983 16.93 33.93
5.065 8.94 5.936 4.983 6.961 -2.052 -1.026 2.931 16.93 -1.026 -15.02 0.9526 14 33.93 10.99 -3.004 23.96
5.07 2.931 0.9526 3.957 11.94 -2.052 0.9526 8.94 18.98 -3.004 -12.02 -12.02 4.983 25.94 11.94 -24.04 9.966
5.075 -1.026 -9.013 4.983 12.97 -2.052 1.979 6.961 12.97 -1.026 -11.06 -17 -3.004 11.94 8.94 -35.03 -1.026
5.08 -3.004 -21.03 0 14.95 -4.03 0 0.9526 2.931 0.9526 -6.009 -19.05 -9.013 1.979 6.961 -28.07 -15.02
5.085 -9.013 -27.04 -1.026 17.95 -11.06 -7.035 -11.06 -7.035 9.966 -9.013 -23.01 -21.03 -13.04 3.957 -19.05 -25.06
5.09 -11.06 -31.07 -5.056 16.93 -19.05 -21.03 -29.02 -14.07 12.97 -15.02 -27.04 -31.07 -23.01 0.9526 -10.04 -35.03
5.095 -11.06 -33.05 -8.061 9.966 -25.06 -33.05 -44.04 -17 10.99 -28.07 -40.01 -42.06 -30.04 1.979 -6.009 -40.01
5.1 -13.04 -29.02 -11.06 5.936 -25.06 -37.01 -45.07 -13.04 5.936 -31.07 -49.02 -51 -31.07 0 -3.004 -37.01
5.105 -3.004 -23.01 -9.013 -1.026 -17 -25.06 -33.05 -8.061 2.931 -18.03 -50.05 -51 -22.06 7.987 0 -25.06
5.11 10.99 -7.035 -7.035 -1.026 -2.052 -3.004 -7.035 -5.056 -1.026 -1.026 -40.01 -42.06 -15.02 14 2.931 -9.013
5.115 31 9.966 -1.026 -1.026 19.93 19.93 11.94 -3.004 -13.04 21.98 -17 -21.03 -5.056 9.966 19.93 1.979
5.12 48.95 29.97 6.961 3.957 39.94 45.95 32.98 0 -18.03 44.99 14.95 5.936 5.936 14 39.94 20.96
5.125 56.94 41.99 16.93 14.95 48 55.98 42.94 4.983 -19.05 60.97 48 38.98 23.96 18.98 63.97 34.95
5.13 50.93 37.96 21.98 23.96 41.99 53.93 37.96 7.987 -15.02 61.99 71.96 63.97 29.97 15.97 82 45.95
5.135 36.93 19.93 18.98 28.94 23.96 35.98 22.94 4.983 -13.04 46.97 77.97 71.96 28.94 12.97 87.93 52.98
5.14 16.93 0 2.931 22.94 1.979 11.94 2.931 0 -22.06 27.99 61.99 61.99 19.93 5.936 75.99 52.98
5.145 2.931 -11.06 -15.02 9.966 -11.06 -7.035 -13.04 -19.05 -39.06 1.979 31.95 35.98 5.936 0 45.95 41.99
5.15 2.931 -15.02 -29.02 0.9526 -21.03 -21.03 -25.06 -34 -48.07 -18.03 0 4.983 -7.035 -4.03 5.936 21.98
5.155 0.9526 -11.06 -29.02 0 -23.01 -25.06 -29.02 -40.01 -46.02 -41.04 -23.01 -16.05 -24.04 -10.04 -23.01 1.979
5.16 0.9526 -5.056 -21.03 0 -21.03 -23.01 -27.04 -37.01 -33.05 -49.02 -35.03 -31.07 -29.02 -9.013 -41.04 -9.013
5.165 -1.026 -3.004 -7.035 9.966 -19.05 -19.05 -27.04 -29.02 -12.02 -46.02 -37.01 -34 -26.01 -1.026 -37.01 -15.02
5.17 0.9526 -5.056 -2.052 23.96 -17 -19.05 -29.02 -27.04 -1.026 -41.04 -29.02 -36.05 -28.07 -4.03 -23.01 -21.03
5.175 -1.026 -9.013 1.979 31.95 -19.05 -25.06 -37.01 -29.02 -5.056 -41.04 -27.04 -43.01 -33.05 -15.02 -11.06 -23.01
5.18 -1.026 -11.06 1.979 33.93 -23.01 -29.02 -43.01 -33.05 -17 -44.04 -31.07 -53.05 -35.03 -18.03 -13.04 -27.04
5.185 -1.026 -7.035 1.979 29.97 -23.01 -31.07 -43.01 -31.07 -25.06 -52.03 -41.04 -59.06 -35.03 -14.07 -25.06 -29.02
5.19 4.983 0.9526 7.987 25.94 -19.05 -25.06 -29.02 -19.05 -23.01 -57.01 -49.02 -61.04 -27.04 -5.056 -37.01 -19.05
5.195 10.99 3.957 15.97 23.96 -9.013 -11.06 -5.056 -2.052 -13.04 -51 -41.04 -49.02 -7.035 9.966 -37.01 -2.052
5.2 12.97 7.987 23.96 23.96 -2.052 1.979 15.97 21.98 0.9526 -32.02 -15.02 -16.05 18.98 33.93 -18.03 29.97
5.205 10.99 7.987 23.96 27.99 7.987 17.95 33.93 36.93 1.979 -3.004 17.95 18.98 48 46.97 8.94 61.99
5.21 4.983 1.979 21.98 31.95 14 25.94 39.94 37.96 5.936 9.966 57.96 55.98 61.99 41.99 39.94 82
5.215 2.931 -1.026 15.97 34.95 14 25.94 33.93 28.94 6.961 16.93 82 82 60.97 27.99 56.94 84.93
5.22 -3.004 -11.06 11.94 34.95 9.966 19.93 23.96 16.93 10.99 12.97 86.98 83.98 51.95 14.95 52.98 70.93
5.225 -9.013 -19.05 7.987 27.99 5.936 14 19.93 11.94 9.966 0 69.98 73.94 35.98 9.966 33.93 48
5.23 -5.056 -23.01 3.957 18.98 1.979 11.94 20.96 11.94 6.961 -6.009 44.99 52.98 21.98 7.987 3.957 26.97
5.235 -1.026 -23.01 -1.026 8.94 3.957 9.966 20.96 9.966 0.9526 -15.02 18.98 29.97 8.94 5.936 -14.07 15.97
5.24 -1.026 -19.05 -3.004 -2.052 3.957 7.987 15.97 1.979 -15.02 -17 0 9.966 0.9526 1.979 -33.05 3.957
5.245 -3.004 -21.03 -8.061 0 0 2.931 0.9526 -8.061 -23.01 -16.05 -12.02 0.9526 -7.035 -1.026 -43.01 -2.052
5.25 -17 -25.06 -14.07 0 -5.056 -8.061 -18.03 -28.07 -26.01 -23.01 -31.07 -22.06 -26.01 -12.02 -59.06 -6.009
5.255 -33.05 -35.03 -13.04 7.987 -21.03 -31.07 -37.01 -41.04 -21.03 -37.01 -55.03 -47.04 -39.06 -23.01 -71.01 -15.02
5.26 -45.07 -41.04 -6.009 18.98 -36.05 -50.05 -47.04 -38.03 -13.04 -50.05 -75.04 -64.04 -35.03 -16.05 -73.06 -19.05
5.265 -45.07 -47.04 -1.026 26.97 -44.04 -58.04 -39.06 -22.06 -2.052 -52.03 -78.04 -72.03 -21.03 -4.03 -62.07 -10.04
5.27 -37.01 -43.01 7.987 29.97 -39.06 -47.04 -21.03 -1.026 3.957 -45.07 -61.04 -61.04 0 3.957 -35.03 0
5.275 -11.06 -30.04 17.95 32.98 -20 -24.04 0.9526 14 15.97 -27.04 -21.03 -29.02 23.96 15.97 -3.004 24.99
5.28 10.99 -20 17.95 29.97 1.979 1.979 19.93 20.96 27.99 -4.03 14.95 2.931 42.94 25.94 21.98 43.97
5.285 26.97 -13.04 14 19.93 9.966 17.95 23.96 15.97 27.99 7.987 48 29.97 49.98 21.98 37.96 53.93
5.29 28.94 -12.02 5.936 10.99 17.95 22.94 23.96 7.987 25.94 8.94 56.94 39.94 46.97 12.97 33.93 48
5.295 18.98 -17 -2.052 -1.026 11.94 14.95 16.93 0.9526 16.93 0.9526 48.95 35.98 31.95 -1.026 21.98 35.98
5.3 0.9526 -29.02 -11.06 -5.056 1.979 0 9.966 -5.056 7.987 -17 29.97 17.95 21.98 -5.056 0 14
5.305 -19.05 -38.03 -7.035 -2.052 0 -6.009 6.961 -4.03 2.931 -24.04 10.99 6.961 12.97 -9.013 -12.02 0
5.31 -35.03 -43.01 -3.004 0.9526 -3.004 -7.035 5.936 -1.026 0.9526 -22.06 -1.026 -2.052 0 -14.07 -30.04 -10.04
5.315 -37.01 -41.04 0.9526 -2.052 0.9526 -4.03 0.9526 -6.009 -14.07 -11.06 -13.04 -14.07 -13.04 -23.01 -49.02 -24.04
5.32 -31.07 -37.01 -1.026 0.9526 0 0.9526 -3.004 -13.04 -31.07 0 -23.01 -28.07 -33.05 -30.04 -62.07 -38.03
5.325 -19.05 -30.04 -9.013 -2.052 0.9526 0 -10.04 -26.01 -38.03 0.9526 -34 -44.04 -50.05 -39.06 -70.05 -53.05
5.33 -15.02 -27.04 -19.05 -13.04 -1.026 -7.035 -15.02 -39.06 -37.01 0.9526 -47.04 -57.01 -67.05 -49.02 -73.06 -63.02
5.335 -13.04 -29.02 -22.06 -16.05 -11.06 -16.05 -14.07 -43.01 -22.06 -11.06 -52.03 -63.02 -69.03 -52.03 -67.05 -63.02
5.34 -17 -36.05 -21.03 -16.05 -19.05 -20 -5.056 -39.06 1.979 -22.06 -54.01 -63.02 -56.06 -40.01 -61.04 -57.01
5.345 -25.06 -47.04 -15.02 -9.013 -23.01 -25.06 0.9526 -27.04 15.97 -25.06 -53.05 -55.03 -37.01 -23.01 -49.02 -41.04
5.35 -27.04 -48.07 -5.056 0 -20 -23.01 3.957 -10.04 27.99 -22.06 -46.02 -44.04 -18.03 -5.056 -37.01 -19.05
5.355 -25.06 -48.07 -2.052 6.961 -14.07 -24.04 0.9526 1.979 25.94 -19.05 -41.04 -35.03 -5.056 -2.052 -19.05 -1.026
5.36 -25.06 -47.04 -2.052 1.979 -11.06 -23.01 -1.026 0.9526 23.96 -13.04 -29.02 -25.06 0.9526 -2.052 1.979 15.97
5.365 -23.01 -51 -8.061 -6.009 -10.04 -20 -15.02 -8.061 20.96 -4.03 -8.061 -8.061 -2.052 0 34.95 32.98
5.37 -23.01 -59.06 -28.07 -26.01 -12.02 -18.03 -21.03 -28.07 11.94 0 7.987 0.9526 -1.026 -10.04 57.96 37.96
5.375 -25.06 -67.05 -53.05 -49.02 -11.06 -15.02 -25.06 -45.07 -2.052 -1.026 23.96 11.94 -7.035 -15.02 65.95 35.98
5.38 -21.03 -71.01 -66.02 -63.02 -9.013 -10.04 -20 -50.05 -6.009 -3.004 25.94 18.98 -8.061 -12.02 49.98 26.97
5.385 -11.06 -67.05 -70.05 -63.02 -7.035 -8.061 -12.02 -48.07 -7.035 -8.061 10.99 11.94 -11.06 -7.035 23.96 5.936
5.39 -11.06 -57.01 -61.04 -59.06 -5.056 -13.04 -9.013 -43.01 0.9526 -21.03 -11.06 -3.004 -23.01 -11.06 -9.013 -13.04
5.395 -15.02 -47.04 -46.02 -44.04 -9.013 -19.05 -12.02 -37.01 14 -35.03 -38.03 -27.04 -40.01 -21.03 -40.01 -35.03
5.4 -27.04 -43.01 -31.07 -30.04 -19.05 -27.04 -22.06 -37.01 26.97 -42.06 -60.01 -48.07 -55.03 -33.05 -61.04 -50.05
5.405 -41.04 -45.07 -19.05 -17 -27.04 -33.05 -29.02 -37.01 31.95 -47.04 -71.01 -61.04 -63.02 -35.03 -65.07 -53.05
5.41 -43.01 -51 -13.04 -6.009 -29.02 -35.03 -29.02 -32.02 31 -44.04 -66.02 -57.01 -55.03 -30.04 -60.01 -38.03
5.415 -35.03 -53.05 -9.013 -2.052 -25.06 -29.02 -21.03 -22.06 26.97 -42.06 -55.03 -39.06 -38.03 -17 -50.05 -18.03
5.42 -21.03 -47.04 -5.056 -1.026 -15.02 -17 -3.004 -5.056 25.94 -37.01 -35.03 -15.02 -9.013 -2.052 -31.07 3.957
5.425 -5.056 -33.05 0.9526 -3.004 -5.056 -3.004 11.94 10.99 29.97 -27.04 -13.04 10.99 19.93 14.95 -6.009 27.99
5.43 0.9526 -21.03 0 -3.004 0.9526 0 27.99 27.99 29.97 -18.03 1.979 34.95 40.96 23.96 14.95 45.95
5.435 -1.026 -17 1.979 -3.004 -2.052 3.957 35.98 37.96 27.99 -15.02 17.95 45.95 45.95 23.96 37.96 53.93
5.44 -7.035 -25.06 0.9526 -5.056 0.9526 0 31.95 35.98 19.93 -7.035 25.94 45.95 41.99 25.94 53.93 53.93
5.445 -17 -43.01 -9.013 -9.013 -3.004 -1.026 17.95 23.96 11.94 0 27.99 37.96 29.97 24.99 55.98 45.95
5.45 -27.04 -61.04 -23.01 -17 -7.035 -9.013 0 3.957 7.987 -1.026 23.96 23.96 7.987 8.94 48 29.97
5.455 -31.07 -71.01 -35.03 -23.01 -9.013 -15.02 -11.06 -15.02 3.957 -9.013 15.97 7.987 -5.056 -11.06 31.95 11.94
5.46 -31.07 -71.01 -39.06 -27.04 -11.06 -15.02 -19.05 -33.05 3.957 -10.04 5.936 0.9526 -16.05 -28.07 11.94 -1.026
5.465 -27.04 -61.04 -35.03 -25.06 -9.013 -11.06 -17 -35.03 9.966 -8.061 0.9526 -6.009 -20 -33.05 -1.026 -15.02
5.47 -21.03 -45.07 -23.01 -15.02 -5.056 -7.035 -7.035 -29.02 17.95 -5.056 -5.056 -11.06 -19.05 -33.05 -23.01 -23.01
5.475 -15.02 -33.05 -7.035 -3.004 0.9526 0.9526 0 -13.04 29.97 -2.052 -7.035 -10.04 -16.05 -23.01 -33.05 -21.03
5.48 -9.013 -23.01 -2.052 -1.026 3.957 0 9.966 -2.052 36.93 0 -5.056 -4.03 -6.009 -6.009 -29.02 -13.04
5.485 -7.035 -23.01 0 -2.052 9.966 5.936 11.94 5.936 29.97 0 0 5.936 -2.052 0 -11.06 0
5.49 -5.056 -25.06 -2.052 -2.052 14 9.966 9.966 5.936 10.99 1.979 15.97 22.94 9.966 0 10.99 17.95
5.495 -9.013 -27.04 -3.004 -12.02 14 9.966 14 3.957 -12.02 3.957 29.97 41.99 14 -2.052 40.96 31.95
5.5 -11.06 -25.06 -5.056 -15.02 15.97 15.97 19.93 7.987 -29.02 7.987 43.97 55.98 25.94 -5.056 61.99 39.94
5.505 -7.035 -23.01 -2.052 -14.07 17.95 21.98 27.99 15.97 -22.06 20.96 51.95 69.98 36.93 1.979 66.98 43.97
5.51 0.9526 -15.02 1.979 -10.04 23.96 31 37.96 25.94 -1.026 31.95 58.99 80.97 40.96 5.936 60.97 37.96
5.515 0.9526 -7.035 1.979 -7.035 25.94 35.98 43.97 35.98 14 33.93 55.98 79.95 37.96 7.987 49.98 27.99
5.52 4.983 0 6.961 -3.004 27.99 34.95 39.94 33.93 21.98 31.95 48.95 77.97 28.94 6.961 43.97 17.95
5.525 4.983 5.936 6.961 -5.056 21.98 26.97 32.98 25.94 16.93 23.96 32.98 65.95 14 0 35.98 1.979
5.53 0.9526 9.966 5.936 -9.013 9.966 11.94 21.98 11.94 0 9.966 11.94 45.95 -7.035 -19.05 21.98 -11.06
5.535 -11.06 4.983 3.957 -13.04 0.9526 -1.026 10.99 0.9526 -3.004 -3.004 -6.009 22.94 -24.04 -31.07 2.931 -27.04
5.54 -27.04 0 0.9526 -18.03 -2.052 -7.035 6.961 0 0 -18.03 -25.06 6.961 -28.07 -30.04 -16.05 -37.01
5.545 -41.04 -13.04 -5.056 -23.01 -5.056 -13.04 1.979 -2.052 5.936 -25.06 -33.05 0 -23.01 -13.04 -37.01 -35.03
5.55 -45.07 -20 -10.04 -25.06 -1.026 -10.04 0 3.957 18.98 -24.04 -31.07 3.957 -6.009 1.979 -46.02 -26.01
5.555 -43.01 -28.07 -17 -26.01 0.9526 -6.009 -2.052 6.961 25.94 -22.06 -24.04 7.987 5.936 16.93 -44.04 -9.013
5.56 -41.04 -32.02 -19.05 -26.01 -3.004 -5.056 1.979 7.987 23.96 -13.04 -16.05 14.95 12.97 18.98 -29.02 0.9526
5.565 -37.01 -34 -21.03 -26.01 -3.004 -4.03 -1.026 4.983 25.94 -2.052 -8.061 25.94 15.97 16.93 -12.02 5.936
5.57 -37.01 -40.01 -22.06 -29.02 -5.056 -6.009 -1.026 0 24.99 1.979 1.979 29.97 10.99 7.987 0.9526 8.94
5.575 -35.03 -45.07 -29.02 -37.01 -7.035 -9.013 0.9526 0.9526 21.98 0.9526 0 33.93 5.936 5.936 11.94 9.966
5.58 -29.02 -46.02 -33.05 -44.04 -8.061 -9.013 -2.052 -2.052 18.98 1.979 1.979 34.95 8.94 12.97 16.93 7.987
5.585 -25.06 -50.05 -35.03 -47.04 -8.061 -14.07 -10.04 -6.009 11.94 0.9526 0 31 6.961 17.95 12.97 3.957
5.59 -27.04 -51 -37.01 -49.02 -15.02 -23.01 -21.03 -11.06 3.957 -11.06 -13.04 17.95 -2.052 9.966 1.979 0.9526
5.595 -31.07 -55.03 -32.02 -41.04 -23.01 -30.04 -32.02 -15.02 -1.026 -23.01 -26.01 3.957 -9.013 0 -3.004 -7.035
5.6 -41.04 -57.01 -22.06 -29.02 -31.07 -40.01 -33.05 -13.04 -2.052 -31.07 -38.03 -1.026 -18.03 -14.07 -15.02 -13.04
5.605 -47.04 -55.03 -13.04 -19.05 -37.01 -45.07 -25.06 -7.035 -2.052 -39.06 -47.04 -9.013 -21.03 -17 -25.06 -13.04
5.61 -41.04 -49.02 -2.052 -8.061 -35.03 -42.06 -11.06 -2.052 1.979 -37.01 -50.05 -10.04 -16.05 -13.04 -30.04 -5.056
5.615 -37.01 -37.01 1.979 -8.061 -27.04 -37.01 0.9526 1.979 4.983 -34 -49.02 -9.013 -8.061 -8.061 -34 -3.004
5.62 -29.02 -27.04 -3.004 -11.06 -19.05 -29.02 0.9526 0.9526 5.936 -25.06 -49.02 -7.035 0.9526 0.9526 -37.01 -1.026
5.625 -21.03 -23.01 -11.06 -18.03 -15.02 -23.01 -7.035 -7.035 8.94 -9.013 -45.07 -1.026 1.979 0.9526 -34 -1.026
5.63 -19.05 -25.06 -17 -24.04 -13.04 -21.03 -17 -15.02 12.97 -3.004 -37.01 -1.026 3.957 1.979 -26.01 -1.026
5.635 -23.01 -29.02 -19.05 -27.04 -13.04 -19.05 -19.05 -13.04 19.93 -1.026 -21.03 9.966 3.957 0 -17 0
5.64 -23.01 -29.02 -13.04 -22.06 -15.02 -17 -13.04 -3.004 31 0.9526 -3.004 22.94 10.99 6.961 -1.026 14
5.645 -29.02 -27.04 -3.004 -17 -15.02 -15.02 -1.026 5.936 37.96 1.979 7.987 36.93 20.96 14 9.966 27.99
5.65 -33.05 -25.06 0.9526 -17 -13.04 -13.04 5.936 14 37.96 0 17.95 41.99 23.96 17.95 21.98 39.94
5.655 -37.01 -23.01 -3.004 -21.03 -11.06 -11.06 7.987 9.966 27.99 2.931 19.93 42.94 26.97 14 27.99 43.97
5.66 -37.01 -23.01 -13.04 -27.04 -9.013 -9.013 1.979 5.936 9.966 4.983 17.95 37.96 26.97 8.94 33.93 41.99
5.665 -29.02 -23.01 -19.05 -29.02 -7.035 -9.013 -3.004 0 -3.004 7.987 14 33.93 23.96 3.957 29.97 33.93
5.67 -13.04 -15.02 -17 -23.01 -7.035 -11.06 -9.013 -2.052 -13.04 5.936 5.936 25.94 15.97 -2.052 21.98 25.94
5.675 2.931 0.9526 -7.035 -13.04 -7.035 -11.06 -9.013 -2.052 -13.04 1.979 0.9526 15.97 1.979 -14.07 7.987 11.94
5.68 16.93 11.94 3.957 -1.026 -7.035 -9.013 -5.056 -2.052 -5.056 -9.013 -11.06 5.936 -7.035 -23.01 -1.026 0.9526
5.685 18.98 25.94 15.97 1.979 -5.056 -7.035 -2.052 0.9526 1.979 -13.04 -21.03 0.9526 -19.05 -27.04 -11.06 -15.02
5.69 8.94 31.95 21.98 3.957 -5.056 -5.056 5.936 -1.026 11.94 -16.05 -23.01 -2.052 -26.01 -27.04 -13.04 -25.06
5.695 -3.004 31.95 23.96 5.936 -3.004 -1.026 14 1.979 23.96 -15.02 -15.02 -1.026 -17 -23.01 -8.061 -21.03
5.7 -13.04 31.95 23.96 9.966 -1.026 0.9526 17.95 5.936 37.96 -11.06 -2.052 11.94 1.979 -5.056 -2.052 -5.056
5.705 -15.02 33.93 25.94 15.97 0.9526 -2.052 21.98 22.94 54.96 0 17.95 33.93 36.93 15.97 12.97 16.93
5.71 -5.056 39.94 31.95 24.99 0 3.957 23.96 44.99 60.97 6.961 34.95 45.95 65 36.93 26.97 40.96
5.715 6.961 51.95 39.94 31.95 5.936 11.94 27.99 59.94 55.98 14 48 53.93 77.97 45.95 35.98 49.98
5.72 22.94 63.97 50.93 40.96 17.95 25.94 36.93 71.96 40.96 26.97 54.96 56.94 80.97 51.95 39.94 48.95
5.725 31 79.95 58.99 44.99 31.95 43.97 48.95 71.96 27.99 39.94 58.99 55.98 73.94 46.97 39.94 34.95
5.73 34.95 91.96 65.95 45.95 43.97 55.98 59.94 67.93 19.93 48 57.96 51.95 59.94 35.98 35.98 21.98
5.735 34.95 99.95 70.93 50.93 49.98 61.99 68.95 66.98 25.94 49.98 55.98 46.97 52.98 31 27.99 14
5.74 36.93 106 72.98 53.93 45.95 58.99 72.98 70.93 40.96 51.95 45.95 41.99 50.93 31 15.97 7.987
5.745 36.93 104 69.98 51.95 41.99 48 67.93 73.94 53.93 45.95 29.97 35.98 51.95 35.98 7.987 3.957
5.75 40.96 103 70.93 55.98 33.93 40.96 61.99 75.99 59.94 43.97 18.98 26.97 52.98 37.96 0 -1.026
5.755 44.99 103 73.94 58.99 36.93 40.96 55.98 76.94 50.93 37.96 10.99 20.96 46.97 32.98 0 -3.004
5.76 52.98 107.9 77.97 63.97 41.99 49.98 57.96 69.98 33.93 39.94 15.97 17.95 39.94 31.95 0.9526 -11.06
5.765 68.95 123 87.93 69.98 52.98 65 68.95 62.95 20.96 51.95 27.99 24.99 33.93 31 3.957 -16.05
5.77 88.96 141 96.95 74.96 62.95 80.97 82 60.97 14 62.95 40.96 33.93 32.98 29.97 10.99 -9.013
5.775 96.95 150 99.95 73.94 67.93 83.98 93.94 59.94 14 63.97 49.98 39.94 31.95 27.99 15.97 0.9526
5.78 92.99 146 93.94 72.98 62.95 79.95 97.97 66.98 27.99 60.97 57.96 50.93 41.99 33.93 22.94 15.97
5.785 70.93 123 84.93 66.98 51.95 66.98 93.94 68.95 46.97 53.93 59.94 59.94 49.98 43.97 27.99 32.98
5.79 44.99 93.94 65.95 57.96 37.96 51.95 75.99 67.93 55.98 43.97 57.96 67.93 57.96 43.97 37.96 45.95
5.795 24.99 70.93 54.96 50.93 33.93 43.97 57.96 62.95 57.96 37.96 55.98 70.93 58.99 43.97 48 48
5.8 18.98 62.95 46.97 40.96 26.97 41.99 46.97 50.93 52.98 36.93 50.93 65.95 54.96 42.94 58.99 43.97
5.805 31 68.95 46.97 36.93 31 43.97 43.97 42.94 44.99 41.99 42.94 53.93 43.97 33.93 62.95 27.99
5.81 48.95 84.93 52.98 38.98 36.93 51.95 46.97 36.93 36.93 42.94 31 39.94 24.99 20.96 56.94 3.957
5.815 60.97 99 60.97 42.94 39.94 57.96 53.93 32.98 31.95 37.96 17.95 22.94 4.983 5.936 43.97 -13.04
5.82 58.99 101.9 65.95 49.98 37.96 53.93 57.96 37.96 23.96 27.99 5.936 11.94 -1.026 0 25.94 -31.07
5.825 46.97 94.97 68.95 54.96 35.98 48.95 59.94 40.96 12.97 19.93 1.979 5.936 -3.004 5.936 14 -36.05
5.83 34.95 83.98 63.97 50.93 26.97 41.99 51.95 42.94 0 8.94 0 0.9526 1.979 7.987 0.9526 -35.03
5.835 20.96 63.97 53.93 39.94 21.98 33.93 39.94 33.93 0.9526 -2.052 0.9526 -3.004 0.9526 1.979 -1.026 -35.03
5.84 22.94 52.98 42.94 31 18.98 31 23.96 18.98 3.957 0 0 -7.035 -2.052 0 -6.009 -29.02
5.845 26.97 42.94 27.99 21.98 18.98 26.97 10.99 -1.026 12.97 0.9526 -5.056 -18.03 -11.06 -2.052 -5.056 -22.06
5.85 32.98 37.96 15.97 19.93 15.97 21.98 0 -17 21.98 -2.052 -9.013 -25.06 -21.03 -13.04 -9.013 -15.02
5.855 32.98 31 11.94 20.96 12.97 16.93 -3.004 -24.04 22.94 0.9526 -14.07 -24.04 -22.06 -16.05 -6.009 -1.026
5.86 26.97 26.97 10.99 17.95 1.979 8.94 -5.056 -21.03 15.97 -3.004 -14.07 -20 -12.02 -11.06 -3.004 2.931
5.865 12.97 19.93 7.987 9.966 -1.026 3.957 -1.026 -9.013 7.987 -9.013 -11.06 -11.06 -2.052 -1.026 0.9526 3.957
5.87 0.9526 14 8.94 0 -1.026 2.931 1.979 -1.026 0.9526 -11.06 -5.056 -1.026 8.94 1.979 -2.052 0
5.875 -3.004 11.94 4.983 -12.02 -2.052 5.936 0 2.931 0.9526 -17 1.979 0.9526 8.94 0 5.936 0.9526
5.88 -7.035 5.936 -2.052 -23.01 1.979 1.979 -7.035 0.9526 0.9526 -13.04 0.9526 1.979 1.979 -1.026 7.987 -7.035
5.885 -7.035 0 0 -20 0 -1.026 -16.05 -11.06 0.9526 -5.056 -4.03 1.979 -9.013 -4.03 9.966 -14.07
5.89 -9.013 -5.056 -4.03 -12.02 -5.056 -19.05 -32.02 -29.02 -1.026 -8.061 -20 -14.07 -26.01 -9.013 5.936 -22.06
5.895 -17 -15.02 -5.056 -5.056 -21.03 -39.06 -51 -45.07 -2.052 -21.03 -43.01 -37.01 -45.07 -17 -1.026 -31.07
5.9 -23.01 -25.06 -7.035 0 -35.03 -53.05 -61.04 -50.05 4.983 -34 -66.02 -57.01 -56.06 -20 -16.05 -42.06
5.905 -23.01 -29.02 -7.035 -1.026 -39.06 -55.03 -63.02 -48.07 6.961 -44.04 -79.07 -67.05 -56.06 -21.03 -30.04 -48.07
5.91 -13.04 -29.02 -9.013 -5.056 -33.05 -47.04 -55.03 -45.07 7.987 -47.04 -79.07 -71.01 -55.03 -23.01 -43.01 -49.02
5.915 -1.026 -21.03 -9.013 -11.06 -23.01 -33.05 -45.07 -38.03 5.936 -41.04 -65.07 -60.01 -47.04 -23.01 -42.06 -39.06
5.92 4.983 -13.04 -9.013 -13.04 -13.04 -21.03 -33.05 -35.03 1.979 -32.02 -45.07 -44.04 -32.02 -13.04 -31.07 -25.06
5.925 8.94 -9.013 -11.06 -15.02 -9.013 -15.02 -27.04 -35.03 -1.026 -23.01 -23.01 -27.04 -19.05 -3.004 -17 -13.04
5.93 2.931 -11.06 -15.02 -19.05 -9.013 -17 -25.06 -35.03 -7.035 -21.03 -7.035 -13.04 -11.06 0.9526 -9.013 -7.035
5.935 -3.004 -15.02 -25.06 -27.04 -13.04 -21.03 -29.02 -39.06 -13.04 -30.04 -1.026 -9.013 -13.04 -2.052 -9.013 -9.013
5.94 -11.06 -23.01 -35.03 -35.03 -15.02 -23.01 -33.05 -41.04 -15.02 -37.01 -3.004 -11.06 -14.07 -10.04 -17 -15.02
5.945 -13.04 -27.04 -39.06 -37.01 -15.02 -21.03 -35.03 -43.01 -11.06 -47.04 -7.035 -15.02 -21.03 -17 -27.04 -15.02
5.95 -7.035 -25.06 -33.05 -29.02 -13.04 -17 -31.07 -41.04 -5.056 -46.02 -9.013 -20 -20 -23.01 -31.07 -11.06
5.955 0.9526 -13.04 -13.04 -13.04 -11.06 -11.06 -19.05 -31.07 0.9526 -43.01 -7.035 -22.06 -16.05 -22.06 -29.02 -5.056
5.96 12.97 0 5.936 0 -5.056 -1.026 0.9526 -13.04 1.979 -33.05 -3.004 -19.05 -7.035 -9.013 -21.03 0.9526
5.965 20.96 19.93 29.97 15.97 -1.026 1.979 15.97 4.983 6.961 -22.06 -2.052 -8.061 3.957 1.979 -14.07 -1.026
5.97 20.96 31.95 41.99 26.97 0 9.966 29.97 24.99 12.97 -17 1.979 1.979 11.94 12.97 -20 -7.035
5.975 10.99 33.93 39.94 25.94 1.979 11.94 29.97 37.96 17.95 -21.03 0 -2.052 11.94 14 -27.04 -11.06
5.98 -1.026 25.94 32.98 20.96 1.979 7.987 26.97 38.98 20.96 -26.01 0 0.9526 14.95 15.97 -30.04 -10.04
5.985 -3.004 15.97 22.94 12.97 0 5.936 16.93 34.95 20.96 -28.07 -4.03 -2.052 14 21.98 -24.04 -4.03
5.99 -3.004 11.94 15.97 3.957 0 3.957 11.94 29.97 15.97 -29.02 -9.013 -9.013 7.987 17.95 -13.04 0.9526
5.995 4.983 18.98 18.98 0.9526 1.979 5.936 18.98 31.95 11.94 -26.01 -4.03 -11.06 7.987 18.98 0.9526 -1.026
6 18.98 31 26.97 0.9526 5.936 15.97 31 33.93 9.966 -20 0.9526 -5.056 8.94 19.93 0 -1.026
6.005 22.94 37.96 29.97 1.979 15.97 23.96 37.96 37.96 11.94 -11.06 9.966 0 14 21.98 1.979 0
6.01 22.94 34.95 29.97 3.957 21.98 29.97 39.94 38.98 16.93 0 23.96 15.97 20.96 25.94 2.931 7.987
6.015 12.97 18.98 25.94 3.957 23.96 29.97 29.97 35.98 18.98 -1.026 27.99 29.97 26.97 26.97 4.983 15.97
6.02 -1.026 -2.052 15.97 3.957 21.98 27.99 17.95 27.99 17.95 5.936 27.99 31.95 31.95 33.93 11.94 27.99
6.025 -3.004 -13.04 12.97 1.979 17.95 19.93 8.94 23.96 12.97 11.94 28.94 32.98 34.95 43.97 24.99 31
6.03 -9.013 -23.01 15.97 0.9526 10.99 9.966 1.979 18.98 1.979 8.94 21.98 20.96 26.97 39.94 26.97 23.96
6.035 -9.013 -21.03 11.94 0 3.957 5.936 -2.052 11.94 -7.035 -2.052 7.987 3.957 9.966 27.99 19.93 7.987
6.04 -5.056 -16.05 9.966 0 2.931 0.9526 0 4.983 -16.05 -7.035 1.979 -9.013 -3.004 15.97 11.94 -3.004
6.045 -5.056 -14.07 0 0.9526 -2.052 1.979 -6.009 1.979 -27.04 -13.04 -10.04 -24.04 -12.02 4.983 -2.052 -14.07
6.05 -7.035 -20 -5.056 -5.056 1.979 -3.004 -12.02 -8.061 -29.02 -18.03 -21.03 -39.06 -19.05 -1.026 -3.004 -24.04
6.055 -15.02 -26.01 -21.03 -15.02 -5.056 -3.004 -20 -14.07 -27.04 -21.03 -28.07 -44.04 -20 -1.026 -9.013 -26.01
6.06 -21.03 -36.05 -31.07 -25.06 -10.04 -12.02 -24.04 -16.05 -18.03 -19.05 -28.07 -45.07 -17 7.987 -9.013 -27.04
6.065 -31.07 -43.01 -41.04 -37.01 -17 -23.01 -27.04 -19.05 -13.04 -15.02 -23.01 -37.01 -13.04 14 -9.013 -23.01
6.07 -35.03 -47.04 -45.07 -46.02 -18.03 -27.04 -29.02 -20 -13.04 -12.02 -11.06 -28.07 -12.02 9.966 -2.052 -13.04
6.075 -37.01 -45.07 -56.06 -53.05 -19.05 -27.04 -28.07 -23.01 -20 -13.04 1.979 -18.03 -16.05 5.936 6.961 1.979
6.08 -37.01 -49.02 -63.02 -61.04 -15.02 -23.01 -25.06 -29.02 -35.03 -9.013 3.957 -9.013 -15.02 0 17.95 15.97
6.085 -37.01 -52.03 -65.07 -63.02 -13.04 -15.02 -21.03 -25.06 -48.07 0 9.966 -1.026 -8.061 0.9526 28.94 29.97
6.09 -41.04 -60.01 -67.05 -61.04 -11.06 -15.02 -13.04 -22.06 -60.01 0 3.957 -1.026 -2.052 1.979 24.99 33.93
6.095 -51 -63.02 -65.07 -57.01 -13.04 -17 -15.02 -23.01 -65.07 -7.035 -3.004 -5.056 -3.004 -2.052 7.987 23.96
6.1 -55.03 -62.07 -54.01 -48.07 -17 -21.03 -20 -23.01 -57.01 -14.07 -12.02 -11.06 -6.009 0.9526 -5.056 0.9526
6.105 -55.03 -52.03 -42.06 -38.03 -19.05 -27.04 -24.04 -19.05 -39.06 -20 -20 -19.05 -17 0 -15.02 -18.03
6.11 -45.07 -37.01 -29.02 -29.02 -17 -23.01 -23.01 -19.05 -25.06 -27.04 -23.01 -25.06 -29.02 -7.035 -17 -39.06
6.115 -29.02 -21.03 -18.03 -20 -15.02 -15.02 -12.02 -14.07 -12.02 -26.01 -16.05 -26.01 -33.05 -7.035 -6.009 -46.02
6.12 -19.05 -11.06 -16.05 -20 -11.06 -5.056 0 -4.03 -8.061 -20 -6.009 -21.03 -28.07 -5.056 0.9526 -38.03
6.125 -15.02 -9.013 -17 -27.04 -7.035 0.9526 3.957 0.9526 -11.06 -11.06 0 -13.04 -19.05 -2.052 7.987 -21.03
6.13 -17 -15.02 -19.05 -34 -1.026 0 9.966 2.931 -20 -5.056 14 -5.056 -7.035 6.961 10.99 0.9526
6.135 -23.01 -17 -15.02 -37.01 -2.052 1.979 9.966 8.94 -26.01 -2.052 21.98 1.979 1.979 11.94 8.94 15.97
6.14 -25.06 -11.06 -5.056 -27.04 3.957 5.936 15.97 19.93 -27.04 -2.052 31.95 3.957 15.97 19.93 7.987 31.95
6.145 -19.05 -1.026 3.957 -13.04 9.966 14 23.96 35.98 -23.01 9.966 39.94 18.98 32.98 32.98 15.97 43.97
6.15 -9.013 3.957 14 0 14 19.93 35.98 48 -11.06 18.98 48 38.98 44.99 35.98 29.97 55.98
6.155 0.9526 5.936 15.97 9.966 15.97 23.96 41.99 51.95 0.9526 25.94 55.98 53.93 51.95 35.98 48 67.93
6.16 -1.026 0 5.936 7.987 14 21.98 37.96 45.95 1.979 33.93 59.94 63.97 52.98 36.93 61.99 71.96
6.165 -1.026 -7.035 -3.004 -2.052 9.966 17.95 25.94 31.95 5.936 32.98 55.98 65.95 43.97 28.94 63.97 63.97
6.17 -3.004 -11.06 -13.04 -9.013 5.936 14 14 19.93 3.957 25.94 43.97 51.95 23.96 11.94 51.95 43.97
6.175 0.9526 -7.035 -15.02 -15.02 1.979 11.94 7.987 15.97 1.979 11.94 25.94 29.97 3.957 -1.026 29.97 14
6.18 6.961 1.979 -7.035 -15.02 0 11.94 11.94 19.93 -2.052 0.9526 9.966 10.99 -6.009 -9.013 5.936 -11.06
6.185 16.93 17.95 -2.052 -7.035 0 11.94 15.97 26.97 -4.03 -1.026 -2.052 0 -11.06 -15.02 -6.009 -31.07
6.19 22.94 23.96 3.957 -1.026 -2.052 9.966 15.97 25.94 -17 -2.052 0.9526 -9.013 -15.02 -13.04 -13.04 -39.06
6.195 20.96 21.98 1.979 1.979 -2.052 5.936 9.966 18.98 -32.02 1.979 0 -11.06 -14.07 -7.035 -4.03 -30.04
6.2 14.95 9.966 0 -2.052 0 3.957 -1.026 8.94 -42.06 10.99 11.94 -9.013 -6.009 4.983 8.94 -10.04
6.205 6.961 0.9526 -13.04 -9.013 0 3.957 -3.004 -2.052 -45.07 19.93 23.96 0.9526 1.979 19.93 27.99 5.936
6.21 0.9526 -11.06 -22.06 -16.05 1.979 5.936 -2.052 1.979 -33.05 26.97 38.98 8.94 14.95 31.95 45.95 28.94
6.215 2.931 -19.05 -28.07 -22.06 0 5.936 0 -1.026 -21.03 26.97 46.97 23.96 21.98 28.94 51.95 46.97
6.22 -1.026 -21.03 -35.03 -27.04 -2.052 1.979 -1.026 -3.004 -13.04 25.94 45.95 29.97 27.99 17.95 48 49.98
6.225 -1.026 -21.03 -35.03 -31.07 -1.026 0.9526 -3.004 -8.061 -12.02 25.94 40.96 28.94 24.99 4.983 38.98 51.95
6.23 -5.056 -17 -35.03 -35.03 -3.004 -1.026 -11.06 -16.05 -18.03 24.99 28.94 15.97 5.936 -6.009 28.94 43.97
6.235 -5.056 -13.04 -37.01 -35.03 0.9526 -1.026 -15.02 -23.01 -31.07 17.95 19.93 1.979 -5.056 -17 17.95 31.95
6.24 0.9526 -9.013 -34 -32.02 0 0 -9.013 -22.06 -42.06 14.95 11.94 0 -16.05 -16.05 7.987 24.99
6.245 -1.026 -9.013 -34 -31.07 1.979 1.979 0 -17 -50.05 10.99 7.987 -3.004 -20 -12.02 0.9526 12.97
6.25 -7.035 -15.02 -39.06 -29.02 -2.052 -2.052 0 -21.03 -59.06 3.957 0 -7.035 -27.04 -15.02 -7.035 0.9526
6.255 -19.05 -26.01 -41.04 -29.02 -9.013 -11.06 -3.004 -27.04 -63.02 -2.052 -8.061 -16.05 -39.06 -24.04 -24.04 -18.03
6.26 -33.05 -38.03 -46.02 -34 -25.06 -28.07 -16.05 -35.03 -62.07 -10.04 -27.04 -34 -56.06 -33.05 -40.01 -39.06
6.265 -49.02 -53.05 -49.02 -43.01 -37.01 -45.07 -35.03 -45.07 -51 -21.03 -45.07 -53.05 -71.01 -41.04 -53.05 -55.03
6.27 -51 -62.07 -51 -49.02 -43.01 -50.05 -44.04 -50.05 -37.01 -27.04 -51 -63.02 -74.01 -40.01 -42.06 -55.03
6.275 -53.05 -72.03 -55.03 -54.01 -38.03 -50.05 -49.02 -50.05 -27.04 -28.07 -41.04 -61.04 -63.02 -32.02 -16.05 -38.03
6.28 -53.05 -83.02 -61.04 -59.06 -33.05 -45.07 -49.02 -47.04 -25.06 -23.01 -27.04 -51 -45.07 -21.03 9.966 -13.04
6.285 -49.02 -88.01 -67.05 -56.06 -26.01 -39.06 -43.01 -42.06 -32.02 -8.061 -5.056 -31.07 -19.05 -9.013 36.93 7.987
6.29 -47.04 -88.01 -68 -50.05 -23.01 -35.03 -39.06 -39.06 -47.04 -3.004 3.957 -18.03 -8.061 -8.061 42.94 24.99
6.295 -47.04 -78.04 -59.06 -40.01 -22.06 -30.04 -35.03 -32.02 -59.06 -3.004 10.99 -14.07 -8.061 -14.07 27.99 26.97
6.3 -43.01 -62.07 -46.02 -24.04 -23.01 -29.02 -25.06 -23.01 -61.04 -13.04 5.936 -12.02 -10.04 -14.07 2.931 16.93
6.305 -39.06 -44.04 -35.03 -16.05 -24.04 -25.06 -19.05 -12.02 -48.07 -22.06 -1.026 -15.02 -13.04 -11.06 -16.05 7.987
