    T[sec] Fp1 Fp2  F7  F3  F4  F8  T3  C3  C4  T4  T5  P3  P4  T6  O1  O2
41 318.2 318.2 318.2 318.2 318.2 318.2 318.2 318.2 318.2 318.2 318.2 318.2 318.2 318.2 318.2 318.2
0.625 -65.09 -41.01 -1.087 -11.03 -73.01 -57.01 3.884 0 -21.13 -43.03 3.884 23.92 -25.01 3.884 39.92 79.85
0.63 -85.13 -57.01 -4.039 -18.02 -79.07 -59.03 5.903 -14.14 -47.07 -50.02 9.942 6.991 -47.07 18.95 56.86 110
0.635 -92.12 -65.09 0 -17.09 -78.14 -58.1 9.942 -25.01 -48 -37.13 19.88 -1.087 -50.02 30.91 69.91 126
0.64 -89.02 -71.15 -2.02 -9.01 -75.03 -59.03 13.98 -33.09 -39.15 -25.01 21.9 -11.03 -41.01 35.89 73.95 124
0.645 -82.02 -67.11 1.864 -5.127 -74.1 -57.01 11.96 -40.08 -30.14 -20.04 15.85 -28.12 -32 32.93 69.91 110.9
0.65 -76.12 -63.07 2.952 -7.146 -72.08 -55.15 5.903 -56.08 -28.12 -27.03 3.884 -47.07 -34.02 10.87 50.95 84.98
0.655 -69.13 -55.15 -2.02 -7.146 -61.05 -51.11 0 -67.11 -33.09 -29.05 0.9321 -67.11 -41.01 -19.11 27.96 47.85
0.66 -50.02 -33.09 2.952 -5.127 -38.06 -36.04 1.864 -66.02 -31.07 -19.11 0 -71.15 -37.13 -53.13 4.971 10.87
0.665 -23.15 -5.127 10.87 0 -7.146 -18.02 7.923 -54.06 -27.03 -8.078 7.923 -68.04 -23.15 -83.11 -8.078 -16
0.67 3.884 20.97 19.88 15.85 17.87 -7.146 17.87 -37.13 -19.11 0 19.88 -55.15 -9.01 -93.05 -25.01 -51.11
0.675 31.85 40.86 26.88 25.94 39.92 -6.059 21.9 -21.13 -12.12 0 19.88 -42.1 -1.087 -83.11 -40.08 -77.05
0.68 47.85 48.94 20.97 27.96 45.98 -14.14 13.98 -21.13 -14.14 -24.08 7.923 -38.06 -1.087 -57.01 -60.12 -97.09
0.685 55.93 44.9 7.923 15.85 43.96 -23.15 -2.02 -31.07 -25.01 -51.11 -11.03 -39.15 -9.01 -27.03 -83.11 -105
0.69 53.91 38.99 0.9321 1.864 41.94 -19.11 -17.09 -40.08 -28.12 -60.12 -31.07 -38.06 -18.02 -5.127 -99.11 -91.03
0.695 53.91 36.97 -5.127 -3.107 49.87 -5.127 -27.03 -36.04 -24.08 -41.01 -41.01 -25.01 -14.14 0 -101.1 -59.03
0.7 55.93 40.86 -3.107 -5.127 63.85 3.884 -27.03 -23.15 -7.146 -3.107 -39.15 -3.107 0.9321 0.9321 -89.02 -17.09
0.705 57.95 44.9 0.9321 -3.107 69.91 9.942 -21.13 -2.02 9.942 27.96 -31.07 19.88 13.98 -9.01 -69.13 17.87
0.71 49.87 40.86 -1.087 -5.127 57.95 0 -15.07 0.9321 23.92 37.91 -25.01 29.98 21.9 -17.09 -53.13 43.96
0.715 33.87 26.88 -9.01 -13.05 27.96 -15.07 -17.09 0.9321 17.87 15.85 -23.15 23.92 7.923 -13.05 -43.03 51.89
0.72 11.96 6.991 -19.11 -25.01 -3.107 -37.13 -21.13 -15.07 -5.127 -19.11 -25.01 5.903 -13.05 0.9321 -37.13 47.85
0.725 -1.087 -9.01 -25.01 -31.07 -29.05 -49.09 -25.01 -33.09 -35.11 -53.13 -21.13 -7.146 -39.15 11.96 -31.07 41.94
0.73 -9.01 -21.13 -23.15 -25.01 -35.11 -53.13 -19.11 -41.01 -55.15 -61.05 -13.05 -17.09 -47.07 21.9 -19.11 41.94
0.735 -9.01 -23.15 -15.07 -13.05 -21.13 -49.09 -5.127 -43.03 -53.13 -39.15 -1.087 -15.07 -37.13 19.88 -5.127 53.91
0.74 -7.146 -17.09 -7.146 -1.087 -5.127 -45.05 3.884 -47.07 -37.13 -7.146 5.903 -13.05 -21.13 9.942 1.864 67.89
0.745 -9.01 -11.03 -5.127 -2.02 -2.02 -45.05 9.942 -57.01 -21.13 9.942 9.942 -17.09 -13.05 0 11.96 75.97
0.75 -19.11 -11.03 -9.01 -1.087 -5.127 -51.11 9.942 -77.05 -17.09 5.903 9.942 -31.07 -25.01 -3.107 13.98 69.91
0.755 -33.09 -17.09 -15.07 -9.01 -23.15 -59.03 1.864 -98.03 -31.07 -17.09 5.903 -47.07 -49.09 -3.107 11.96 49.87
0.76 -45.05 -25.01 -15.07 -19.11 -43.03 -67.11 -1.087 -108.1 -53.13 -51.11 1.864 -59.03 -73.01 -1.087 0 20.97
0.765 -51.11 -31.07 -9.01 -21.13 -51.11 -71.15 -5.127 -107 -71.15 -75.03 1.864 -61.05 -85.13 -1.087 -13.05 -7.146
0.77 -47.07 -29.05 -2.02 -17.09 -47.07 -71.15 -1.087 -92.12 -75.03 -81.09 1.864 -57.01 -81.09 -4.039 -33.09 -38.06
0.775 -35.11 -19.11 9.942 -5.127 -33.09 -67.11 0 -73.01 -67.11 -71.15 3.884 -53.13 -65.09 -10.1 -51.11 -70.06
0.78 -21.13 -3.107 15.85 1.864 -19.11 -59.03 3.884 -63.07 -53.13 -55.15 1.864 -51.11 -47.07 -17.09 -65.09 -99.11
0.785 -9.01 4.971 17.87 7.923 -7.146 -55.15 3.884 -56.08 -39.15 -47.07 -2.02 -47.07 -31.07 -28.12 -73.01 -120.1
0.79 0.9321 12.89 13.98 9.942 -1.087 -51.11 0.9321 -56.08 -31.07 -39.15 -6.059 -41.01 -19.11 -38.06 -74.1 -127.1
0.795 0 12.89 5.903 5.903 0.9321 -45.05 -7.146 -51.11 -21.13 -31.07 -17.09 -21.13 -5.127 -49.09 -71.15 -117.1
0.8 9.942 10.87 1.864 2.952 3.884 -35.11 -12.12 -35.11 -5.127 -14.14 -22.06 0 9.942 -53.13 -56.08 -87.15
0.805 17.87 6.991 3.884 2.952 16.93 -21.13 -12.12 -12.12 17.87 4.971 -20.04 29.98 38.99 -45.05 -38.06 -40.08
0.81 27.96 6.991 5.903 5.903 29.98 -11.03 -7.146 7.923 45.98 23.92 -13.05 55.93 61.98 -23.15 -15.07 -2.02
0.815 30.91 0.9321 8.855 8.855 38.99 -3.107 -2.02 30.91 65.87 34.95 -2.02 74.88 76.9 -1.087 2.952 37.91
0.82 22.99 -7.146 2.952 6.991 38.99 -3.107 -4.039 37.91 70.99 32.93 0.9321 80.94 74.88 29.98 21.9 63.85
0.825 7.923 -21.13 -1.087 -2.02 23.92 -9.01 -11.03 33.87 59.96 23.92 -5.127 79.85 61.98 51.89 27.96 85.91
0.83 -2.02 -35.11 -6.059 -6.059 8.855 -13.05 -11.03 23.92 46.92 22.99 -7.146 72.86 50.95 67.89 29.98 112.9
0.835 -11.03 -41.01 -10.1 -11.03 0.9321 -17.09 -11.03 15.85 38.99 25.94 -4.039 70.99 41.94 71.93 36.97 133
0.84 -19.11 -39.15 -9.01 -11.03 -9.01 -19.11 -3.107 7.923 33.87 27.96 -2.02 69.91 31.85 69.91 41.94 143.9
0.845 -16 -35.11 -4.039 -5.127 -9.01 -22.06 2.952 8.855 29.98 23.92 7.923 66.96 25.94 69.91 45.98 140
0.85 -16 -31.07 -2.02 -1.087 -14.14 -32 5.903 -2.02 17.87 1.864 12.89 56.86 9.942 72.86 40.86 111.9
0.855 -15.07 -29.05 -2.02 -1.087 -20.04 -39.15 5.903 -12.12 0 -17.09 15.85 36.97 -10.1 77.99 27.96 64.94
0.86 -16 -25.01 -2.02 -3.107 -28.12 -42.1 0 -37.13 -25.01 -31.07 6.991 4.971 -29.05 72.86 1.864 19.88
0.865 -10.1 -17.09 -2.02 -1.087 -35.11 -32 -1.087 -60.12 -41.01 -25.01 0 -28.12 -41.01 53.91 -33.09 -15.07
0.87 0.9321 -5.127 0.9321 -3.107 -41.01 -21.13 0.9321 -81.09 -39.15 -7.146 0.9321 -63.07 -43.03 19.88 -63.07 -51.11
0.875 5.903 -1.087 0.9321 1.864 -41.01 -15.07 -1.087 -93.05 -32 1.864 0 -94.14 -43.03 -13.05 -86.06 -84.04
0.88 4.971 -1.087 -1.087 0 -44.12 -27.03 -3.107 -105 -30.14 -20.04 -7.146 -116 -52.04 -47.07 -101.1 -124.1
0.885 -5.127 -7.146 -5.127 -9.01 -55.15 -59.03 -15.07 -111.1 -53.13 -67.11 -17.09 -131.1 -73.01 -63.07 -107 -169
0.89 -22.06 -19.11 -12.12 -16 -64 -95.07 -22.06 -113.1 -88.08 -120.1 -21.13 -136.1 -96.01 -63.07 -105 -203
0.895 -40.08 -25.01 -18.02 -22.06 -70.06 -117.1 -26.1 -104.1 -121 -142.1 -28.12 -120.1 -108.1 -54.06 -94.14 -213.1
0.9 -45.05 -21.13 -19.11 -21.13 -67.11 -111.1 -23.15 -85.13 -129.1 -119.2 -23.15 -93.05 -95.07 -49.09 -79.07 -193.1
0.905 -29.05 -7.146 -9.01 -12.12 -48 -79.07 -10.1 -52.04 -101.1 -56.08 -12.12 -49.09 -60.12 -43.03 -54.06 -138.1
0.91 -3.107 6.991 0 0.9321 -21.13 -37.13 1.864 -15.07 -47.07 10.87 1.864 -3.107 -13.05 -29.05 -30.14 -67.11
0.915 19.88 18.95 11.96 11.96 3.884 0.9321 7.923 13.98 3.884 61.98 7.923 31.85 23.92 -5.127 -5.127 0
0.92 33.87 18.95 17.87 21.9 23.92 11.96 11.96 38.99 45.98 77.99 16.93 61.98 51.89 18.95 14.91 57.95
0.925 31.85 8.855 17.87 23.92 29.98 7.923 13.98 52.97 61.98 67.89 17.87 81.87 61.98 40.86 31.85 94.92
0.93 19.88 0.9321 9.942 17.87 23.92 0.9321 11.96 51.89 57.95 51.89 17.87 89.95 61.98 45.98 41.94 111.9
0.935 3.884 -9.01 0 5.903 11.96 -9.01 9.942 47.85 47.85 43.96 15.85 93.99 55.93 36.97 47.85 115
0.94 -7.146 -17.09 -7.146 -1.087 1.864 -13.05 3.884 36.97 37.91 41.94 9.942 85.91 47.85 20.97 49.87 110.9
0.945 -19.11 -25.01 -17.09 -15.07 -3.107 -13.05 0.9321 19.88 31.85 37.91 1.864 69.91 33.87 15.85 47.85 103.9
0.95 -29.05 -35.11 -25.01 -25.01 -9.01 -11.03 -11.03 2.952 19.88 25.94 -3.107 43.96 15.85 29.98 39.92 101
0.955 -39.15 -49.09 -27.03 -29.05 -13.05 -11.03 -21.13 -12.12 7.923 5.903 -13.05 11.96 -2.02 47.85 29.98 99.89
0.96 -41.01 -59.03 -25.01 -27.03 -13.05 -11.03 -25.01 -27.03 -1.087 -3.107 -17.09 -13.05 -7.146 57.95 11.96 95.85
0.965 -37.13 -59.03 -17.09 -21.13 -9.01 -11.03 -21.13 -37.13 -5.127 -7.146 -15.07 -31.07 -7.146 45.98 -3.107 81.87
0.97 -25.01 -51.11 -9.01 -11.03 -3.107 -5.127 -13.05 -39.15 -1.087 0 -7.146 -35.11 -2.02 13.98 -25.01 55.93
0.975 -7.146 -35.11 0.9321 0.9321 -2.02 1.864 -1.087 -37.13 3.884 19.88 0.9321 -33.09 13.98 -13.05 -43.03 21.9
0.98 3.884 -19.11 1.864 5.903 3.884 17.87 3.884 -29.05 15.85 35.89 1.864 -27.03 25.94 -29.05 -53.13 -3.107
0.985 17.87 -3.107 11.96 17.87 7.923 33.87 9.942 -19.11 23.92 43.96 7.923 -25.01 33.87 -21.13 -57.01 -23.15
0.99 25.94 8.855 23.92 29.98 9.942 47.85 17.87 -7.146 29.98 47.85 13.98 -25.01 41.94 0 -53.13 -35.11
0.995 33.87 22.99 39.92 41.94 15.85 55.93 27.96 -2.02 35.89 47.85 23.92 -23.15 49.87 21.9 -53.13 -41.01
1 39.92 34.95 53.91 51.89 21.9 57.95 37.91 7.923 43.96 49.87 33.87 -19.11 59.96 23.92 -59.03 -51.11
1.005 39.92 40.86 59.96 55.93 25.94 53.91 43.96 13.98 49.87 53.91 39.92 -11.03 63.85 1.864 -73.01 -67.11
1.01 35.89 36.97 55.93 51.89 23.92 43.96 41.94 15.85 51.89 53.91 37.91 -3.107 59.96 -25.01 -89.02 -81.09
1.015 23.92 24.86 45.98 43.96 13.98 29.98 33.87 16.93 41.94 43.96 27.96 0 45.98 -51.11 -99.11 -89.02
1.02 11.96 10.87 29.98 29.98 -2.02 11.96 17.87 14.91 25.94 19.88 13.98 1.864 23.92 -57.01 -101.1 -83.11
1.025 0 -1.087 15.85 15.85 -17.09 -3.107 3.884 11.96 1.864 -3.107 1.864 1.864 0 -41.01 -97.09 -67.11
1.03 0.9321 -5.127 3.884 3.884 -35.11 -21.13 -1.087 6.991 -15.07 -27.03 0.9321 0.9321 -15.07 -17.09 -89.02 -48
1.035 -3.107 -9.01 -1.087 -3.107 -49.09 -31.07 -9.01 1.864 -31.07 -37.13 -3.107 -4.039 -29.05 -1.087 -81.09 -36.04
1.04 -7.146 -17.09 -11.03 -13.05 -53.13 -33.09 -13.05 -11.03 -37.13 -33.09 -7.146 -13.05 -33.09 -5.127 -77.05 -31.07
1.045 -13.05 -27.03 -21.13 -25.01 -53.13 -29.05 -21.13 -17.09 -34.02 -21.13 -13.05 -18.02 -35.11 -27.03 -78.14 -26.1
1.05 -19.11 -35.11 -29.05 -35.11 -53.13 -25.01 -27.03 -29.05 -30.14 -13.05 -21.13 -24.08 -37.13 -51.11 -74.1 -18.02
1.055 -27.03 -47.07 -37.13 -43.03 -55.15 -23.15 -35.11 -41.01 -31.07 -21.13 -29.05 -29.05 -43.03 -65.09 -65.09 -9.01
1.06 -31.07 -49.09 -41.01 -49.09 -60.12 -29.05 -41.01 -46.14 -38.06 -36.04 -36.04 -34.02 -51.11 -56.08 -50.02 3.884
1.065 -31.07 -47.07 -45.05 -51.11 -62.14 -31.07 -42.1 -47.07 -52.04 -52.04 -38.06 -37.13 -57.01 -40.08 -34.02 17.87
1.07 -25.01 -47.07 -43.03 -47.07 -57.01 -25.01 -39.15 -49.09 -59.03 -49.09 -39.15 -43.03 -51.11 -25.01 -19.11 23.92
1.075 -17.09 -35.11 -37.13 -34.02 -40.08 -8.078 -28.12 -39.15 -49.09 -20.04 -30.14 -39.15 -37.13 -20.04 -7.146 28.89
1.08 -5.127 -25.01 -23.15 -20.04 -11.03 10.87 -16 -21.13 -25.01 12.89 -20.04 -26.1 -13.05 -29.05 -1.087 23.92
1.085 -2.02 -15.07 -5.127 -7.146 1.864 29.98 -5.127 -3.107 0 39.92 -7.146 -13.05 5.903 -45.05 0.9321 11.96
1.09 0.9321 -3.107 1.864 1.864 16.93 41.94 -2.02 13.98 24.86 46.92 -1.087 -2.02 22.99 -54.06 -2.02 -1.087
1.095 1.864 0.9321 8.855 2.952 11.96 43.96 -1.087 25.94 31.85 30.91 1.864 6.991 26.88 -50.02 -12.12 -13.05
1.1 0.9321 -5.127 4.971 0.9321 3.884 35.89 0.9321 28.89 23.92 7.923 0 10.87 24.86 -41.01 -26.1 -29.05
1.105 0.9321 -17.09 0 -6.059 -1.087 29.98 -8.078 25.94 13.98 -2.02 -7.146 12.89 20.97 -32 -36.04 -51.11
1.11 0 -25.01 -5.127 -9.01 1.864 29.98 -11.03 21.9 6.991 0 -10.1 11.96 16.93 -30.14 -42.1 -68.04
1.115 0.9321 -29.05 0.9321 -5.127 9.942 33.87 -1.087 17.87 9.942 5.903 -3.107 15.85 21.9 -35.11 -37.13 -83.11
1.12 0 -21.13 7.923 2.952 25.94 44.9 6.991 27.96 15.85 18.95 8.855 24.86 25.94 -33.09 -25.01 -87.15
1.125 -2.02 -11.03 23.92 16.93 30.91 52.97 24.86 37.91 25.94 20.97 26.88 31.85 27.96 -26.1 -9.01 -80
1.13 0.9321 -5.127 31.85 25.94 27.96 59.96 31.85 45.98 23.92 11.96 33.87 33.87 25.94 -19.11 -3.107 -67.11
1.135 0.9321 0.9321 29.98 27.96 14.91 57.95 32.93 51.89 18.95 2.952 34.95 29.98 17.87 -18.02 -2.02 -49.09
1.14 -5.127 -1.087 19.88 21.9 -2.02 53.91 21.9 44.9 8.855 0 22.99 18.95 7.923 -32 -8.078 -37.13
1.145 -9.01 -11.03 7.923 9.942 -21.13 47.85 7.923 33.87 -1.087 -7.146 7.923 0 0.9321 -55.15 -13.05 -37.13
1.15 -19.11 -23.15 0 -2.02 -37.13 39.92 -2.02 19.88 -10.1 -15.07 -2.02 -6.059 -13.05 -79.07 -8.078 -40.08
1.155 -31.07 -37.13 -2.02 -5.127 -49.09 33.87 0.9321 11.96 -22.06 -25.01 -2.02 -14.14 -27.03 -91.03 1.864 -40.08
1.16 -43.03 -43.03 1.864 -5.127 -53.13 29.98 -2.02 5.903 -33.09 -35.11 1.864 -17.09 -35.11 -83.11 3.884 -33.09
1.165 -45.05 -41.01 5.903 0.9321 -51.11 25.94 3.884 10.87 -37.13 -37.13 5.903 -10.1 -35.11 -59.03 7.923 -14.14
1.17 -35.11 -31.07 9.942 3.884 -43.03 27.96 7.923 14.91 -35.11 -23.15 5.903 -7.146 -25.01 -29.05 3.884 0.9321
1.175 -21.13 -15.07 7.923 11.96 -31.07 37.91 7.923 17.87 -23.15 0.9321 0 -5.127 -9.01 -1.087 0.9321 19.88
1.18 -5.127 -5.127 1.864 11.96 -19.11 49.87 1.864 22.99 -9.01 13.98 -3.107 -7.146 1.864 9.942 -9.01 31.85
1.185 0 -1.087 -2.02 3.884 -11.03 55.93 -1.087 24.86 0 19.88 -9.01 -11.03 9.942 15.85 -15.07 33.87
1.19 0 -5.127 -3.107 -3.107 -9.01 55.93 -9.01 21.9 5.903 9.942 -15.07 -13.05 5.903 9.942 -15.07 29.98
1.195 0.9321 -15.07 -5.127 -13.05 -11.03 47.85 -17.09 19.88 1.864 -5.127 -19.11 -11.03 0.9321 -3.107 -13.05 19.88
1.2 -3.107 -21.13 -5.127 -19.11 -13.05 37.91 -21.13 19.88 -5.127 -21.13 -21.13 -9.01 -13.05 -23.15 -9.01 7.923
1.205 -5.127 -21.13 -1.087 -17.09 -11.03 33.87 -19.11 17.87 -17.09 -25.01 -21.13 -3.107 -21.13 -43.03 -2.02 0.9321
1.21 0.9321 -13.05 -2.02 -9.01 -3.107 39.92 -15.07 17.87 -23.15 -13.05 -19.11 0.9321 -23.15 -55.15 13.98 -5.127
1.215 3.884 -3.107 3.884 0.9321 1.864 49.87 -7.146 19.88 -23.15 0.9321 -11.03 0 -19.11 -51.11 31.85 -5.127
1.22 11.96 0.9321 7.923 1.864 7.923 57.95 -2.02 21.9 -17.09 1.864 -3.107 5.903 -15.07 -33.09 49.87 -5.127
1.225 11.96 2.952 9.942 5.903 5.903 57.95 3.884 21.9 -13.05 -2.02 1.864 11.96 -15.07 -9.01 57.95 -5.127
1.23 5.903 0.9321 7.923 3.884 -2.02 49.87 5.903 15.85 -15.07 -9.01 7.923 17.87 -19.11 5.903 53.91 -9.01
1.235 0.9321 -1.087 5.903 0 -7.146 39.92 3.884 10.87 -21.13 -17.09 7.923 23.92 -23.15 17.87 41.94 -11.03
1.24 -5.127 0.9321 3.884 0 -9.01 33.87 1.864 7.923 -27.03 -19.11 7.923 29.98 -23.15 17.87 33.87 -3.107
1.245 -7.146 0.9321 3.884 0 -3.107 35.89 1.864 10.87 -27.03 -13.05 7.923 33.87 -21.13 13.98 35.89 13.98
1.25 -3.107 0.9321 3.884 3.884 1.864 39.92 5.903 14.91 -23.15 -7.146 9.942 35.89 -19.11 9.942 47.85 45.98
1.255 -1.087 -1.087 1.864 3.884 7.923 41.94 9.942 19.88 -17.09 -3.107 13.98 35.89 -17.09 7.923 63.85 75.97
1.26 -1.087 -5.127 1.864 1.864 5.903 37.91 13.98 23.92 -11.03 -1.087 15.85 34.95 -16 6.991 75.97 91.97
1.265 -5.127 -9.01 0 -2.02 1.864 29.98 13.98 21.9 -4.039 0 17.87 30.91 -14.14 2.952 75.97 93.99
1.27 -11.03 -9.01 0 0.9321 -2.02 25.94 13.98 23.92 -1.087 7.923 17.87 25.94 -9.01 -3.107 69.91 85.91
1.275 -15.07 -9.01 3.884 0 -2.02 23.92 15.85 26.88 -1.087 17.87 19.88 24.86 0 -14.14 65.87 76.9
1.28 -13.05 -7.146 7.923 5.903 5.903 25.94 19.88 33.87 0.9321 21.9 23.92 24.86 2.952 -26.1 67.89 68.98
1.285 -7.146 -3.107 13.98 15.85 15.85 29.98 25.94 37.91 1.864 17.87 25.94 23.92 7.923 -25.01 69.91 65.87
1.29 -2.02 0.9321 21.9 23.92 26.88 33.87 29.98 38.99 4.971 11.96 25.94 21.9 13.98 -19.11 63.85 64.94
1.295 9.942 12.89 29.98 29.98 36.97 39.92 31.85 37.91 8.855 9.942 27.96 19.88 21.9 -5.127 43.96 58.88
1.3 19.88 28.89 35.89 33.87 47.85 45.98 31.85 33.87 19.88 15.85 27.96 19.88 33.87 -2.02 19.88 47.85
1.305 25.94 40.86 40.86 35.89 60.9 51.89 29.98 35.89 33.87 28.89 25.94 22.99 50.95 8.855 -2.02 37.91
1.31 27.96 48.94 40.86 35.89 72.86 53.91 25.94 39.92 49.87 32.93 24.86 25.94 60.9 14.91 -8.078 23.92
1.315 25.94 46.92 37.91 33.87 73.95 49.87 21.9 41.94 55.93 23.92 19.88 17.87 61.98 13.98 -9.01 15.85
1.32 27.96 40.86 30.91 29.98 67.89 42.88 17.87 46.92 53.91 12.89 14.91 13.98 54.99 8.855 -6.059 6.991
1.325 27.96 34.95 24.86 21.9 55.93 34.95 13.98 46.92 44.9 6.991 8.855 5.903 43.96 1.864 -8.078 1.864
1.33 27.96 32.93 19.88 15.85 43.96 29.98 7.923 45.98 41.94 13.98 1.864 3.884 39.92 -17.09 -15.07 -3.107
1.335 27.96 30.91 14.91 9.942 33.87 29.98 8.855 46.92 45.98 25.94 1.864 11.96 45.98 -23.15 -21.13 -7.146
1.34 24.86 30.91 11.96 8.855 24.86 24.86 6.991 46.92 51.89 30.91 2.952 19.88 52.97 -21.13 -20.04 -7.146
1.345 14.91 30.91 8.855 4.971 7.923 19.88 7.923 44.9 47.85 17.87 5.903 22.99 47.85 -6.059 -7.146 0.9321
1.35 2.952 22.99 3.884 2.952 -6.059 8.855 6.991 34.95 33.87 -2.02 2.952 15.85 28.89 1.864 4.971 -2.02
1.355 -3.107 12.89 0.9321 0.9321 -29.05 3.884 6.991 20.97 11.96 -25.01 1.864 3.884 3.884 11.96 23.92 5.903
1.36 -11.03 -1.087 0.9321 -7.146 -43.03 0 3.884 7.923 -5.127 -29.05 1.864 -3.107 -15.07 9.942 37.91 13.98
1.365 -13.05 -7.146 -4.039 -13.05 -49.09 2.952 0 2.952 -14.14 -18.02 2.952 -7.146 -21.13 5.903 42.88 25.94
1.37 -13.05 -17.09 -10.1 -17.09 -45.05 4.971 0.9321 2.952 -11.03 -6.059 0.9321 -3.107 -22.06 4.971 36.97 32.93
1.375 -13.05 -23.15 -15.07 -19.11 -37.13 3.884 -3.107 3.884 -9.01 0.9321 0.9321 -3.107 -19.11 9.942 25.94 35.89
1.38 -9.01 -19.11 -16 -15.07 -28.12 0 -9.01 13.98 -7.146 1.864 -6.059 0.9321 -16 22.99 18.95 35.89
1.385 -5.127 -9.01 -12.12 -11.03 -20.04 1.864 -7.146 17.87 -11.03 -2.02 -7.146 1.864 -18.02 29.98 9.942 39.92
1.39 -2.02 -1.087 -5.127 -1.087 -7.146 7.923 -3.107 23.92 -13.05 -2.02 -3.107 0.9321 -17.09 35.89 7.923 43.96
1.395 9.942 8.855 0 3.884 0.9321 19.88 0 31.85 -4.039 9.942 0 5.903 -9.01 43.96 13.98 52.97
1.4 17.87 12.89 3.884 7.923 14.91 23.92 7.923 36.97 0.9321 17.87 9.942 21.9 1.864 55.93 21.9 58.88
1.405 21.9 10.87 5.903 9.942 25.94 21.9 11.96 41.94 13.98 17.87 11.96 39.92 9.942 65.87 29.98 53.91
1.41 15.85 4.971 7.923 11.96 33.87 11.96 13.98 45.98 26.88 15.85 11.96 46.92 24.86 72.86 27.96 42.88
1.415 7.923 2.952 9.942 11.96 37.91 1.864 13.98 46.92 32.93 17.87 5.903 46.92 30.91 60.9 17.87 24.86
1.42 0 2.952 9.942 13.98 35.89 0 11.96 45.98 37.91 31.85 0 33.87 35.89 27.96 1.864 3.884
1.425 -1.087 4.971 7.923 13.98 27.96 1.864 7.923 41.94 42.88 47.85 0.9321 24.86 40.86 -4.039 -7.146 -3.107
1.43 -5.127 0.9321 0 5.903 13.98 3.884 0 37.91 41.94 51.89 -5.127 18.95 36.97 -30.14 -13.05 -7.146
1.435 -13.05 -7.146 -9.01 -1.087 -1.087 0.9321 -7.146 23.92 33.87 37.91 -11.03 15.85 25.94 -35.11 -3.107 -5.127
1.44 -25.01 -21.13 -25.01 -17.09 -25.01 -17.09 -21.13 12.89 15.85 7.923 -17.09 15.85 7.923 -21.13 9.942 -3.107
1.445 -39.15 -35.11 -37.13 -31.07 -49.09 -39.15 -29.05 4.971 -3.107 -19.11 -21.13 9.942 -7.146 -5.127 31.85 -5.127
1.45 -53.13 -41.01 -39.15 -39.15 -71.15 -55.15 -27.03 -3.107 -25.01 -37.13 -19.11 -2.02 -27.03 0.9321 39.92 -13.05
1.455 -59.03 -39.15 -33.09 -37.13 -85.13 -59.03 -21.13 -12.12 -37.13 -39.15 -13.05 -13.05 -39.15 -9.01 35.89 -19.11
1.46 -61.05 -31.07 -27.03 -31.07 -93.05 -55.15 -13.05 -21.13 -37.13 -29.05 -7.146 -29.05 -45.05 -25.01 21.9 -19.11
1.465 -59.03 -27.03 -25.01 -27.03 -97.09 -49.09 -11.03 -31.07 -31.07 -19.11 -7.146 -39.15 -45.05 -39.15 7.923 -13.05
1.47 -59.03 -31.07 -29.05 -27.03 -97.09 -47.07 -17.09 -41.01 -25.01 -17.09 -13.05 -45.05 -43.03 -43.03 1.864 0.9321
1.475 -61.05 -39.15 -37.13 -31.07 -99.11 -51.11 -25.01 -45.05 -25.01 -23.15 -19.11 -45.05 -45.05 -33.09 7.923 11.96
1.48 -61.05 -43.03 -39.15 -33.09 -99.11 -53.13 -31.07 -41.01 -33.09 -31.07 -23.15 -43.03 -49.09 -17.09 15.85 29.98
1.485 -57.01 -39.15 -35.11 -33.09 -97.09 -51.11 -33.09 -35.11 -41.01 -35.11 -23.15 -41.01 -51.11 -1.087 19.88 43.96
1.49 -47.07 -25.01 -25.01 -27.03 -87.15 -39.15 -29.05 -26.1 -43.03 -27.03 -19.11 -39.15 -51.11 9.942 17.87 53.91
1.495 -31.07 -7.146 -15.07 -19.11 -63.07 -23.15 -21.13 -22.06 -37.13 -9.01 -15.07 -39.15 -43.03 19.88 11.96 59.96
1.5 -13.05 2.952 -7.146 -9.01 -33.09 -5.127 -13.05 -23.15 -23.15 5.903 -11.03 -39.15 -27.03 23.92 1.864 57.95
1.505 -1.087 10.87 -5.127 -1.087 -3.107 3.884 -9.01 -24.08 -7.146 17.87 -9.01 -39.15 -11.03 19.88 -2.02 49.87
1.51 1.864 8.855 -5.127 -2.02 7.923 5.903 -5.127 -22.06 0 21.9 -7.146 -35.11 -1.087 8.855 0.9321 37.91
1.515 3.884 6.991 -7.146 -2.02 7.923 0 -5.127 -17.09 3.884 13.98 -7.146 -31.07 0 -3.107 0.9321 23.92
1.52 1.864 4.971 -5.127 0.9321 -2.02 -7.146 -5.127 -5.127 3.884 1.864 -7.146 -23.15 1.864 -10.1 0.9321 11.96
1.525 0 6.991 0.9321 0.9321 -7.146 -17.09 -5.127 3.884 3.884 -7.146 -5.127 -17.09 1.864 -4.039 0.9321 5.903
1.53 0 14.91 5.903 0 -9.01 -21.13 0.9321 13.98 5.903 -15.07 0.9321 -11.03 5.903 7.923 0 7.923
1.535 5.903 24.86 13.98 6.991 0.9321 -21.13 3.884 20.97 9.942 -21.13 3.884 -5.127 11.96 24.86 1.864 11.96
1.54 9.942 30.91 17.87 10.87 5.903 -19.11 9.942 24.86 13.98 -23.15 9.942 -1.087 15.85 27.96 3.884 11.96
1.545 13.98 30.91 17.87 13.98 9.942 -19.11 15.85 25.94 11.96 -27.03 13.98 -2.02 15.85 9.942 5.903 5.903
1.55 9.942 22.99 11.96 10.87 1.864 -23.15 14.91 30.91 3.884 -37.13 9.942 0 5.903 -9.01 6.991 -3.107
1.555 0 8.855 6.991 2.952 -4.039 -27.03 4.971 28.89 -1.087 -49.09 0 0 -1.087 -26.1 0.9321 -17.09
1.56 -7.146 0.9321 0 -1.087 -15.07 -31.07 0.9321 27.96 -11.03 -57.01 -1.087 0 -11.03 -29.05 0.9321 -27.03
1.565 -11.03 -5.127 2.952 -3.107 -14.14 -31.07 -4.039 31.85 -19.11 -61.05 -4.039 0 -16 -13.05 -2.02 -27.03
1.57 -7.146 -1.087 4.971 -3.107 -2.02 -25.01 0 34.95 -20.04 -53.13 -1.087 2.952 -14.14 1.864 1.864 -22.06
1.575 0 2.952 7.923 0 3.884 -17.09 3.884 35.89 -17.09 -39.15 9.942 3.884 -7.146 1.864 3.884 -13.05
1.58 16.93 12.89 7.923 5.903 13.98 -12.12 14.91 33.87 -8.078 -23.15 18.95 2.952 0 1.864 14.91 -2.02
1.585 27.96 14.91 3.884 6.991 15.85 -12.12 17.87 26.88 0.9321 -10.1 22.99 -1.087 3.884 -10.1 22.99 1.864
1.59 29.98 10.87 -1.087 0.9321 14.91 -12.12 12.89 13.98 -1.087 -8.078 14.91 -14.14 2.952 -15.07 26.88 12.89
1.595 25.94 -1.087 -3.107 -2.02 7.923 -18.02 3.884 -2.02 -2.02 -14.14 2.952 -33.09 1.864 -10.1 22.99 23.92
1.6 14.91 -7.146 -3.107 -9.01 1.864 -18.02 -2.02 -19.11 -4.039 -25.01 -1.087 -44.12 -5.127 -1.087 14.91 38.99
1.605 9.942 -9.01 0.9321 -7.146 -2.02 -17.09 -1.087 -19.11 -11.03 -31.07 3.884 -49.09 -11.03 11.96 9.942 47.85
1.61 9.942 0.9321 6.991 0 0 -15.07 8.855 -8.078 -12.12 -27.03 18.95 -34.02 -12.12 20.97 16.93 56.86
1.615 11.96 14.91 20.97 19.88 -2.02 -15.07 28.89 5.903 -9.01 -21.13 34.95 -11.03 -4.039 19.88 30.91 53.91
1.62 11.96 26.88 31.85 33.87 -1.087 -17.09 43.96 31.85 -1.087 -13.05 45.98 11.96 -2.02 15.85 49.87 47.85
1.625 11.96 34.95 46.92 44.9 6.991 -15.07 52.97 58.88 3.884 -7.146 49.87 33.87 9.942 18.95 64.94 35.89
1.63 15.85 36.97 55.93 52.97 25.94 -11.03 52.97 74.88 11.96 -1.087 47.85 47.85 21.9 17.87 68.98 17.87
1.635 25.94 40.86 61.98 57.95 51.89 -2.02 47.85 81.87 19.88 0 43.96 53.91 33.87 15.85 61.98 -2.02
1.64 41.94 50.95 67.89 60.9 77.99 13.98 47.85 92.9 29.98 11.96 45.98 61.98 45.98 3.884 53.91 -17.09
1.645 57.95 64.94 71.93 68.98 97.87 25.94 51.89 101 39.92 23.92 53.91 69.91 55.93 -10.1 47.85 -37.13
1.65 63.85 70.99 69.91 67.89 108 31.85 53.91 103.9 45.98 33.87 53.91 77.99 59.96 -27.03 43.96 -43.03
1.655 63.85 70.99 63.85 65.87 103.9 29.98 53.91 99.89 45.98 31.85 51.89 77.99 55.93 -30.14 33.87 -43.03
1.66 53.91 62.92 55.93 57.95 89.95 17.87 45.98 81.87 37.91 19.88 39.92 67.89 41.94 -18.02 13.98 -39.15
1.665 39.92 46.92 41.94 43.96 67.89 0 31.85 53.91 19.88 0 23.92 49.87 19.88 -2.02 -5.127 -35.11
1.67 25.94 30.91 27.96 27.96 43.96 -17.09 17.87 30.91 0 -17.09 7.923 27.96 -2.02 12.89 -27.03 -31.07
1.675 13.98 18.95 13.98 15.85 17.87 -37.13 3.884 10.87 -17.09 -35.11 -2.02 9.942 -17.09 13.98 -37.13 -25.01
1.68 1.864 6.991 1.864 5.903 0.9321 -55.15 0.9321 0 -35.11 -49.09 -5.127 -2.02 -31.07 -1.087 -35.11 -17.09
1.685 -3.107 -1.087 -3.107 -2.02 -13.05 -63.07 -3.107 1.864 -49.09 -51.11 -7.146 -1.087 -39.15 -29.05 -23.15 -3.107
1.69 -9.01 -7.146 -5.127 -1.087 -13.05 -55.15 -5.127 -2.02 -55.15 -43.03 -5.127 -2.02 -37.13 -51.11 -11.03 7.923
1.695 -5.127 -5.127 0.9321 0.9321 -1.087 -37.13 0.9321 0.9321 -47.07 -25.01 -2.02 5.903 -23.15 -49.09 0.9321 27.96
1.7 3.884 2.952 11.96 7.923 13.98 -13.05 7.923 5.903 -25.01 -1.087 11.96 21.9 -3.107 -17.09 7.923 45.98
1.705 23.92 24.86 31.85 25.94 31.85 3.884 21.9 23.92 0.9321 11.96 27.96 43.96 13.98 29.98 21.9 59.96
1.71 43.96 46.92 47.85 41.94 45.98 15.85 35.89 43.96 17.87 21.9 41.94 63.85 31.85 75.97 31.85 65.87
1.715 57.95 62.92 55.93 53.91 53.91 23.92 45.98 59.96 33.87 29.98 51.89 81.87 43.96 95.85 41.94 63.85
1.72 63.85 64.94 59.96 57.95 61.98 29.98 49.87 71.93 41.94 41.94 55.93 95.85 51.89 83.89 47.85 53.91
1.725 65.87 60.9 59.96 59.96 73.95 39.92 53.91 79.85 51.89 63.85 57.95 110 65.87 53.91 51.89 41.94
1.73 63.85 52.97 61.98 61.98 87.93 47.85 59.96 85.91 67.89 85.91 63.85 121.9 83.89 29.98 55.93 27.96
1.735 61.98 42.88 61.98 63.85 95.85 49.87 63.85 91.97 81.87 95.85 67.89 129.9 99.89 25.94 61.98 18.95
1.74 57.95 34.95 55.93 61.98 89.95 41.94 61.98 88.86 85.91 83.89 65.87 129.9 103.9 39.92 59.96 10.87
1.745 47.85 24.86 43.96 53.91 73.95 31.85 53.91 71.93 73.95 55.93 55.93 115.9 87.93 57.95 45.98 1.864
1.75 34.95 14.91 29.98 38.99 52.97 22.99 40.86 44.9 47.85 22.99 42.88 87.93 57.95 61.98 23.92 -1.087
1.755 24.86 6.991 20.97 26.88 38.99 20.97 30.91 8.855 17.87 2.952 30.91 55.93 25.94 54.99 4.971 -1.087
1.76 19.88 6.991 17.87 19.88 33.87 23.92 25.94 -17.09 -2.02 -2.02 25.94 27.96 7.923 43.96 0.9321 3.884
1.765 20.97 10.87 26.88 22.99 40.86 28.89 32.93 -30.14 1.864 12.89 32.93 13.98 5.903 40.86 -1.087 13.98
1.77 24.86 18.95 34.95 28.89 44.9 28.89 36.97 -33.09 4.971 26.88 38.99 12.89 14.91 44.9 4.971 17.87
1.775 25.94 20.97 37.91 31.85 45.98 21.9 35.89 -37.13 15.85 35.89 37.91 9.942 23.92 47.85 3.884 15.85
1.78 27.96 18.95 34.95 30.91 45.98 15.85 26.88 -39.15 24.86 35.89 31.85 2.952 26.88 44.9 -6.059 10.87
1.785 27.96 16.93 26.88 23.92 41.94 9.942 15.85 -46.14 22.99 27.96 19.88 -2.02 20.97 39.92 -23.15 0.9321
1.79 25.94 10.87 19.88 15.85 35.89 3.884 5.903 -49.09 9.942 13.98 11.96 -9.01 7.923 33.87 -35.11 -1.087
1.795 26.88 10.87 15.85 11.96 36.97 0.9321 7.923 -41.01 1.864 0.9321 12.89 -6.059 0.9321 37.91 -23.15 1.864
1.8 24.86 16.93 13.98 12.89 36.97 1.864 14.91 -26.1 -5.127 -6.059 18.95 7.923 1.864 52.97 4.971 5.903
1.805 23.92 24.86 15.85 15.85 39.92 0.9321 19.88 -5.127 -9.01 -11.03 23.92 25.94 0.9321 63.85 39.92 15.85
1.81 26.88 32.93 25.94 21.9 44.9 4.971 23.92 12.89 -4.039 -4.039 30.91 45.98 1.864 61.98 71.93 34.95
1.815 29.98 40.86 34.95 28.89 49.87 19.88 28.89 28.89 5.903 7.923 35.89 62.92 16.93 44.9 82.96 54.99
1.82 39.92 44.9 41.94 31.85 63.85 33.87 31.85 39.92 23.92 29.98 35.89 67.89 31.85 21.9 81.87 77.99
1.825 50.95 52.97 49.87 42.88 78.92 47.85 34.95 50.95 47.85 46.92 39.92 71.93 47.85 4.971 76.9 96.94
1.83 55.93 56.86 49.87 48.94 88.86 45.98 38.99 61.98 56.86 53.91 40.86 77.99 59.96 0 72.86 108.9
1.835 59.96 56.86 43.96 50.95 89.95 38.99 40.86 63.85 54.99 42.88 41.94 80.94 59.96 12.89 71.93 106.9
1.84 55.93 54.99 37.91 46.92 82.96 29.98 36.97 61.98 44.9 23.92 42.88 83.89 51.89 25.94 70.99 94.92
1.845 48.94 50.95 33.87 38.99 66.96 27.96 36.97 56.86 33.87 6.991 39.92 85.91 39.92 36.97 70.99 68.98
1.85 37.91 40.86 31.85 31.85 49.87 33.87 37.91 49.87 25.94 0 39.92 83.89 31.85 35.89 67.89 41.94
1.855 31.85 38.99 32.93 26.88 37.91 47.85 40.86 46.92 23.92 5.903 43.96 80.94 30.91 26.88 66.96 18.95
1.86 24.86 36.97 33.87 27.96 32.93 58.88 43.96 42.88 24.86 18.95 42.88 75.97 33.87 7.923 63.85 -1.087
1.865 21.9 36.97 27.96 29.98 27.96 63.85 43.96 39.92 21.9 29.98 41.94 71.93 33.87 -5.127 53.91 -11.03
1.87 20.97 32.93 23.92 28.89 24.86 62.92 38.99 38.99 15.85 32.93 40.86 67.89 28.89 -18.02 40.86 -23.15
1.875 20.97 32.93 21.9 27.96 18.95 62.92 33.87 37.91 5.903 24.86 38.99 54.99 14.91 -23.15 23.92 -38.06
1.88 17.87 28.89 21.9 23.92 13.98 63.85 29.98 33.87 -1.087 13.98 33.87 41.94 1.864 -19.11 11.96 -51.11
1.885 21.9 26.88 22.99 23.92 17.87 67.89 29.98 36.97 -6.059 9.942 29.98 30.91 -2.02 -5.127 7.923 -50.02
1.89 23.92 24.86 20.97 20.97 23.92 71.93 26.88 35.89 -6.059 13.98 19.88 20.97 -6.059 8.855 6.991 -36.04
1.895 19.88 20.97 11.96 15.85 31.85 65.87 17.87 29.98 -3.107 17.87 9.942 11.96 -3.107 23.92 1.864 -9.01
1.9 20.97 12.89 2.952 10.87 38.99 58.88 8.855 25.94 0 22.99 2.952 8.855 1.864 34.95 -1.087 17.87
1.905 14.91 4.971 -2.02 2.952 38.99 48.94 1.864 18.95 0 18.95 -1.087 9.942 0 36.97 -6.059 43.96
1.91 7.923 -1.087 -7.146 -1.087 33.87 43.96 -7.146 15.85 -3.107 11.96 -2.02 13.98 5.903 27.96 -13.05 53.91
1.915 2.952 -1.087 -4.039 -2.02 28.89 48.94 -6.059 18.95 -1.087 6.991 0.9321 21.9 7.923 16.93 -6.059 50.95
1.92 -1.087 2.952 0.9321 1.864 22.99 54.99 1.864 24.86 -2.02 6.991 6.991 33.87 11.96 3.884 7.923 48.94
1.925 0.9321 8.855 3.884 3.884 19.88 57.95 9.942 35.89 7.923 11.96 11.96 49.87 15.85 -2.02 39.92 53.91
1.93 -3.107 14.91 9.942 11.96 21.9 55.93 21.9 48.94 15.85 21.9 19.88 67.89 17.87 0 71.93 74.88
1.935 -7.146 14.91 11.96 15.85 21.9 45.98 27.96 61.98 19.88 23.92 25.94 87.93 19.88 9.942 89.95 94.92
1.94 -13.05 10.87 11.96 13.98 19.88 35.89 27.96 69.91 15.85 21.9 31.85 97.87 15.85 21.9 91.97 105.9
1.945 -19.11 6.991 9.942 5.903 15.85 31.85 25.94 69.91 7.923 13.98 31.85 97.87 9.942 29.98 77.99 99.89
1.95 -23.15 4.971 7.923 0 11.96 33.87 21.9 57.95 0 5.903 27.96 81.87 0 29.98 59.96 81.87
1.955 -23.15 6.991 3.884 -1.087 7.923 39.92 17.87 33.87 -5.127 1.864 19.88 53.91 -5.127 19.88 45.98 57.95
1.96 -23.15 8.855 1.864 0.9321 3.884 41.94 11.96 7.923 -11.03 -2.02 11.96 21.9 -17.09 1.864 37.91 35.89
1.965 -19.11 10.87 1.864 0 0 41.94 7.923 -5.127 -19.11 -3.107 5.903 0.9321 -25.01 -9.01 35.89 13.98
1.97 -11.03 14.91 7.923 9.942 0 41.94 7.923 -7.146 -25.01 -7.146 5.903 -11.03 -25.01 -17.09 31.85 -5.127
1.975 0 24.86 17.87 21.9 9.942 49.87 13.98 3.884 -25.01 -3.107 11.96 -9.01 -17.09 -13.05 25.94 -31.07
1.98 21.9 42.88 29.98 33.87 31.85 69.91 23.92 27.96 -13.05 11.96 19.88 0.9321 0.9321 -1.087 17.87 -55.15
1.985 43.96 62.92 39.92 41.94 61.98 93.99 33.87 52.97 1.864 43.96 27.96 5.903 19.88 1.864 5.903 -77.05
1.99 61.98 74.88 41.94 43.96 89.95 110 35.89 61.98 27.96 73.95 29.98 3.884 39.92 1.864 -3.107 -93.05
1.995 65.87 72.86 37.91 39.92 108 110 29.98 60.9 45.98 85.91 23.92 -1.087 49.87 -3.107 -19.11 -103.2
2 55.93 60.9 29.98 29.98 108.9 95.85 17.87 52.97 51.89 77.99 13.98 -13.05 47.85 -11.03 -35.11 -103.2
2.005 39.92 42.88 21.9 21.9 93.99 71.93 7.923 49.87 39.92 51.89 3.884 -15.07 37.91 -9.01 -45.05 -93.05
2.01 21.9 30.91 13.98 13.98 72.86 50.95 3.884 51.89 17.87 26.88 0 -5.127 21.9 0.9321 -45.05 -70.06
2.015 6.991 18.95 3.884 5.903 48.94 34.95 1.864 53.91 0.9321 8.855 0.9321 7.923 5.903 3.884 -33.09 -36.04
2.02 -3.107 6.991 -7.146 -1.087 23.92 23.92 0.9321 45.98 -15.07 1.864 -5.127 21.9 -7.146 0 -17.09 -2.02
2.025 -16 -7.146 -27.03 -18.02 -1.087 16.93 -11.03 28.89 -27.03 6.991 -15.07 20.97 -23.15 -11.03 -3.107 36.97
2.03 -36.04 -33.09 -43.03 -38.06 -18.02 6.991 -31.07 0.9321 -35.11 2.952 -31.07 4.971 -37.13 -27.03 1.864 68.98
2.035 -53.13 -55.15 -53.13 -55.15 -35.11 -2.02 -47.07 -17.09 -43.03 -1.087 -43.03 -7.146 -47.07 -31.07 7.923 95.85
2.04 -60.12 -67.11 -53.13 -60.12 -43.03 1.864 -53.13 -23.15 -42.1 -4.039 -48 -10.1 -45.05 -14.14 19.88 126
2.045 -59.03 -67.11 -44.12 -54.06 -37.13 1.864 -46.14 -12.12 -34.02 1.864 -42.1 -1.087 -31.07 4.971 33.87 154
2.05 -53.13 -57.01 -35.11 -43.03 -23.15 5.903 -31.07 0 -17.09 7.923 -29.05 17.87 -15.07 19.88 49.87 177.9
2.055 -45.05 -47.07 -22.06 -29.05 -3.107 10.87 -14.14 12.89 -1.087 24.86 -12.12 35.89 0.9321 24.86 65.87 190.9
2.06 -36.04 -45.05 -10.1 -17.09 6.991 12.89 -2.02 15.85 12.89 32.93 0 37.91 3.884 19.88 71.93 188
2.065 -25.01 -41.01 -3.107 -7.146 23.92 17.87 0.9321 9.942 17.87 31.85 1.864 31.85 7.923 9.942 67.89 158
2.07 -11.03 -29.05 5.903 0.9321 43.96 28.89 1.864 9.942 16.93 30.91 4.971 21.9 10.87 10.87 54.99 124
2.075 7.923 -11.03 15.85 15.85 63.85 41.94 7.923 11.96 14.91 31.85 12.89 14.91 16.93 12.89 31.85 82.96
2.08 28.89 4.971 26.88 32.93 81.87 56.86 18.95 24.86 13.98 36.97 19.88 15.85 20.97 7.923 3.884 45.98
2.085 39.92 22.99 35.89 41.94 93.99 55.93 27.96 31.85 16.93 39.92 26.88 16.93 26.88 -4.039 -15.07 14.91
2.09 43.96 28.89 39.92 48.94 95.85 50.95 35.89 33.87 18.95 40.86 34.95 11.96 24.86 -26.1 -32 -8.078
2.095 37.91 26.88 43.96 49.87 81.87 37.91 37.91 25.94 15.85 35.89 31.85 1.864 19.88 -45.05 -43.03 -41.01
2.1 36.97 24.86 46.92 47.85 68.98 32.93 36.97 17.87 14.91 26.88 28.89 -5.127 15.85 -43.03 -45.05 -71.15
2.105 43.96 30.91 48.94 47.85 61.98 40.86 32.93 14.91 16.93 22.99 20.97 -7.146 17.87 -34.02 -49.09 -98.03
2.11 59.96 46.92 47.85 49.87 63.85 53.91 29.98 17.87 21.9 21.9 13.98 -9.01 25.94 -15.07 -61.05 -115.1
2.115 79.85 62.92 46.92 52.97 71.93 69.91 30.91 22.99 30.91 27.96 14.91 0 29.98 0 -71.15 -111.1
2.12 88.86 74.88 41.94 56.86 83.89 76.9 31.85 27.96 38.99 32.93 16.93 8.855 35.89 0.9321 -73.01 -91.03
2.125 85.91 72.86 35.89 51.89 87.93 71.93 27.96 29.98 39.92 33.87 15.85 23.92 37.91 0 -63.07 -63.07
2.13 76.9 62.92 27.96 42.88 82.96 66.96 17.87 30.91 39.92 34.95 9.942 36.97 35.89 -2.02 -41.01 -22.06
2.135 60.9 46.92 15.85 26.88 72.86 60.9 5.903 36.97 37.91 38.99 1.864 50.95 33.87 0.9321 -15.07 18.95
2.14 47.85 32.93 0 9.942 57.95 57.95 -3.107 41.94 35.89 41.94 -7.146 55.93 31.85 5.903 3.884 57.95
2.145 40.86 22.99 -5.127 0.9321 46.92 58.88 -11.03 51.89 35.89 44.9 -15.07 61.98 27.96 23.92 19.88 101
2.15 29.98 12.89 -15.07 -9.01 32.93 52.97 -15.07 49.87 31.85 38.99 -19.11 59.96 19.88 45.98 27.96 131
2.155 13.98 4.971 -17.09 -15.07 15.85 39.92 -15.07 35.89 25.94 23.92 -19.11 49.87 7.923 71.93 27.96 151.9
2.16 0 -1.087 -19.11 -19.11 0 21.9 -17.09 18.95 13.98 7.923 -19.11 31.85 -1.087 91.97 25.94 159.9
2.165 -7.146 -7.146 -21.13 -25.01 -21.13 7.923 -23.15 -1.087 3.884 -2.02 -23.15 11.96 -13.05 95.85 19.88 154
2.17 -13.05 -11.03 -25.01 -31.07 -35.11 0 -29.05 -15.07 0.9321 0 -29.05 -1.087 -21.13 77.99 15.85 135.9
2.175 -13.05 -9.01 -25.01 -33.09 -33.09 0 -29.05 -22.06 -1.087 9.942 -29.05 -11.03 -23.15 45.98 11.96 111.9
2.18 -7.146 -1.087 -23.15 -29.05 -21.13 5.903 -25.01 -23.15 0.9321 19.88 -25.01 -13.05 -19.11 13.98 5.903 83.89
2.185 -3.107 0.9321 -19.11 -19.11 -5.127 9.942 -17.09 -15.07 -2.02 21.9 -17.09 -11.03 -13.05 -1.087 0 53.91
2.19 0.9321 6.991 -9.01 -7.146 1.864 9.942 -7.146 -11.03 0 15.85 -9.01 -13.05 -7.146 0 -1.087 27.96
2.195 -2.02 6.991 0.9321 0.9321 5.903 5.903 -1.087 -9.01 0 3.884 -3.107 -19.11 -1.087 21.9 -11.03 1.864
2.2 1.864 8.855 7.923 1.864 5.903 3.884 -2.02 -11.03 1.864 0.9321 0.9321 -31.07 -2.02 45.98 -19.11 -15.07
2.205 5.903 12.89 17.87 5.903 5.903 1.864 1.864 -13.05 7.923 -2.02 0 -39.15 0 53.91 -27.03 -37.13
2.21 11.96 20.97 23.92 13.98 5.903 1.864 3.884 -11.03 15.85 7.923 3.884 -39.15 5.903 41.94 -29.05 -59.03
2.215 15.85 28.89 23.92 19.88 7.923 3.884 5.903 -5.127 25.94 19.88 5.903 -27.03 9.942 13.98 -25.01 -73.01
2.22 17.87 32.93 13.98 21.9 7.923 3.884 3.884 1.864 27.96 25.94 3.884 -7.146 13.98 -7.146 -17.09 -73.01
2.225 19.88 30.91 1.864 17.87 7.923 5.903 0 12.89 23.92 21.9 -2.02 9.942 13.98 -15.07 -5.127 -55.15
2.23 19.88 22.99 -3.107 7.923 7.923 7.923 -1.087 22.99 15.85 13.98 -5.127 27.96 13.98 -1.087 3.884 -23.15
2.235 19.88 14.91 -5.127 0 11.96 9.942 -5.127 27.96 11.96 7.923 -7.146 35.89 13.98 21.9 19.88 9.942
2.24 21.9 12.89 0 1.864 23.92 11.96 -1.087 32.93 13.98 7.923 -5.127 42.88 17.87 47.85 33.87 42.88
2.245 27.96 20.97 13.98 11.96 37.91 14.91 0 41.94 21.9 17.87 0 42.88 23.92 65.87 45.98 62.92
2.25 31.85 34.95 23.92 25.94 49.87 13.98 7.923 43.96 31.85 31.85 7.923 41.94 31.85 67.89 53.91 67.89
2.255 33.87 42.88 21.9 31.85 57.95 8.855 9.942 45.98 37.91 39.92 9.942 38.99 34.95 67.89 56.86 68.98
2.26 29.98 40.86 9.942 25.94 58.88 2.952 5.903 36.97 33.87 35.89 5.903 28.89 26.88 61.98 48.94 68.98
2.265 21.9 30.91 -2.02 13.98 53.91 -1.087 0 19.88 19.88 23.92 -2.02 13.98 9.942 59.96 33.87 71.93
2.27 11.96 22.99 -5.127 4.971 48.94 -6.059 0.9321 1.864 5.903 11.96 -3.107 1.864 0 50.95 20.97 75.97
2.275 3.884 16.93 -1.087 2.952 44.9 -7.146 0.9321 -9.01 0 12.89 -3.107 -5.127 -4.039 38.99 8.855 73.95
2.28 3.884 18.95 1.864 7.923 47.85 -7.146 1.864 -9.01 5.903 21.9 0.9321 -5.127 -2.02 25.94 1.864 65.87
2.285 7.923 26.88 9.942 16.93 52.97 -9.01 7.923 1.864 20.97 38.99 3.884 0 19.88 20.97 6.991 52.97
2.29 9.942 30.91 17.87 24.86 54.99 -12.12 12.89 10.87 36.97 44.9 11.96 1.864 33.87 24.86 13.98 32.93
2.295 7.923 24.86 19.88 25.94 51.89 -21.13 13.98 13.98 41.94 35.89 15.85 -1.087 35.89 29.98 9.942 9.942
2.3 3.884 18.95 17.87 23.92 37.91 -29.05 10.87 8.855 34.95 18.95 13.98 -6.059 24.86 30.91 1.864 -10.1
2.305 0 14.91 16.93 21.9 24.86 -34.02 8.855 0 18.95 1.864 11.96 -16 7.923 17.87 -14.14 -33.09
2.31 0 20.97 13.98 19.88 17.87 -35.11 7.923 -1.087 0 -1.087 9.942 -15.07 -2.02 0 -25.01 -49.09
2.315 5.903 32.93 16.93 21.9 19.88 -30.14 9.942 1.864 0.9321 0.9321 9.942 -5.127 1.864 -5.127 -18.02 -56.08
2.32 10.87 42.88 15.85 24.86 25.94 -23.15 14.91 9.942 2.952 6.991 12.89 8.855 15.85 -3.107 0 -52.04
2.325 12.89 50.95 16.93 24.86 29.98 -29.05 19.88 23.92 11.96 5.903 14.91 28.89 31.85 1.864 28.89 -43.03
2.33 10.87 46.92 15.85 22.99 29.98 -35.11 20.97 35.89 16.93 1.864 14.91 44.9 33.87 11.96 47.85 -30.14
2.335 5.903 40.86 14.91 17.87 23.92 -42.1 21.9 36.97 13.98 -8.078 15.85 55.93 27.96 13.98 50.95 -16
2.34 5.903 32.93 11.96 13.98 17.87 -45.05 19.88 35.89 9.942 -7.146 13.98 57.95 17.87 -2.02 37.91 -5.127
2.345 9.942 26.88 8.855 9.942 14.91 -34.02 18.95 35.89 10.87 5.903 13.98 62.92 15.85 -11.03 26.88 3.884
2.35 13.98 20.97 7.923 11.96 9.942 -19.11 14.91 36.97 16.93 26.88 13.98 66.96 16.93 -20.04 18.95 18.95
2.355 15.85 16.93 9.942 7.923 7.923 -5.127 11.96 39.92 27.96 39.92 15.85 61.98 19.88 -17.09 17.87 31.85
2.36 13.98 16.93 9.942 10.87 4.971 0.9321 12.89 40.86 34.95 42.88 15.85 58.88 25.94 2.952 25.94 48.94
2.365 11.96 16.93 13.98 12.89 -1.087 0 11.96 37.91 32.93 34.95 17.87 44.9 25.94 36.97 30.91 66.96
2.37 11.96 16.93 11.96 15.85 -2.02 -1.087 15.85 25.94 23.92 25.94 19.88 31.85 21.9 71.93 29.98 83.89
2.375 17.87 18.95 11.96 18.95 0.9321 -1.087 19.88 15.85 13.98 24.86 23.92 17.87 22.99 104.9 28.89 97.87
2.38 25.94 18.95 7.923 20.97 8.855 -1.087 21.9 9.942 13.98 39.92 25.94 11.96 26.88 117 24.86 103.9
2.385 31.85 18.95 5.903 17.87 17.87 7.923 21.9 5.903 25.94 63.85 25.94 7.923 35.89 103.9 21.9 97.87
2.39 33.87 18.95 7.923 15.85 24.86 24.86 17.87 2.952 41.94 85.91 25.94 6.991 44.9 71.93 18.95 88.86
2.395 33.87 20.97 9.942 15.85 27.96 36.97 13.98 -1.087 55.93 97.87 21.9 2.952 46.92 35.89 14.91 74.88
2.4 33.87 24.86 11.96 13.98 23.92 35.89 7.923 -9.01 59.96 89.95 15.85 -2.02 41.94 19.88 5.903 59.96
2.405 31.85 28.89 11.96 11.96 13.98 26.88 1.864 -15.07 47.85 61.98 9.942 -4.039 31.85 31.85 0.9321 48.94
2.41 33.87 28.89 11.96 9.942 -2.02 11.96 -2.02 -20.04 27.96 25.94 5.903 -12.12 17.87 63.85 -11.03 34.95
2.415 33.87 28.89 11.96 9.942 -11.03 -2.02 0 -19.11 5.903 0.9321 1.864 -17.09 5.903 95.85 -23.15 15.85
2.42 33.87 30.91 15.85 13.98 -19.11 -5.127 5.903 -8.078 -1.087 -9.01 3.884 -11.03 3.884 103.9 -27.03 -3.107
2.425 33.87 36.97 21.9 21.9 -17.09 -7.146 15.85 -1.087 0.9321 -3.107 11.96 -2.02 11.96 79.85 -25.01 -29.05
2.43 33.87 44.9 31.85 31.85 -7.146 -1.087 25.94 13.98 7.923 9.942 21.9 13.98 25.94 31.85 -17.09 -53.13
2.435 33.87 48.94 39.92 39.92 3.884 1.864 31.85 23.92 23.92 29.98 31.85 27.96 37.91 -9.01 -9.01 -67.11
2.44 31.85 46.92 41.94 39.92 19.88 7.923 33.87 27.96 37.91 39.92 33.87 31.85 45.98 -33.09 -7.146 -73.01
2.445 27.96 38.99 35.89 33.87 23.92 5.903 27.96 25.94 41.94 37.91 29.98 25.94 45.98 -33.09 -13.05 -73.01
2.45 17.87 22.99 23.92 23.92 15.85 -3.107 17.87 19.88 37.91 19.88 19.88 13.98 33.87 -13.05 -21.13 -69.13
2.455 0 6.991 7.923 9.942 0.9321 -27.03 5.903 5.903 21.9 -3.107 7.923 -2.02 15.85 3.884 -25.01 -63.07
2.46 -23.15 -7.146 0.9321 -2.02 -29.05 -59.03 0.9321 -3.107 0.9321 -37.13 0 -9.01 -5.127 13.98 -15.07 -55.15
2.465 -53.13 -23.15 -9.01 -7.146 -55.15 -85.13 -7.146 -17.09 -27.03 -63.07 -2.02 -13.05 -29.05 5.903 1.864 -41.01
2.47 -73.01 -35.11 -15.07 -13.05 -69.13 -97.09 -9.01 -22.06 -49.09 -77.05 -2.02 -9.01 -45.05 -3.107 29.98 -19.11
2.475 -79.07 -43.03 -17.09 -15.07 -65.09 -89.02 -9.01 -18.02 -55.15 -71.15 0 -2.02 -45.05 -11.03 57.95 5.903
2.48 -67.11 -43.03 -15.07 -13.05 -47.07 -65.09 -3.107 -7.146 -47.07 -49.09 3.884 11.96 -33.09 -5.127 75.97 37.91
2.485 -45.05 -35.11 -11.03 -5.127 -25.01 -37.13 0 2.952 -27.03 -21.13 5.903 21.9 -9.01 9.942 82.96 63.85
2.49 -25.01 -25.01 -7.146 1.864 -7.146 -17.09 7.923 10.87 -3.107 0.9321 9.942 23.92 7.923 33.87 76.9 82.96
2.495 -13.05 -13.05 -3.107 0 0.9321 -11.03 13.98 7.923 9.942 9.942 13.98 19.88 23.92 45.98 67.89 87.93
2.5 -12.12 -5.127 1.864 2.952 0 -12.12 16.93 1.864 21.9 16.93 16.93 11.96 31.85 44.9 64.94 82.96
2.505 -18.02 -3.107 -1.087 -1.087 1.864 -12.12 16.93 -1.087 29.98 14.91 18.95 5.903 35.89 34.95 66.96 72.86
2.51 -23.15 -7.146 1.864 0.9321 5.903 -9.01 13.98 -5.127 35.89 11.96 17.87 5.903 35.89 25.94 69.91 59.96
2.515 -22.06 -7.146 2.952 0 13.98 0 10.87 -2.02 37.91 12.89 18.95 5.903 35.89 26.88 65.87 44.9
2.52 -18.02 -11.03 0.9321 -2.02 15.85 4.971 6.991 -4.039 37.91 8.855 12.89 1.864 33.87 28.89 47.85 25.94
2.525 -15.07 -17.09 -3.107 -9.01 9.942 1.864 0.9321 -17.09 29.98 0.9321 3.884 -5.127 21.9 27.96 15.85 -2.02
2.53 -11.03 -17.09 -13.05 -19.11 0 0.9321 -9.01 -39.15 13.98 -13.05 -4.039 -25.01 5.903 15.85 -10.1 -27.03
2.535 -17.09 -19.11 -27.03 -29.05 -3.107 -13.05 -21.13 -60.12 -1.087 -31.07 -17.09 -47.07 -7.146 -1.087 -36.04 -56.08
2.54 -21.13 -19.11 -35.11 -39.15 -9.01 -33.09 -33.09 -73.01 -17.09 -41.01 -29.05 -63.07 -19.11 -23.15 -53.13 -77.05
2.545 -22.06 -13.05 -36.04 -41.01 -7.146 -44.12 -34.02 -71.15 -25.01 -42.1 -32 -66.02 -20.04 -38.06 -62.14 -85.13
2.55 -23.15 -11.03 -37.13 -38.06 -5.127 -45.05 -31.07 -63.07 -25.01 -39.15 -30.14 -62.14 -14.14 -45.05 -71.15 -88.08
2.555 -25.01 -15.07 -35.11 -37.13 -3.107 -47.07 -29.05 -53.13 -17.09 -35.11 -29.05 -57.01 -7.146 -43.03 -81.09 -87.15
2.56 -29.05 -13.05 -32 -33.09 -5.127 -44.12 -23.15 -46.14 -13.05 -34.02 -24.08 -50.02 -1.087 -38.06 -83.11 -83.11
2.565 -34.02 -15.07 -29.05 -35.11 -6.059 -40.08 -19.11 -49.09 -14.14 -41.01 -23.15 -44.12 -3.107 -31.07 -75.03 -72.08
2.57 -34.02 -17.09 -23.15 -29.05 -10.1 -37.13 -14.14 -50.02 -20.04 -47.07 -16 -31.07 -10.1 -23.15 -51.11 -58.1
2.575 -30.14 -15.07 -11.03 -23.15 -8.078 -34.02 -5.127 -49.09 -26.1 -49.09 -7.146 -18.02 -11.03 -21.13 -31.07 -36.04
2.58 -25.01 -15.07 -4.039 -11.03 -7.146 -30.14 0.9321 -38.06 -25.01 -42.1 0 -4.039 -9.01 -20.04 -17.09 -13.05
2.585 -21.13 -19.11 -7.146 -11.03 -7.146 -29.05 -1.087 -31.07 -19.11 -35.11 -3.107 0.9321 -9.01 -21.13 -19.11 1.864
2.59 -25.01 -25.01 -25.01 -16 -13.05 -31.07 -9.01 -37.13 -17.09 -29.05 -12.12 -4.039 -8.078 -23.15 -27.03 14.91
2.595 -36.04 -39.15 -44.12 -31.07 -23.15 -40.08 -30.14 -51.11 -21.13 -34.02 -30.14 -14.14 -16 -22.06 -38.06 21.9
2.6 -51.11 -55.15 -63.07 -51.11 -37.13 -47.07 -43.03 -69.13 -33.09 -45.05 -41.01 -23.15 -29.05 -17.09 -39.15 23.92
2.605 -63.07 -65.09 -63.07 -59.03 -45.05 -49.09 -45.05 -78.14 -47.07 -55.15 -39.15 -25.01 -43.03 -13.05 -22.06 32.93
2.61 -65.09 -67.11 -47.07 -57.01 -51.11 -47.07 -39.15 -75.03 -53.13 -59.03 -30.14 -21.13 -49.09 -7.146 -12.12 41.94
2.615 -65.09 -67.11 -33.09 -45.05 -53.13 -49.09 -29.05 -63.07 -49.09 -63.07 -21.13 -19.11 -51.11 -13.05 -13.05 43.96
2.62 -62.14 -57.01 -26.1 -38.06 -55.15 -50.02 -24.08 -56.08 -41.01 -58.1 -20.04 -25.01 -49.09 -20.04 -31.07 29.98
2.625 -68.04 -53.13 -38.06 -44.12 -57.01 -56.08 -34.02 -62.14 -39.15 -56.08 -32 -41.01 -49.09 -30.14 -63.07 -1.087
2.63 -77.05 -53.13 -57.01 -57.01 -61.05 -61.05 -49.09 -75.03 -43.03 -55.15 -49.09 -57.01 -51.11 -43.03 -93.05 -29.05
2.635 -82.02 -51.11 -66.02 -66.02 -61.05 -60.12 -58.1 -85.13 -53.13 -50.02 -56.08 -69.13 -53.13 -52.04 -102.1 -58.1
2.64 -80 -51.11 -64 -68.04 -55.15 -50.02 -58.1 -81.09 -55.15 -46.14 -52.04 -67.11 -47.07 -56.08 -96.01 -72.08
2.645 -69.13 -49.09 -53.13 -61.05 -43.03 -39.15 -49.09 -67.11 -49.09 -45.05 -41.01 -59.03 -37.13 -61.05 -83.11 -83.11
2.65 -53.13 -41.01 -37.13 -46.14 -27.03 -29.05 -37.13 -44.12 -37.13 -49.09 -29.05 -49.09 -29.05 -63.07 -74.1 -90.1
2.655 -37.13 -31.07 -29.05 -37.13 -11.03 -23.15 -29.05 -28.12 -31.07 -55.15 -25.01 -43.03 -23.15 -63.07 -76.12 -99.11
2.66 -29.05 -21.13 -29.05 -31.07 -5.127 -21.13 -27.03 -23.15 -31.07 -63.07 -31.07 -43.03 -27.03 -65.09 -85.13 -105
2.665 -25.01 -15.07 -31.07 -33.09 -3.107 -21.13 -31.07 -20.04 -39.15 -67.11 -37.13 -45.05 -33.09 -67.11 -93.05 -101.1
2.67 -21.13 -9.01 -29.05 -35.11 -1.087 -15.07 -35.11 -20.04 -45.05 -63.07 -37.13 -41.01 -37.13 -67.11 -91.03 -85.13
2.675 -17.09 -1.087 -25.01 -33.09 -2.02 -5.127 -33.09 -13.05 -45.05 -51.11 -31.07 -31.07 -33.09 -61.05 -77.05 -59.03
2.68 -9.01 4.971 -17.09 -25.01 7.923 1.864 -27.03 -1.087 -33.09 -35.11 -21.13 -15.07 -21.13 -51.11 -61.05 -33.09
2.685 -3.107 16.93 -11.03 -17.09 15.85 9.942 -17.09 5.903 -21.13 -21.13 -13.05 -2.02 -9.01 -39.15 -45.05 -11.03
2.69 0.9321 24.86 -9.01 -9.01 15.85 9.942 -9.01 11.96 -13.05 -17.09 -9.01 11.96 0.9321 -27.03 -29.05 3.884
2.695 0.9321 26.88 -5.127 -1.087 3.884 5.903 -3.107 11.96 -11.03 -21.13 -7.146 21.9 -2.02 -15.07 -15.07 27.96
2.7 0.9321 20.97 -3.107 0.9321 -7.146 3.884 -1.087 11.96 -15.07 -27.03 -5.127 29.98 -1.087 -7.146 0.9321 53.91
2.705 0.9321 12.89 -3.107 0.9321 -23.15 5.903 -1.087 15.85 -17.09 -27.03 -3.107 33.87 -7.146 -3.107 13.98 81.87
2.71 0 6.991 -5.127 -3.107 -29.05 9.942 -5.127 21.9 -15.07 -21.13 -1.087 35.89 -9.01 -7.146 27.96 99.89
2.715 3.884 4.971 -13.05 -11.03 -25.01 13.98 -11.03 25.94 -11.03 -11.03 -3.107 33.87 -7.146 -15.07 35.89 101.9
2.72 5.903 4.971 -19.11 -19.11 -15.07 11.96 -17.09 22.99 -9.01 -3.107 -7.146 29.98 -3.107 -25.01 39.92 92.9
2.725 3.884 2.952 -23.15 -21.13 -5.127 9.942 -17.09 11.96 -11.03 -1.087 -7.146 21.9 -1.087 -25.01 43.96 77.99
2.73 0 -1.087 -19.11 -19.11 0.9321 7.923 -13.05 2.952 -13.05 -3.107 -5.127 13.98 -1.087 -14.14 45.98 70.99
2.735 0.9321 -1.087 -11.03 -11.03 -2.02 9.942 -3.107 -2.02 -15.07 -5.127 0.9321 5.903 -1.087 1.864 39.92 66.96
2.74 -3.107 -3.107 -3.107 -5.127 -2.02 13.98 0.9321 -7.146 -13.05 -11.03 0 0.9321 -1.087 9.942 23.92 55.93
2.745 -5.127 0.9321 0.9321 -1.087 -2.02 16.93 0.9321 -1.087 -9.01 -15.07 0 -13.05 -3.107 8.855 0.9321 29.98
2.75 -5.127 2.952 -1.087 -1.087 -1.087 12.89 -5.127 1.864 -11.03 -23.15 -3.107 -23.15 -9.01 -4.039 -31.07 -3.107
2.755 -3.107 8.855 -5.127 -5.127 -3.107 5.903 -11.03 -2.02 -15.07 -29.05 -9.01 -27.03 -17.09 -29.05 -57.01 -49.09
2.76 0.9321 14.91 -6.059 -7.146 -7.146 2.952 -11.03 2.952 -19.11 -31.07 -12.12 -25.01 -21.13 -47.07 -69.13 -84.04
2.765 0 16.93 -4.039 -7.146 -5.127 8.855 -7.146 4.971 -17.09 -19.11 -8.078 -15.07 -13.05 -59.03 -69.13 -102.1
2.77 5.903 16.93 0.9321 -1.087 -1.087 17.87 0.9321 5.903 -7.146 -1.087 0.9321 -1.087 -2.02 -61.05 -65.09 -109.1
2.775 9.942 18.95 4.971 0.9321 3.884 29.98 4.971 11.96 3.884 9.942 6.991 9.942 15.85 -54.06 -65.09 -103.2
2.78 14.91 22.99 10.87 8.855 11.96 35.89 10.87 20.97 17.87 19.88 12.89 23.92 33.87 -48 -67.11 -88.08
2.785 11.96 26.88 13.98 13.98 19.88 35.89 11.96 33.87 25.94 21.9 13.98 39.92 39.92 -41.01 -67.11 -69.13
2.79 12.89 30.91 17.87 18.95 25.94 38.99 14.91 47.85 27.96 19.88 13.98 55.93 38.99 -28.12 -59.03 -35.11
2.795 12.89 26.88 13.98 18.95 27.96 39.92 14.91 57.95 30.91 16.93 11.96 71.93 32.93 -6.059 -39.15 -1.087
2.8 11.96 22.99 9.942 15.85 25.94 33.87 11.96 61.98 27.96 7.923 7.923 81.87 31.85 11.96 -21.13 25.94
2.805 7.923 18.95 6.991 12.89 25.94 26.88 6.991 57.95 24.86 0.9321 4.971 80.94 31.85 37.91 -6.059 51.89
2.81 1.864 8.855 3.884 11.96 19.88 18.95 2.952 52.97 17.87 -7.146 -2.02 71.93 28.89 47.85 0 75.97
2.815 -2.02 2.952 1.864 6.991 17.87 15.85 0.9321 43.96 8.855 -12.12 1.864 55.93 25.94 51.89 1.864 96.94
2.82 -11.03 2.952 1.864 3.884 13.98 20.97 1.864 34.95 7.923 -7.146 -2.02 43.96 20.97 41.94 -1.087 117.9
2.825 -13.05 -3.107 -1.087 -1.087 9.942 30.91 -1.087 29.98 10.87 4.971 2.952 30.91 19.88 29.98 4.971 133.9
2.83 -13.05 -9.01 -3.107 -5.127 5.903 35.89 0 23.92 19.88 19.88 0 13.98 11.96 15.85 7.923 140
2.835 -12.12 -13.05 -11.03 -12.12 -2.02 35.89 1.864 11.96 22.99 24.86 -1.087 0.9321 4.971 12.89 3.884 129.9
2.84 -14.14 -15.07 -17.09 -20.04 -7.146 26.88 -4.039 0.9321 13.98 11.96 -9.01 -19.11 0 16.93 0.9321 103.9
2.845 -15.07 -17.09 -23.15 -25.01 -15.07 15.85 -13.05 -17.09 0.9321 -3.107 -19.11 -35.11 -11.03 21.9 -7.146 69.91
2.85 -12.12 -11.03 -16 -20.04 -19.11 13.98 -14.14 -28.12 -13.05 -17.09 -16 -43.03 -19.11 26.88 -9.01 42.88
2.855 -7.146 -5.127 -8.078 -10.1 -17.09 19.88 -10.1 -31.07 -21.13 -17.09 -8.078 -41.01 -23.15 20.97 -7.146 17.87
2.86 0.9321 0.9321 -3.107 -3.107 -9.01 25.94 -7.146 -23.15 -19.11 -5.127 -3.107 -35.11 -19.11 9.942 -7.146 0.9321
2.865 0 -1.087 -2.02 0.9321 0.9321 32.93 -5.127 -16 -9.01 1.864 -1.087 -27.03 -17.09 -2.02 -17.09 -20.04
2.87 0 2.952 -6.059 -3.107 1.864 28.89 -3.107 -14.14 -7.146 3.884 -1.087 -21.13 -17.09 -7.146 -35.11 -46.14
2.875 -2.02 -3.107 -9.01 -5.127 5.903 19.88 -3.107 -21.13 -11.03 -2.02 -1.087 -19.11 -17.09 -17.09 -51.11 -75.03
2.88 -2.02 -1.087 -5.127 -3.107 5.903 14.91 -1.087 -25.01 -17.09 -7.146 -1.087 -17.09 -19.11 -14.14 -57.01 -89.02
2.885 5.903 0.9321 0 0 5.903 12.89 -2.02 -25.01 -21.13 -11.03 0.9321 -9.01 -15.07 -2.02 -51.11 -97.09
2.89 19.88 14.91 11.96 13.98 7.923 15.85 7.923 -21.13 -17.09 -3.107 0 -5.127 -7.146 11.96 -37.13 -89.02
2.895 37.91 28.89 19.88 27.96 11.96 25.94 15.85 -10.1 -5.127 9.942 5.903 0 1.864 36.97 -27.03 -68.04
2.9 53.91 40.86 23.92 35.89 19.88 37.91 21.9 1.864 9.942 31.85 7.923 7.923 17.87 48.94 -21.13 -40.08
2.905 61.98 42.88 23.92 35.89 27.96 49.87 21.9 7.923 29.98 51.89 7.923 15.85 35.89 45.98 -19.11 -9.01
2.91 61.98 36.97 17.87 27.96 29.98 55.93 15.85 10.87 49.87 61.98 5.903 23.92 51.89 35.89 -11.03 20.97
2.915 51.89 26.88 9.942 15.85 19.88 49.87 7.923 7.923 57.95 55.93 0 29.98 53.91 27.96 0.9321 55.93
2.92 33.87 10.87 0 1.864 0 33.87 0 0 51.89 37.91 0.9321 31.85 43.96 33.87 11.96 89.95
2.925 11.96 -1.087 -5.127 -5.127 -21.13 9.942 -1.087 -7.146 31.85 9.942 -5.127 29.98 19.88 51.89 23.92 119.9
2.93 -3.107 -15.07 -13.05 -13.05 -41.01 -7.146 -5.127 -21.13 5.903 -7.146 -9.01 23.92 -3.107 71.93 27.96 140
2.935 -17.09 -25.01 -19.11 -15.07 -53.13 -19.11 -9.01 -31.07 -13.05 -15.07 -13.05 11.96 -25.01 75.97 21.9 145.9
2.94 -21.13 -29.05 -19.11 -17.09 -55.15 -21.13 -11.03 -39.15 -23.15 -13.05 -15.07 -2.02 -35.11 59.96 13.98 138
2.945 -23.15 -29.05 -21.13 -17.09 -55.15 -19.11 -13.05 -47.07 -25.01 -7.146 -17.09 -15.07 -39.15 27.96 7.923 115.9
2.95 -23.15 -27.03 -25.01 -21.13 -61.05 -19.11 -17.09 -55.15 -23.15 -5.127 -23.15 -33.09 -41.01 -2.02 1.864 85.91
2.955 -29.05 -31.07 -33.09 -31.07 -71.15 -25.01 -25.01 -67.11 -31.07 -15.07 -31.07 -51.11 -47.07 -15.07 -2.02 51.89
2.96 -35.11 -39.15 -41.01 -41.01 -79.07 -33.09 -35.11 -76.12 -45.05 -31.07 -39.15 -63.07 -59.03 -17.09 -5.127 24.86
2.965 -39.15 -47.07 -43.03 -47.07 -77.05 -37.13 -39.15 -80 -59.03 -45.05 -41.01 -63.07 -69.13 -9.01 -11.03 0.9321
2.97 -33.09 -45.05 -33.09 -41.01 -59.03 -31.07 -33.09 -75.03 -65.09 -47.07 -31.07 -53.13 -69.13 0 -15.07 -13.05
2.975 -17.09 -33.09 -13.05 -21.13 -31.07 -17.09 -17.09 -56.08 -57.01 -35.11 -13.05 -37.13 -57.01 8.855 -13.05 -28.12
2.98 1.864 -11.03 5.903 -2.02 -3.107 -1.087 1.864 -36.04 -37.13 -15.07 3.884 -19.11 -37.13 10.87 -12.12 -46.14
2.985 23.92 6.991 21.9 19.88 13.98 3.884 19.88 -21.13 -13.05 1.864 17.87 -9.01 -15.07 -2.02 -15.07 -65.09
2.99 37.91 18.95 27.96 29.98 28.89 9.942 25.94 -15.07 1.864 16.93 21.9 -11.03 0.9321 -18.02 -24.08 -83.11
2.995 42.88 18.95 23.92 27.96 34.95 7.923 21.9 -23.15 11.96 18.95 13.98 -19.11 3.884 -42.1 -40.08 -99.11
3 39.92 12.89 19.88 21.9 39.92 3.884 11.96 -33.09 11.96 9.942 3.884 -27.03 5.903 -61.05 -49.09 -103.2
3.005 40.86 8.855 19.88 21.9 54.99 1.864 8.855 -34.02 10.87 4.971 1.864 -27.03 7.923 -51.11 -46.14 -98.03
3.01 44.9 14.91 25.94 28.89 72.86 7.923 16.93 -23.15 10.87 4.971 9.942 -15.07 15.85 -29.05 -32 -86.06
3.015 53.91 24.86 35.89 39.92 85.91 13.98 27.96 -7.146 13.98 9.942 23.92 0 23.92 0.9321 -15.07 -69.13
3.02 58.88 30.91 39.92 48.94 89.95 20.97 38.99 6.991 20.97 25.94 34.95 16.93 31.85 8.855 -3.107 -42.1
3.025 48.94 24.86 29.98 44.9 79.85 20.97 32.93 15.85 26.88 33.87 30.91 20.97 31.85 0.9321 -1.087 -13.05
3.03 31.85 6.991 15.85 29.98 59.96 11.96 19.88 11.96 25.94 31.85 15.85 15.85 23.92 -9.01 -5.127 19.88
3.035 11.96 -5.127 0.9321 12.89 40.86 -1.087 5.903 5.903 21.9 22.99 0.9321 10.87 10.87 -10.1 -3.107 64.94
3.04 1.864 -15.07 -4.039 1.864 27.96 -6.059 0.9321 -2.02 7.923 9.942 0.9321 8.855 -1.087 8.855 4.971 110.9
3.045 0.9321 -15.07 -5.127 -2.02 27.96 -9.01 0 0.9321 0.9321 1.864 0 11.96 -5.127 47.85 23.92 142
3.05 3.884 -3.107 0 3.884 36.97 -4.039 9.942 1.864 -2.02 9.942 12.89 22.99 -5.127 79.85 47.85 160.9
3.055 10.87 0.9321 8.855 8.855 48.94 1.864 18.95 5.903 1.864 24.86 19.88 28.89 0.9321 81.87 57.95 156
3.06 13.98 -1.087 13.98 10.87 56.86 4.971 18.95 6.991 5.903 38.99 19.88 24.86 -1.087 55.93 57.95 133
3.065 12.89 -9.01 10.87 8.855 64.94 4.971 14.91 3.884 15.85 42.88 11.96 16.93 3.884 19.88 43.96 101.9
3.07 7.923 -13.05 11.96 7.923 68.98 0.9321 9.942 1.864 16.93 35.89 8.855 2.952 1.864 1.864 29.98 66.96
3.075 5.903 -13.05 9.942 7.923 71.93 -3.107 9.942 -2.02 9.942 17.87 9.942 0.9321 -2.02 -2.02 13.98 35.89
3.08 6.991 2.952 8.855 13.98 77.99 -8.078 13.98 0 1.864 1.864 15.85 -2.02 -2.02 8.855 4.971 4.971
3.085 11.96 12.89 10.87 16.93 82.96 -10.1 13.98 3.884 0.9321 0 14.91 -6.059 -6.059 10.87 -3.107 -32
3.09 15.85 20.97 9.942 17.87 85.91 -11.03 7.923 5.903 -5.127 0.9321 9.942 -15.07 -11.03 -1.087 -23.15 -79.07
3.095 14.91 20.97 9.942 12.89 81.87 -14.14 0.9321 7.923 0 5.903 0.9321 -20.04 -13.05 -30.14 -47.07 -123
3.1 12.89 8.855 11.96 4.971 75.97 -20.04 -2.02 10.87 1.864 3.884 -6.059 -28.12 -15.07 -58.1 -69.13 -162
3.105 5.903 -1.087 11.96 1.864 67.89 -27.03 -3.107 13.98 -1.087 0.9321 -9.01 -29.05 -15.07 -69.13 -79.07 -185
3.11 2.952 -9.01 11.96 0.9321 66.96 -31.07 1.864 17.87 -4.039 -8.078 -5.127 -29.05 -17.09 -65.09 -78.14 -188.1
3.115 2.952 -11.03 11.96 3.884 66.96 -31.07 2.952 14.91 -12.12 -14.14 -2.02 -27.03 -19.11 -51.11 -64 -178
3.12 5.903 -7.146 7.923 5.903 69.91 -25.01 3.884 13.98 -17.09 -13.05 0 -23.15 -17.09 -41.01 -45.05 -163.1
3.125 8.855 -1.087 3.884 3.884 70.99 -17.09 1.864 13.98 -15.07 1.864 1.864 -17.09 -15.07 -28.12 -20.04 -139
3.13 11.96 0.9321 1.864 1.864 66.96 -9.01 0 21.9 -5.127 12.89 -2.02 -7.146 -7.146 -12.12 -1.087 -99.11
3.135 11.96 -1.087 1.864 3.884 61.98 -1.087 -2.02 29.98 1.864 31.85 -2.02 7.923 0 1.864 23.92 -53.13
3.14 11.96 -3.107 3.884 5.903 60.9 3.884 -2.02 40.86 15.85 47.85 1.864 25.94 11.96 18.95 44.9 -1.087
3.145 7.923 -5.127 3.884 9.942 55.93 9.942 0 46.92 27.96 61.98 7.923 37.91 21.9 32.93 57.95 54.99
3.15 3.884 -5.127 1.864 9.942 49.87 11.96 1.864 43.96 31.85 69.91 9.942 39.92 21.9 35.89 63.85 97.87
3.155 0.9321 -7.146 -1.087 3.884 37.91 7.923 0 38.99 27.96 65.87 7.923 31.85 15.85 37.91 65.87 126.9
3.16 -11.03 -15.07 -11.03 -3.107 15.85 -1.087 0.9321 32.93 17.87 53.91 0 17.87 1.864 43.96 65.87 140.9
3.165 -23.15 -27.03 -21.13 -15.07 -3.107 -17.09 -7.146 31.85 3.884 35.89 -5.127 11.96 -7.146 51.89 65.87 142
3.17 -31.07 -35.11 -27.03 -23.15 -21.13 -27.03 -13.05 37.91 -1.087 21.9 -13.05 15.85 -13.05 53.91 65.87 133.9
3.175 -29.05 -33.09 -27.03 -21.13 -25.01 -23.15 -13.05 45.98 -5.127 25.94 -13.05 27.96 -9.01 45.98 63.85 124
3.18 -21.13 -21.13 -21.13 -15.07 -15.07 -9.01 -11.03 51.89 0 39.92 -9.01 41.94 0 33.87 61.98 110
3.185 -5.127 -5.127 -11.03 -7.146 0.9321 1.864 -5.127 53.91 17.87 57.95 -3.107 47.85 11.96 23.92 55.93 91.97
3.19 1.864 0.9321 -1.087 -3.107 3.884 9.942 -1.087 49.87 33.87 61.98 -2.02 41.94 19.88 21.9 41.94 61.98
3.195 9.942 0.9321 -2.02 -5.127 1.864 7.923 -1.087 41.94 35.89 45.98 0.9321 21.9 13.98 25.94 19.88 17.87
3.2 11.96 -3.107 0.9321 -7.146 -3.107 -2.02 -5.127 27.96 21.9 15.85 -5.127 -2.02 -2.02 23.92 -5.127 -35.11
3.205 9.942 -9.01 -5.127 -11.03 -15.07 -3.107 -13.05 13.98 0 -9.01 -13.05 -21.13 -15.07 9.942 -37.13 -99.11
3.21 7.923 -7.146 -11.03 -9.01 -23.15 -3.107 -19.11 3.884 -17.09 -23.15 -21.13 -37.13 -25.01 -9.01 -67.11 -157.1
3.215 9.942 -1.087 -15.07 -7.146 -27.03 0.9321 -21.13 -1.087 -29.05 -19.11 -25.01 -47.07 -29.05 -33.09 -91.03 -193.1
3.22 9.942 12.89 -17.09 -5.127 -31.07 1.864 -21.13 -4.039 -29.05 -3.107 -25.01 -51.11 -27.03 -49.09 -103.2 -203
3.225 5.903 18.95 -19.11 -7.146 -43.03 -4.039 -19.11 -4.039 -21.13 1.864 -23.15 -53.13 -25.01 -59.03 -107 -195.1
3.23 -1.087 12.89 -25.01 -15.07 -61.05 -19.11 -21.13 -5.127 -19.11 0 -23.15 -53.13 -27.03 -61.05 -101.1 -175.1
3.235 -19.11 -1.087 -35.11 -25.01 -82.02 -36.04 -27.03 -4.039 -27.03 -12.12 -25.01 -45.05 -35.11 -57.01 -83.11 -152.1
3.24 -37.13 -25.01 -41.01 -35.11 -100 -46.14 -33.09 -4.039 -36.04 -34.02 -27.03 -31.07 -41.01 -51.11 -55.15 -124.1
3.245 -47.07 -41.01 -41.01 -35.11 -109.1 -47.07 -33.09 -1.087 -47.07 -51.11 -27.03 -7.146 -43.03 -33.09 -23.15 -89.02
3.25 -45.05 -41.01 -32 -29.05 -106.1 -34.02 -25.01 9.942 -40.08 -40.08 -19.11 19.88 -30.14 -5.127 0.9321 -30.14
3.255 -32 -29.05 -20.04 -19.11 -94.14 -17.09 -11.03 25.94 -24.08 -12.12 -9.01 49.87 -10.1 22.99 3.884 30.91
3.26 -21.13 -11.03 -13.05 -9.01 -83.11 -5.127 0.9321 45.98 -3.107 11.96 0.9321 73.95 1.864 51.89 0 93.99
3.265 -14.14 -1.087 -12.12 -7.146 -77.05 -1.087 0 58.88 8.855 29.98 0.9321 77.99 8.855 70.99 -4.039 142
3.27 -20.04 2.952 -18.02 -12.12 -85.13 -6.059 1.864 57.95 8.855 21.9 0.9321 65.87 2.952 74.88 -12.12 161.9
3.275 -33.09 -1.087 -25.01 -23.15 -99.11 -21.13 -9.01 47.85 -2.02 0 -1.087 45.98 -7.146 63.85 -11.03 151.9
3.28 -42.1 -13.05 -25.01 -28.12 -110.1 -35.11 -14.14 39.92 -11.03 -16 -6.059 23.92 -23.15 46.92 -2.02 131
3.285 -41.01 -21.13 -21.13 -26.1 -113.1 -41.01 -14.14 32.93 -20.04 -27.03 -6.059 7.923 -28.12 31.85 2.952 105.9
3.29 -31.07 -23.15 -15.07 -19.11 -105 -43.03 -9.01 27.96 -25.01 -25.01 -5.127 -2.02 -29.05 17.87 1.864 85.91
3.295 -15.07 -13.05 -11.03 -9.01 -84.04 -37.13 -3.107 18.95 -21.13 -20.04 1.864 -8.078 -26.1 15.85 0 68.98
3.3 -6.059 -7.146 -8.078 -5.127 -66.02 -36.04 0 4.971 -23.15 -24.08 0 -22.06 -32 14.91 -18.02 44.9
3.305 -2.02 -5.127 -12.12 -6.059 -59.03 -35.11 -3.107 -6.059 -35.11 -32 0 -39.15 -42.1 6.991 -42.1 13.98
3.31 -8.078 -3.107 -18.02 -11.03 -56.08 -36.04 -10.1 -24.08 -41.01 -40.08 -7.146 -60.12 -48 -10.1 -64 -24.08
3.315 -15.07 -3.107 -19.11 -11.03 -60.12 -37.13 -19.11 -36.04 -45.05 -34.02 -16 -72.08 -48 -43.03 -78.14 -64
3.32 -19.11 -3.107 -11.03 -11.03 -61.05 -39.15 -19.11 -37.13 -37.13 -21.13 -21.13 -71.15 -39.15 -79.07 -83.11 -97.09
3.325 -7.146 2.952 -1.087 -4.039 -55.15 -33.09 -10.1 -28.12 -24.08 -9.01 -14.14 -53.13 -26.1 -87.15 -72.08 -113.1
3.33 0.9321 12.89 7.923 2.952 -48 -31.07 -1.087 -11.03 -15.07 -4.039 0 -27.03 -15.07 -72.08 -52.04 -122.1
3.335 17.87 22.99 13.98 9.942 -35.11 -25.01 9.942 0.9321 -11.03 -9.01 9.942 -1.087 -11.03 -43.03 -29.05 -123
3.34 32.93 26.88 14.91 16.93 -19.11 -18.02 18.95 11.96 -8.078 -15.07 18.95 15.85 -10.1 -16 -8.078 -117.1
3.345 38.99 24.86 8.855 15.85 -9.01 -9.01 15.85 24.86 -6.059 -7.146 14.91 29.98 -6.059 -10.1 1.864 -111.1
3.35 31.85 18.95 -2.02 9.942 -5.127 -1.087 3.884 35.89 -2.02 1.864 3.884 39.92 0 -27.03 0 -95.07
3.355 26.88 12.89 -6.059 0 0 1.864 -1.087 47.85 14.91 20.97 -3.107 45.98 14.91 -38.06 1.864 -64
3.36 19.88 8.855 -10.1 -3.107 0 1.864 -9.01 59.96 26.88 26.88 -7.146 51.89 24.86 -39.15 9.942 -18.02
3.365 19.88 8.855 -11.03 -7.146 -1.087 -5.127 -7.146 59.96 29.98 19.88 -5.127 55.93 27.96 -17.09 25.94 27.96
3.37 23.92 10.87 -9.01 -7.146 0 -6.059 -3.107 54.99 28.89 14.91 0 55.93 25.94 5.903 43.96 74.88
3.375 23.92 10.87 -9.01 -5.127 -2.02 -8.078 -2.02 42.88 25.94 16.93 3.884 49.87 21.9 17.87 59.96 104.9
3.38 17.87 2.952 -13.05 -9.01 -7.146 -11.03 0.9321 27.96 27.96 25.94 1.864 29.98 19.88 3.884 59.96 113.9
3.385 0 -7.146 -23.15 -15.07 -13.05 -16 -9.01 10.87 33.87 33.87 -1.087 3.884 21.9 -21.13 43.96 103.9
3.39 -15.07 -23.15 -35.11 -25.01 -23.15 -28.12 -21.13 -4.039 35.89 27.96 -15.07 -25.01 17.87 -49.09 7.923 79.85
3.395 -33.09 -37.13 -45.05 -33.09 -33.09 -45.05 -31.07 -27.03 21.9 1.864 -25.01 -61.05 3.884 -57.01 -33.09 53.91
3.4 -43.03 -47.07 -49.09 -39.15 -43.03 -59.03 -39.15 -51.11 0.9321 -29.05 -33.09 -97.09 -13.05 -41.01 -75.03 27.96
3.405 -47.07 -51.11 -47.07 -39.15 -55.15 -69.13 -39.15 -69.13 -27.03 -59.03 -37.13 -127.1 -37.13 -15.07 -103.2 1.864
3.41 -49.09 -53.13 -41.01 -37.13 -65.09 -69.13 -37.13 -81.09 -47.07 -71.15 -39.15 -141.1 -55.15 -2.02 -113.1 -25.01
3.415 -53.13 -53.13 -35.11 -33.09 -75.03 -61.05 -35.11 -85.13 -49.09 -63.07 -37.13 -141.1 -61.05 -3.107 -105 -59.03
3.42 -57.01 -53.13 -31.07 -33.09 -79.07 -49.09 -33.09 -81.09 -37.13 -43.03 -35.11 -127.1 -55.15 -29.05 -95.07 -95.07
3.425 -61.05 -47.07 -33.09 -33.09 -79.07 -39.15 -31.07 -73.01 -23.15 -25.01 -31.07 -101.1 -45.05 -61.05 -89.02 -129.1
3.43 -61.05 -39.15 -39.15 -37.13 -75.03 -35.11 -31.07 -61.05 -15.07 -19.11 -29.05 -71.15 -37.13 -81.09 -87.15 -153
3.435 -59.03 -29.05 -43.03 -39.15 -67.11 -33.09 -31.07 -47.07 -17.09 -23.15 -27.03 -39.15 -31.07 -81.09 -79.07 -167
3.44 -53.13 -23.15 -43.03 -41.01 -57.01 -31.07 -27.03 -33.09 -23.15 -31.07 -25.01 -9.01 -25.01 -69.13 -61.05 -171
3.445 -43.03 -21.13 -35.11 -39.15 -49.09 -25.01 -23.15 -15.07 -25.01 -31.07 -21.13 13.98 -17.09 -55.15 -35.11 -163.1
3.45 -29.05 -17.09 -25.01 -35.11 -41.01 -15.07 -17.09 2.952 -15.07 -21.13 -15.07 39.92 -5.127 -51.11 -5.127 -149.1
3.455 -17.09 -9.01 -15.07 -27.03 -33.09 -3.107 -13.05 24.86 -2.02 -3.107 -7.146 61.98 3.884 -57.01 15.85 -129.1
3.46 -5.127 -1.087 -7.146 -21.13 -23.15 3.884 -7.146 41.94 17.87 9.942 -1.087 79.85 17.87 -61.05 33.87 -103.2
3.465 0 12.89 -1.087 -13.05 -15.07 13.98 0.9321 56.86 31.85 21.9 -2.02 89.95 27.96 -57.01 45.98 -71.15
3.47 7.923 26.88 0 -7.146 -5.127 21.9 1.864 65.87 39.92 27.96 1.864 91.97 31.85 -41.01 53.91 -33.09
3.475 13.98 34.95 3.884 -1.087 1.864 27.96 3.884 65.87 43.96 29.98 1.864 83.89 33.87 -27.03 51.89 0
3.48 23.92 38.99 3.884 -2.02 15.85 34.95 1.864 59.96 43.96 33.87 0 66.96 37.91 -20.04 37.91 32.93
3.485 33.87 38.99 1.864 1.864 31.85 38.99 0.9321 46.92 45.98 37.91 -2.02 40.86 40.86 -22.06 11.96 50.95
3.49 39.92 42.88 -2.02 5.903 45.98 39.92 -3.107 27.96 45.98 39.92 -1.087 7.923 37.91 -27.03 -11.03 55.93
3.495 39.92 42.88 -2.02 9.942 51.89 36.97 -3.107 7.923 39.92 35.89 -1.087 -18.02 32.93 -24.08 -29.05 48.94
3.5 33.87 42.88 0 11.96 49.87 26.88 -2.02 -10.1 25.94 27.96 -1.087 -40.08 20.97 -20.04 -31.07 34.95
3.505 29.98 42.88 11.96 17.87 41.94 21.9 13.98 -25.01 13.98 15.85 7.923 -55.15 3.884 -17.09 -19.11 19.88
3.51 27.96 40.86 23.92 21.9 37.91 20.97 27.96 -37.13 3.884 5.903 16.93 -59.03 -6.059 -21.13 -9.01 1.864
3.515 31.85 38.99 29.98 22.99 32.93 25.94 29.98 -41.01 0 0 18.95 -63.07 -12.12 -39.15 -11.03 -19.11
3.52 31.85 34.95 29.98 17.87 27.96 31.85 23.92 -51.11 0 0.9321 9.942 -69.13 -19.11 -65.09 -25.01 -45.05
3.525 27.96 30.91 17.87 6.991 22.99 38.99 8.855 -55.15 -2.02 1.864 0.9321 -74.1 -19.11 -80 -42.1 -66.02
3.53 17.87 26.88 7.923 1.864 14.91 40.86 0 -62.14 -2.02 -1.087 -5.127 -77.05 -12.12 -75.03 -50.02 -77.05
3.535 7.923 24.86 3.884 -3.107 5.903 41.94 -5.127 -63.07 0 7.923 -11.03 -75.03 -7.146 -59.03 -47.07 -75.03
3.54 6.991 28.89 6.991 -1.087 -2.02 42.88 1.864 -50.02 8.855 17.87 -5.127 -57.01 0 -36.04 -29.05 -64
3.545 11.96 36.97 13.98 0 1.864 40.86 4.971 -32 18.95 20.97 1.864 -34.02 8.855 -20.04 -13.05 -57.01
3.55 13.98 38.99 13.98 4.971 -1.087 33.87 11.96 -13.05 23.92 13.98 -1.087 -6.059 13.98 -11.03 1.864 -49.09
3.555 7.923 34.95 11.96 1.864 -8.078 24.86 8.855 -4.039 20.97 -1.087 0 8.855 6.991 -12.12 11.96 -37.13
3.56 -1.087 24.86 0.9321 -1.087 -17.09 16.93 2.952 -2.02 10.87 -7.146 0.9321 23.92 1.864 -14.14 29.98 -18.02
3.565 -9.01 16.93 -3.107 -9.01 -23.15 7.923 0.9321 -5.127 0 -9.01 -9.01 23.92 -7.146 -15.07 45.98 1.864
3.57 -15.07 12.89 -9.01 -14.14 -28.12 6.991 0 -4.039 -2.02 0.9321 -7.146 25.94 -4.039 -15.07 58.88 31.85
3.575 -17.09 12.89 -13.05 -14.14 -30.14 6.991 -2.02 -3.107 1.864 20.97 -8.078 22.99 0 -18.02 58.88 60.9
3.58 -13.05 12.89 -15.07 -17.09 -35.11 5.903 -7.146 -5.127 11.96 31.85 -11.03 17.87 7.923 -17.09 49.87 73.95
3.585 -11.03 8.855 -19.11 -20.04 -40.08 3.884 -11.03 -5.127 17.87 27.96 -10.1 15.85 10.87 -7.146 37.91 83.89
3.59 -11.03 2.952 -21.13 -27.03 -39.15 -1.087 -19.11 -17.09 13.98 13.98 -16 7.923 2.952 5.903 31.85 93.99
3.595 -7.146 -1.087 -21.13 -29.05 -31.07 -2.02 -21.13 -29.05 7.923 1.864 -17.09 0 -7.146 19.88 35.89 103.9
3.6 -2.02 2.952 -19.11 -25.01 -11.03 8.855 -19.11 -36.04 3.884 3.884 -18.02 0 -8.078 30.91 41.94 115
3.605 11.96 10.87 -17.09 -17.09 9.942 20.97 -13.05 -33.09 7.923 21.9 -19.11 -2.02 -2.02 32.93 43.96 117
3.61 23.92 20.97 -13.05 -9.01 31.85 27.96 -11.03 -27.03 17.87 41.94 -19.11 -7.146 5.903 21.9 37.91 99.89
3.615 31.85 24.86 -13.05 -7.146 39.92 30.91 -11.03 -22.06 27.96 49.87 -19.11 -12.12 14.91 14.91 23.92 62.92
3.62 31.85 20.97 -13.05 -9.01 35.89 28.89 -15.07 -23.15 25.94 37.91 -19.11 -20.04 11.96 10.87 5.903 18.95
3.625 23.92 14.91 -7.146 -9.01 29.98 21.9 -15.07 -31.07 13.98 13.98 -17.09 -31.07 0 11.96 -3.107 -17.09
3.63 19.88 10.87 0.9321 -5.127 27.96 23.92 -9.01 -35.11 -2.02 -3.107 -11.03 -33.09 -9.01 9.942 -9.01 -39.15
3.635 19.88 16.93 7.923 1.864 33.87 29.98 -2.02 -36.04 -7.146 -11.03 -1.087 -27.03 -15.07 5.903 -9.01 -41.01
3.64 27.96 24.86 19.88 15.85 43.96 33.87 9.942 -27.03 -5.127 -5.127 3.884 -17.09 -9.01 -1.087 -7.146 -29.05
3.645 39.92 30.91 23.92 25.94 51.89 33.87 17.87 -6.059 3.884 5.903 9.942 -1.087 3.884 -13.05 -5.127 -15.07
3.65 47.85 32.93 21.9 27.96 53.91 27.96 15.85 8.855 17.87 17.87 5.903 7.923 23.92 -21.13 -7.146 -5.127
3.655 51.89 26.88 17.87 23.92 47.85 21.9 7.923 19.88 29.98 21.9 -2.02 21.9 39.92 -23.15 -11.03 -5.127
3.66 49.87 22.99 13.98 19.88 39.92 19.88 -2.02 31.85 37.91 17.87 -5.127 29.98 47.85 -19.11 -11.03 -7.146
3.665 47.85 20.97 15.85 19.88 35.89 25.94 -3.107 39.92 43.96 13.98 -11.03 37.91 47.85 -7.146 -7.146 -7.146
3.67 45.98 22.99 19.88 23.92 39.92 33.87 -1.087 49.87 47.85 11.96 -9.01 43.96 45.98 7.923 0 0.9321
3.675 41.94 26.88 21.9 27.96 45.98 37.91 -2.02 59.96 49.87 9.942 -5.127 47.85 43.96 29.98 11.96 7.923
3.68 39.92 26.88 15.85 25.94 51.89 31.85 1.864 65.87 47.85 7.923 -1.087 47.85 41.94 47.85 25.94 19.88
3.685 35.89 20.97 5.903 21.9 47.85 21.9 1.864 65.87 41.94 3.884 -1.087 47.85 41.94 51.89 35.89 29.98
3.69 31.85 12.89 -2.02 13.98 39.92 13.98 1.864 53.91 31.85 1.864 -1.087 43.96 41.94 37.91 43.96 29.98
3.695 25.94 6.991 -3.107 7.923 29.98 11.96 0 35.89 23.92 0 -3.107 35.89 41.94 11.96 45.98 25.94
3.7 19.88 4.971 -3.107 3.884 19.88 13.98 0 13.98 21.9 0 -3.107 27.96 37.91 -11.03 41.94 19.88
3.705 15.85 4.971 -1.087 1.864 13.98 13.98 0.9321 0.9321 19.88 -2.02 -3.107 15.85 27.96 -27.03 31.85 15.85
3.71 9.942 2.952 -5.127 -2.02 7.923 3.884 -3.107 -10.1 15.85 -5.127 -9.01 1.864 13.98 -24.08 13.98 11.96
3.715 1.864 0.9321 -8.078 -3.107 0 -7.146 -9.01 -20.04 1.864 -17.09 -15.07 -7.146 -2.02 -12.12 -1.087 11.96
3.72 -3.107 -9.01 -13.05 -7.146 -7.146 -21.13 -13.05 -31.07 -9.01 -29.05 -21.13 -19.11 -13.05 0.9321 -7.146 13.98
3.725 -9.01 -15.07 -8.078 -9.01 -15.07 -23.15 -9.01 -36.04 -22.06 -34.02 -18.02 -27.03 -25.01 2.952 -2.02 17.87
3.73 -11.03 -11.03 0.9321 -1.087 -15.07 -12.12 1.864 -38.06 -24.08 -28.12 -8.078 -29.05 -27.03 0 4.971 24.86
3.735 -7.146 0.9321 17.87 7.923 -7.146 0 9.942 -33.09 -17.09 -15.07 -2.02 -25.01 -21.13 -17.09 17.87 25.94
3.74 -3.107 10.87 32.93 21.9 5.903 16.93 20.97 -27.03 0 -1.087 8.855 -15.07 -6.059 -31.07 30.91 26.88
3.745 -2.02 20.97 36.97 30.91 21.9 20.97 24.86 -21.13 8.855 12.89 12.89 -11.03 2.952 -37.13 31.85 18.95
3.75 3.884 24.86 27.96 29.98 33.87 15.85 19.88 -25.01 13.98 17.87 7.923 -9.01 9.942 -29.05 23.92 11.96
3.755 6.991 24.86 19.88 22.99 40.86 6.991 10.87 -26.1 19.88 21.9 3.884 -11.03 16.93 -8.078 17.87 8.855
3.76 6.991 22.99 11.96 16.93 38.99 0 2.952 -30.14 19.88 19.88 -2.02 -15.07 18.95 8.855 14.91 7.923
3.765 7.923 22.99 11.96 13.98 33.87 -2.02 0 -25.01 25.94 19.88 0 -11.03 21.9 19.88 17.87 5.903
3.77 8.855 24.86 17.87 18.95 28.89 0 7.923 -12.12 36.97 26.88 8.855 -1.087 31.85 18.95 31.85 7.923
3.775 13.98 28.89 24.86 25.94 24.86 0.9321 18.95 0 47.85 37.91 15.85 11.96 41.94 9.942 44.9 4.971
3.78 13.98 30.91 25.94 29.98 17.87 0 23.92 15.85 53.91 41.94 21.9 27.96 49.87 1.864 53.91 0.9321
3.785 14.91 28.89 28.89 30.91 10.87 0.9321 31.85 26.88 56.86 42.88 23.92 39.92 55.93 1.864 59.96 -11.03
3.79 10.87 22.99 26.88 28.89 0.9321 -2.02 30.91 31.85 52.97 38.99 24.86 46.92 53.91 -1.087 62.92 -16
3.795 9.942 12.89 22.99 23.92 -7.146 -5.127 27.96 26.88 47.85 31.85 26.88 46.92 49.87 -3.107 59.96 -18.02
3.8 2.952 0.9321 22.99 22.99 -20.04 -12.12 26.88 21.9 42.88 18.95 28.89 40.86 39.92 -9.01 52.97 -12.12
3.805 1.864 -3.107 20.97 24.86 -30.14 -21.13 27.96 10.87 34.95 10.87 27.96 31.85 31.85 -16 45.98 0.9321
3.81 -5.127 -11.03 17.87 21.9 -39.15 -31.07 25.94 0.9321 21.9 5.903 25.94 23.92 21.9 -21.13 45.98 9.942
3.815 -7.146 -9.01 14.91 21.9 -42.1 -36.04 26.88 -9.01 17.87 7.923 21.9 13.98 17.87 -23.15 48.94 22.99
3.82 -8.078 -3.107 11.96 16.93 -38.06 -37.13 23.92 -14.14 10.87 12.89 14.91 9.942 15.85 -20.04 55.93 29.98
3.825 -7.146 -1.087 9.942 9.942 -31.07 -27.03 19.88 -13.05 13.98 17.87 9.942 5.903 17.87 -17.09 57.95 39.92
3.83 -2.02 2.952 7.923 10.87 -20.04 -15.07 16.93 1.864 23.92 27.96 5.903 7.923 24.86 -4.039 58.88 47.85
3.835 0 2.952 11.96 10.87 -12.12 -10.1 14.91 8.855 33.87 29.98 5.903 11.96 32.93 8.855 53.91 54.99
3.84 -2.02 0.9321 7.923 9.942 -9.01 -13.05 11.96 19.88 31.85 23.92 1.864 11.96 33.87 31.85 45.98 57.95
3.845 0 0.9321 6.991 6.991 -9.01 -18.02 6.991 23.92 24.86 10.87 -1.087 3.884 28.89 57.95 33.87 56.86
3.85 5.903 -3.107 0.9321 1.864 -9.01 -20.04 -1.087 17.87 10.87 0.9321 -4.039 -3.107 18.95 67.89 18.95 50.95
3.855 11.96 -3.107 0.9321 -2.02 -9.01 -15.07 -5.127 7.923 0 0 -13.05 -19.11 11.96 57.95 -2.02 37.91
3.86 19.88 -1.087 0 0 -3.107 0 -10.1 4.971 6.991 14.91 -18.02 -31.07 11.96 32.93 -14.14 18.95
3.865 27.96 -1.087 0 3.884 0 7.923 -13.05 6.991 20.97 34.95 -20.04 -41.01 21.9 2.952 -28.12 -3.107
3.87 33.87 6.991 0 7.923 7.923 13.98 -11.03 11.96 37.91 49.87 -21.13 -43.03 35.89 -17.09 -41.01 -29.05
3.875 35.89 14.91 6.991 11.96 13.98 7.923 -7.146 16.93 47.85 49.87 -17.09 -45.05 41.94 -18.02 -44.12 -51.11
3.88 33.87 20.97 9.942 11.96 15.85 0.9321 -1.087 20.97 43.96 31.85 -11.03 -43.03 37.91 -4.039 -43.03 -65.09
3.885 29.98 24.86 11.96 9.942 17.87 -13.05 -2.02 25.94 29.98 7.923 -7.146 -37.13 27.96 11.96 -37.13 -71.15
3.89 25.94 24.86 13.98 11.96 15.85 -19.11 3.884 35.89 15.85 -7.146 -2.02 -21.13 17.87 31.85 -27.03 -69.13
3.895 19.88 22.99 15.85 17.87 15.85 -17.09 11.96 49.87 7.923 -15.07 7.923 -2.02 15.85 43.96 -15.07 -61.05
3.9 11.96 14.91 17.87 21.9 13.98 -15.07 17.87 71.93 7.923 -13.05 17.87 25.94 19.88 39.92 -2.02 -49.09
3.905 3.884 4.971 17.87 23.92 11.96 -15.07 23.92 95.85 13.98 -5.127 23.92 51.89 27.96 27.96 21.9 -37.13
3.91 -1.087 -3.107 15.85 19.88 7.923 -21.13 25.94 113.9 19.88 -1.087 23.92 69.91 31.85 7.923 45.98 -27.03
3.915 -9.01 -17.09 7.923 13.98 1.864 -25.01 19.88 117.9 21.9 0.9321 15.85 75.97 31.85 -9.01 65.87 -17.09
3.92 -17.09 -29.05 -2.02 1.864 0.9321 -29.05 9.942 111.9 19.88 0.9321 7.923 67.89 25.94 -27.03 75.97 -11.03
3.925 -21.13 -37.13 -7.146 -1.087 -5.127 -31.07 -2.02 95.85 15.85 0.9321 -2.02 53.91 19.88 -37.13 73.95 -5.127
3.93 -27.03 -41.01 -17.09 -11.03 -11.03 -33.09 -7.146 75.97 5.903 0.9321 -3.107 37.91 11.96 -35.11 63.85 -3.107
3.935 -31.07 -41.01 -21.13 -17.09 -15.07 -37.13 -13.05 55.93 0.9321 -5.127 -5.127 23.92 3.884 -19.11 57.95 0.9321
3.94 -37.13 -43.03 -25.01 -23.15 -19.11 -41.01 -15.07 42.88 -13.05 -17.09 -7.146 13.98 -3.107 0 59.96 -2.02
3.945 -41.01 -45.05 -23.15 -27.03 -23.15 -45.05 -15.07 30.91 -27.03 -35.11 -9.01 5.903 -17.09 23.92 65.87 1.864
3.95 -41.01 -43.03 -21.13 -25.01 -23.15 -45.05 -15.07 25.94 -35.11 -45.05 -13.05 1.864 -29.05 41.94 71.93 3.884
3.955 -35.11 -37.13 -17.09 -17.09 -17.09 -39.15 -17.09 22.99 -33.09 -41.01 -13.05 0 -29.05 45.98 69.91 5.903
3.96 -17.09 -23.15 -13.05 -9.01 -1.087 -29.05 -17.09 23.92 -21.13 -21.13 -13.05 0 -17.09 33.87 59.96 3.884
3.965 0 -5.127 -11.03 -3.107 11.96 -19.11 -17.09 23.92 -3.107 0 -9.01 1.864 0 13.98 41.94 1.864
3.97 15.85 4.971 -9.01 -1.087 25.94 -15.07 -15.07 23.92 7.923 18.95 -7.146 4.971 17.87 -3.107 23.92 0
3.975 17.87 6.991 -11.03 -5.127 26.88 -23.15 -13.05 20.97 13.98 14.91 -7.146 2.952 23.92 -21.13 7.923 -12.12
3.98 0 -3.107 -13.05 -15.07 9.942 -41.01 -15.07 15.85 3.884 -7.146 -11.03 -2.02 13.98 -37.13 1.864 -27.03
3.985 -19.11 -21.13 -15.07 -21.13 -12.12 -61.05 -14.14 15.85 -11.03 -40.08 -14.14 1.864 -1.087 -47.07 8.855 -40.08
3.99 -39.15 -37.13 -15.07 -23.15 -34.02 -75.03 -14.14 12.89 -30.14 -60.12 -14.14 -1.087 -19.11 -51.11 14.91 -50.02
3.995 -49.09 -39.15 -9.01 -19.11 -41.01 -79.07 -13.05 15.85 -39.15 -61.05 -11.03 7.923 -23.15 -53.13 25.94 -53.13
4 -43.03 -31.07 -3.107 -10.1 -26.1 -70.06 -8.078 24.86 -30.14 -41.01 -4.039 24.86 -13.05 -45.05 30.91 -50.02
4.005 -33.09 -19.11 0.9321 0 0 -58.1 -4.039 37.91 -10.1 -15.07 1.864 39.92 1.864 -39.15 30.91 -45.05
4.01 -21.13 -11.03 0 0.9321 23.92 -47.07 -1.087 39.92 1.864 3.884 1.864 41.94 21.9 -35.11 25.94 -41.01
4.015 -19.11 -1.087 4.971 0.9321 43.96 -40.08 1.864 41.94 12.89 16.93 7.923 40.86 31.85 -31.07 19.88 -32
4.02 -17.09 0.9321 4.971 4.971 52.97 -38.06 3.884 32.93 17.87 17.87 7.923 30.91 31.85 -31.07 17.87 -22.06
4.025 -19.11 -3.107 3.884 5.903 51.89 -41.01 7.923 19.88 13.98 15.85 7.923 19.88 23.92 -31.07 13.98 -11.03
4.03 -21.13 -5.127 5.903 6.991 49.87 -42.1 9.942 10.87 8.855 14.91 9.942 14.91 16.93 -29.05 13.98 1.864
4.035 -27.03 -13.05 5.903 7.923 45.98 -44.12 10.87 -1.087 4.971 17.87 9.942 13.98 9.942 -18.02 19.88 7.923
4.04 -31.07 -23.15 7.923 6.991 45.98 -43.03 9.942 1.864 3.884 21.9 17.87 14.91 5.903 -8.078 29.98 22.99
4.045 -35.11 -29.05 15.85 13.98 49.87 -38.06 14.91 0.9321 6.991 23.92 23.92 23.92 9.942 -1.087 37.91 35.89
4.05 -33.09 -29.05 21.9 16.93 57.95 -34.02 17.87 12.89 6.991 22.99 31.85 30.91 14.91 5.903 43.96 44.9
4.055 -29.05 -25.01 21.9 25.94 61.98 -33.09 23.92 23.92 5.903 17.87 35.89 33.87 17.87 9.942 41.94 47.85
4.06 -23.15 -17.09 18.95 26.88 64.94 -34.02 23.92 26.88 1.864 7.923 31.85 30.91 15.85 13.98 33.87 40.86
4.065 -23.15 -17.09 8.855 18.95 57.95 -38.06 17.87 17.87 -4.039 -2.02 21.9 14.91 0 21.9 17.87 28.89
4.07 -33.09 -25.01 -2.02 3.884 47.85 -45.05 1.864 0.9321 -19.11 -17.09 3.884 -1.087 -17.09 19.88 0.9321 9.942
4.075 -43.03 -37.13 -3.107 -4.039 38.99 -44.12 -6.059 -19.11 -30.14 -27.03 -6.059 -15.07 -33.09 11.96 -8.078 0.9321
4.08 -47.07 -47.07 -9.01 -14.14 36.97 -36.04 -18.02 -30.14 -32 -21.13 -16 -26.1 -37.13 -1.087 -16 -12.12
4.085 -41.01 -43.03 -7.146 -15.07 45.98 -25.01 -21.13 -25.01 -27.03 -11.03 -19.11 -29.05 -23.15 -23.15 -19.11 -15.07
4.09 -23.15 -27.03 -3.107 -7.146 60.9 -9.01 -16 -6.059 -10.1 0.9321 -16 -22.06 0.9321 -33.09 -22.06 -14.14
4.095 -3.107 -9.01 0.9321 -2.02 72.86 0.9321 -8.078 5.903 0.9321 6.991 -10.1 -14.14 15.85 -21.13 -26.1 -10.1
4.1 11.96 2.952 -2.02 3.884 73.95 0 -3.107 15.85 -2.02 -2.02 -5.127 -7.146 21.9 0 -31.07 -7.146
4.105 19.88 6.991 -2.02 5.903 68.98 -3.107 -1.087 18.95 -5.127 -12.12 -1.087 -2.02 15.85 23.92 -33.09 -4.039
4.11 19.88 0.9321 -2.02 3.884 53.91 -15.07 -1.087 11.96 -17.09 -26.1 0.9321 1.864 0 31.85 -31.07 -10.1
4.115 11.96 -1.087 -2.02 0 37.91 -23.15 -1.087 5.903 -29.05 -31.07 -2.02 0.9321 -11.03 13.98 -25.01 -23.15
4.12 3.884 -3.107 0 0 25.94 -25.01 0.9321 3.884 -31.07 -19.11 0 -3.107 -17.09 -11.03 -13.05 -27.03
4.125 0 0.9321 3.884 0 17.87 -21.13 0 2.952 -25.01 -5.127 3.884 -3.107 -17.09 -33.09 0.9321 -21.13
4.13 0 4.971 7.923 1.864 13.98 -13.05 5.903 5.903 -19.11 0.9321 9.942 -1.087 -13.05 -33.09 7.923 -3.107
4.135 3.884 8.855 7.923 1.864 9.942 -9.01 9.942 10.87 -17.09 -9.01 13.98 0 -11.03 -13.05 17.87 15.85
4.14 5.903 4.971 0 -2.02 3.884 -9.01 9.942 12.89 -21.13 -25.01 11.96 3.884 -15.07 3.884 17.87 39.92
4.145 3.884 -3.107 -5.127 -5.127 -1.087 -11.03 0 5.903 -29.05 -35.11 1.864 3.884 -21.13 11.96 13.98 51.89
4.15 0.9321 -19.11 -17.09 -17.09 -11.03 -9.01 -7.146 0.9321 -33.09 -35.11 -7.146 -2.02 -27.03 5.903 9.942 57.95
4.155 -11.03 -29.05 -25.01 -29.05 -17.09 -3.107 -19.11 -11.03 -27.03 -25.01 -17.09 -5.127 -27.03 1.864 11.96 55.93
4.16 -23.15 -31.07 -23.15 -33.09 -15.07 1.864 -25.01 -15.07 -15.07 -11.03 -19.11 -9.01 -25.01 5.903 21.9 55.93
4.165 -33.09 -27.03 -17.09 -31.07 -9.01 7.923 -21.13 -13.05 -1.087 -3.107 -13.05 -5.127 -17.09 19.88 35.89 55.93
4.17 -37.13 -23.15 -7.146 -21.13 -3.107 9.942 -9.01 -7.146 1.864 -1.087 0.9321 0 -9.01 23.92 43.96 49.87
4.175 -39.15 -23.15 0.9321 -11.03 -1.087 7.923 0 0.9321 1.864 -1.087 7.923 11.96 -3.107 11.96 45.98 41.94
4.18 -39.15 -25.01 1.864 -1.087 -3.107 7.923 7.923 0 0 -3.107 13.98 17.87 -1.087 -7.146 45.98 29.98
4.185 -35.11 -23.15 3.884 -2.02 -7.146 13.98 9.942 1.864 0.9321 -7.146 13.98 17.87 -5.127 -25.01 47.85 17.87
4.19 -31.07 -19.11 3.884 -2.02 -11.03 21.9 7.923 5.903 -1.087 -13.05 11.96 9.942 -9.01 -21.13 53.91 11.96
4.195 -23.15 -9.01 1.864 0.9321 -11.03 29.98 3.884 7.923 -5.127 -25.01 7.923 3.884 -17.09 0.9321 55.93 7.923
4.2 -15.07 -1.087 0 -1.087 -5.127 33.87 1.864 13.98 -9.01 -33.09 3.884 1.864 -19.11 11.96 53.91 3.884
4.205 -7.146 6.991 -2.02 -3.107 1.864 35.89 3.884 21.9 -15.07 -33.09 3.884 3.884 -17.09 7.923 46.92 -2.02
4.21 -1.087 10.87 1.864 0.9321 11.96 41.94 5.903 27.96 -17.09 -21.13 5.903 9.942 -9.01 -11.03 37.91 -3.107
4.215 0.9321 14.91 7.923 0 21.9 53.91 7.923 32.93 -11.03 -5.127 7.923 14.91 -1.087 -35.11 34.95 -9.01
4.22 0 18.95 13.98 3.884 25.94 65.87 7.923 32.93 -3.107 0 9.942 18.95 0 -37.13 40.86 -13.05
4.225 1.864 26.88 17.87 7.923 25.94 75.97 7.923 33.87 1.864 0 9.942 23.92 3.884 -13.05 45.98 -7.146
4.23 7.923 34.95 13.98 7.923 21.9 73.95 5.903 38.99 9.942 -2.02 9.942 36.97 7.923 5.903 52.97 0
4.235 10.87 38.99 5.903 5.903 16.93 61.98 5.903 44.9 11.96 -6.059 9.942 48.94 12.89 11.96 46.92 2.952
4.24 11.96 38.99 0.9321 5.903 9.942 45.98 3.884 49.87 11.96 -5.127 7.923 61.98 15.85 0.9321 39.92 7.923
4.245 8.855 34.95 -3.107 5.903 8.855 35.89 3.884 55.93 7.923 2.952 7.923 73.95 22.99 -22.06 33.87 16.93
4.25 4.971 28.89 0.9321 3.884 8.855 31.85 3.884 49.87 9.942 16.93 7.923 71.93 26.88 -30.14 37.91 26.88
4.255 1.864 22.99 3.884 5.903 9.942 37.91 7.923 39.92 13.98 27.96 13.98 67.89 29.98 -9.01 51.89 37.91
4.26 2.952 16.93 14.91 9.942 18.95 45.98 11.96 26.88 26.88 35.89 19.88 60.9 32.93 22.99 65.87 53.91
4.265 5.903 10.87 20.97 9.942 29.98 49.87 15.85 17.87 40.86 33.87 23.92 55.93 37.91 49.87 72.86 65.87
4.27 3.884 0.9321 17.87 9.942 35.89 49.87 17.87 11.96 45.98 29.98 21.9 57.95 37.91 55.93 71.93 77.99
4.275 1.864 0.9321 9.942 2.952 39.92 45.98 10.87 13.98 49.87 22.99 17.87 60.9 37.91 44.9 69.91 84.98
4.28 -1.087 -3.107 1.864 1.864 35.89 43.96 3.884 16.93 36.97 11.96 8.855 60.9 31.85 29.98 59.96 87
4.285 -4.039 -1.087 -5.127 -5.127 22.99 43.96 0.9321 16.93 23.92 0 -1.087 54.99 20.97 33.87 51.89 76.9
4.29 -1.087 -1.087 -8.078 -5.127 11.96 49.87 -3.107 6.991 8.855 -1.087 0 42.88 13.98 41.94 45.98 62.92
4.295 1.864 6.991 -3.107 0 5.903 55.93 0 -5.127 3.884 -4.039 0.9321 24.86 7.923 54.99 41.94 42.88
4.3 9.942 10.87 0 3.884 9.942 61.98 1.864 -23.15 0 -5.127 3.884 5.903 3.884 59.96 35.89 23.92
4.305 19.88 14.91 10.87 9.942 19.88 59.96 11.96 -37.13 0.9321 -7.146 13.98 -7.146 0 57.95 28.89 3.884
4.31 20.97 18.95 16.93 11.96 26.88 51.89 15.85 -46.14 -1.087 -7.146 15.85 -20.04 -2.02 44.9 15.85 -5.127
4.315 15.85 18.95 15.85 7.923 23.92 37.91 11.96 -57.01 -3.107 -15.07 13.98 -37.13 -13.05 21.9 -1.087 -25.01
4.32 8.855 14.91 9.942 0 14.91 23.92 3.884 -65.09 -13.05 -22.06 1.864 -53.13 -24.08 -2.02 -27.03 -46.14
4.325 0.9321 8.855 0 -3.107 4.971 11.96 -3.107 -79.07 -23.15 -28.12 -7.146 -69.13 -30.14 -32 -51.11 -68.04
4.33 -1.087 4.971 -3.107 -9.01 0.9321 7.923 -11.03 -99.11 -35.11 -35.11 -15.07 -87.15 -39.15 -53.13 -69.13 -83.11
4.335 -4.039 4.971 -7.146 -9.01 0.9321 7.923 -15.07 -112 -43.03 -42.1 -19.11 -94.14 -46.14 -55.15 -74.1 -88.08
4.34 -5.127 8.855 -7.146 -5.127 5.903 7.923 -13.05 -118.1 -51.11 -46.14 -17.09 -94.14 -51.11 -41.01 -72.08 -86.06
4.345 -3.107 14.91 -5.127 -1.087 9.942 5.903 -11.03 -113.1 -55.15 -49.09 -15.07 -83.11 -51.11 -25.01 -71.15 -81.09
4.35 -1.087 18.95 -3.107 -1.087 7.923 0 -11.03 -96.01 -51.11 -45.05 -17.09 -68.04 -45.05 -21.13 -70.06 -77.05
4.355 -3.107 16.93 -7.146 -7.146 3.884 -3.107 -13.05 -82.02 -43.03 -37.13 -21.13 -56.08 -35.11 -29.05 -72.08 -79.07
4.36 -7.146 10.87 -11.03 -13.05 0 -5.127 -15.07 -71.15 -33.09 -29.05 -23.15 -49.09 -23.15 -37.13 -73.01 -81.09
4.365 -7.146 4.971 -13.05 -17.09 5.903 -1.087 -15.07 -61.05 -23.15 -19.11 -21.13 -43.03 -11.03 -35.11 -62.14 -69.13
4.37 -5.127 0.9321 -9.01 -15.07 19.88 3.884 -9.01 -53.13 -11.03 -7.146 -13.05 -33.09 -2.02 -21.13 -47.07 -49.09
4.375 0.9321 0.9321 -1.087 -5.127 35.89 11.96 -1.087 -41.01 -1.087 0 -1.087 -21.13 9.942 -5.127 -27.03 -23.15
4.38 0 -1.087 1.864 1.864 45.98 15.85 1.864 -35.11 3.884 9.942 1.864 -9.01 15.85 0.9321 -15.07 0.9321
4.385 0 -1.087 1.864 7.923 43.96 7.923 5.903 -31.07 5.903 11.96 3.884 -5.127 15.85 -7.146 -13.05 11.96
4.39 -3.107 -9.01 -2.02 5.903 31.85 -1.087 3.884 -37.13 0 3.884 0 -11.03 5.903 -17.09 -19.11 17.87
4.395 -9.01 -15.07 -3.107 -2.02 13.98 -13.05 -2.02 -51.11 -7.146 -3.107 0.9321 -21.13 -3.107 -19.11 -25.01 21.9
4.4 -9.01 -15.07 -11.03 -7.146 1.864 -15.07 -3.107 -63.07 -19.11 -11.03 -3.107 -31.07 -17.09 -7.146 -23.15 25.94
4.405 -1.087 -11.03 -19.11 -15.07 -2.02 -9.01 -9.01 -67.11 -25.01 -9.01 -5.127 -33.09 -27.03 5.903 -17.09 29.98
4.41 3.884 -7.146 -25.01 -21.13 0 0.9321 -17.09 -67.11 -29.05 -3.107 -9.01 -33.09 -31.07 13.98 -9.01 31.85
4.415 11.96 -5.127 -29.05 -25.01 0 0 -23.15 -63.07 -29.05 -2.02 -17.09 -33.09 -33.09 9.942 -9.01 23.92
4.42 15.85 -5.127 -29.05 -27.03 0 1.864 -27.03 -61.05 -29.05 0 -23.15 -35.11 -33.09 1.864 -19.11 11.96
4.425 15.85 -3.107 -21.13 -23.15 1.864 3.884 -25.01 -57.01 -27.03 0 -25.01 -39.15 -29.05 0.9321 -33.09 1.864
4.43 19.88 0.9321 -3.107 -11.03 5.903 11.96 -15.07 -48 -19.11 5.903 -17.09 -37.13 -17.09 0 -43.03 -1.087
4.435 27.96 12.89 7.923 1.864 13.98 21.9 -3.107 -36.04 -1.087 17.87 -5.127 -29.05 -3.107 7.923 -49.09 -5.127
4.44 33.87 20.97 17.87 15.85 17.87 27.96 1.864 -27.03 9.942 29.98 -2.02 -19.11 3.884 9.942 -53.13 -15.07
4.445 33.87 20.97 11.96 19.88 7.923 21.9 1.864 -22.06 15.85 29.98 -2.02 -13.05 3.884 1.864 -57.01 -33.09
4.45 17.87 10.87 -1.087 7.923 -7.146 1.864 -5.127 -32 1.864 9.942 -9.01 -19.11 -9.01 -7.146 -67.11 -55.15
4.455 -3.107 0.9321 -21.13 -7.146 -35.11 -15.07 -25.01 -51.11 -21.13 -17.09 -27.03 -33.09 -37.13 -21.13 -79.07 -75.03
4.46 -27.03 -13.05 -35.11 -29.05 -55.15 -27.03 -41.01 -63.07 -47.07 -41.01 -41.01 -45.05 -59.03 -31.07 -87.15 -83.11
4.465 -38.06 -19.11 -37.13 -37.13 -59.03 -25.01 -45.05 -65.09 -57.01 -43.03 -43.03 -47.07 -65.09 -39.15 -85.13 -79.07
4.47 -37.13 -19.11 -27.03 -33.09 -47.07 -13.05 -39.15 -55.15 -43.03 -25.01 -39.15 -37.13 -51.11 -51.11 -73.01 -67.11
4.475 -26.1 -13.05 -14.14 -20.04 -27.03 1.864 -29.05 -40.08 -16 1.864 -30.14 -19.11 -31.07 -62.14 -53.13 -52.04
4.48 -24.08 -15.07 -10.1 -12.12 -15.07 -1.087 -20.04 -29.05 0 8.855 -26.1 0.9321 -17.09 -64 -37.13 -40.08
4.485 -31.07 -23.15 -13.05 -13.05 -13.05 -7.146 -17.09 -31.07 -1.087 0.9321 -25.01 5.903 -21.13 -57.01 -29.05 -33.09
4.49 -44.12 -31.07 -18.02 -18.02 -27.03 -26.1 -20.04 -40.08 -22.06 -30.14 -26.1 2.952 -35.11 -34.02 -29.05 -28.12
4.495 -57.01 -39.15 -28.12 -32 -49.09 -46.14 -28.12 -55.15 -48 -58.1 -30.14 -6.059 -55.15 -18.02 -35.11 -22.06
4.5 -67.11 -49.09 -37.13 -45.05 -69.13 -55.15 -37.13 -69.13 -65.09 -67.11 -35.11 -27.03 -69.13 -11.03 -39.15 -21.13
4.505 -63.07 -47.07 -40.08 -51.11 -76.12 -45.05 -42.1 -81.09 -63.07 -49.09 -35.11 -40.08 -69.13 -15.07 -35.11 -23.15
4.51 -50.02 -47.07 -39.15 -53.13 -72.08 -29.05 -43.03 -87.15 -53.13 -17.09 -33.09 -48 -59.03 -27.03 -20.04 -29.05
4.515 -33.09 -39.15 -37.13 -43.03 -57.01 -9.01 -37.13 -89.02 -33.09 9.942 -31.07 -49.09 -43.03 -25.01 -1.087 -31.07
4.52 -19.11 -25.01 -25.01 -27.03 -33.09 1.864 -19.11 -84.04 -18.02 25.94 -19.11 -42.1 -31.07 -10.1 8.855 -23.15
4.525 -8.078 -7.146 -15.07 -12.12 -17.09 4.971 -7.146 -74.1 -12.12 20.97 -9.01 -37.13 -20.04 0 13.98 -12.12
4.53 -2.02 -1.087 -5.127 -2.02 -9.01 -3.107 0 -67.11 -10.1 2.952 -3.107 -34.02 -16 9.942 8.855 -10.1
4.535 -6.059 4.971 0.9321 1.864 -5.127 -18.02 0.9321 -58.1 -12.12 -6.059 -5.127 -33.09 -16 5.903 -2.02 -18.02
4.54 -7.146 4.971 1.864 0.9321 -7.146 -31.07 -3.107 -50.02 -12.12 -7.146 -7.146 -32 -13.05 -2.02 0 -29.05
4.545 -7.146 6.991 5.903 -2.02 -5.127 -25.01 -1.087 -37.13 -7.146 0 -3.107 -25.01 -1.087 -15.07 0.9321 -37.13
4.55 0.9321 16.93 17.87 7.923 6.991 -9.01 7.923 -17.09 0 21.9 5.903 -8.078 11.96 -15.07 4.971 -35.11
4.555 15.85 32.93 26.88 25.94 30.91 7.923 24.86 0 17.87 39.92 21.9 0.9321 33.87 -3.107 5.903 -25.01
4.56 27.96 42.88 31.85 33.87 51.89 11.96 33.87 5.903 29.98 41.94 29.98 7.923 43.96 3.884 3.884 -27.03
4.565 27.96 40.86 24.86 30.91 57.95 2.952 32.93 1.864 30.91 26.88 28.89 4.971 39.92 12.89 -5.127 -32
4.57 10.87 24.86 16.93 18.95 49.87 -12.12 16.93 -6.059 20.97 8.855 14.91 -2.02 25.94 6.991 -15.07 -46.14
4.575 -5.127 0.9321 7.923 5.903 35.89 -27.03 0 -19.11 9.942 1.864 3.884 -9.01 15.85 -1.087 -17.09 -57.01
4.58 -14.14 -11.03 8.855 6.991 29.98 -20.04 -1.087 -13.05 10.87 12.89 0.9321 -1.087 17.87 -12.12 -9.01 -52.04
4.585 -8.078 -15.07 18.95 16.93 35.89 -4.039 7.923 2.952 26.88 32.93 10.87 17.87 33.87 -16 0.9321 -40.08
4.59 0 -7.146 23.92 29.98 47.85 5.903 23.92 27.96 45.98 45.98 21.9 41.94 51.89 -9.01 0 -27.03
4.595 10.87 -1.087 19.88 31.85 47.85 3.884 29.98 39.92 55.93 33.87 25.94 55.93 53.91 1.864 -1.087 -23.15
4.6 1.864 0.9321 3.884 19.88 29.98 -11.03 21.9 35.89 41.94 1.864 17.87 51.89 33.87 17.87 -13.05 -25.01
4.605 -13.05 -13.05 -7.146 -2.02 1.864 -41.01 5.903 11.96 11.96 -29.05 5.903 39.92 3.884 23.92 -17.09 -27.03
4.61 -33.09 -29.05 -13.05 -13.05 -19.11 -55.15 0.9321 -4.039 -13.05 -49.09 0.9321 25.94 -17.09 17.87 -9.01 -19.11
4.615 -41.01 -37.13 -9.01 -17.09 -27.03 -47.07 0.9321 -20.04 -27.03 -37.13 -2.02 19.88 -27.03 0 3.884 -1.087
4.62 -31.07 -29.05 0.9321 -9.01 -19.11 -19.11 3.884 -31.07 -17.09 -3.107 5.903 15.85 -19.11 -13.05 19.88 7.923
4.625 -13.05 -19.11 3.884 -3.107 -7.146 5.903 7.923 -34.02 0.9321 23.92 11.96 7.923 -7.146 -21.13 21.9 9.942
4.63 -3.107 -11.03 3.884 -5.127 0.9321 19.88 3.884 -40.08 7.923 35.89 9.942 -5.127 -3.107 -9.01 9.942 -2.02
4.635 -3.107 -13.05 -2.02 -11.03 -3.107 19.88 0.9321 -49.09 3.884 23.92 1.864 -25.01 -11.03 9.942 -1.087 -17.09
4.64 -9.01 -19.11 0.9321 -13.05 -9.01 9.942 -5.127 -51.11 -7.146 3.884 0.9321 -41.01 -21.13 37.91 -7.146 -31.07
4.645 -9.01 -17.09 0 -5.127 -9.01 1.864 -1.087 -45.05 -19.11 -5.127 0 -45.05 -23.15 49.87 -3.107 -37.13
4.65 -1.087 -7.146 7.923 5.903 -2.02 1.864 3.884 -33.09 -17.09 -3.107 5.903 -35.11 -13.05 43.96 1.864 -37.13
4.655 11.96 6.991 17.87 21.9 15.85 5.903 13.98 -21.13 -1.087 3.884 9.942 -21.13 0 21.9 3.884 -41.01
4.66 27.96 18.95 19.88 29.98 31.85 11.96 15.85 -11.03 11.96 13.98 9.942 -9.01 13.98 -1.087 -5.127 -51.11
4.665 39.92 22.99 19.88 27.96 41.94 11.96 9.942 -7.146 21.9 15.85 1.864 -3.107 21.9 -21.13 -27.03 -65.09
4.67 43.96 18.95 15.85 21.9 43.96 9.942 3.884 -3.107 23.92 11.96 0.9321 -1.087 23.92 -31.07 -49.09 -79.07
4.675 41.94 14.91 13.98 19.88 45.98 7.923 1.864 0.9321 21.9 7.923 0.9321 0.9321 25.94 -33.09 -57.01 -83.11
4.68 37.91 12.89 13.98 21.9 51.89 5.903 5.903 1.864 21.9 7.923 0 0 31.85 -31.07 -51.11 -79.07
4.685 31.85 14.91 13.98 23.92 59.96 1.864 11.96 11.96 25.94 11.96 5.903 5.903 39.92 -27.03 -41.01 -69.13
4.69 23.92 16.93 11.96 23.92 64.94 -1.087 13.98 16.93 29.98 15.85 5.903 11.96 43.96 -23.15 -33.09 -57.01
4.695 15.85 8.855 7.923 21.9 58.88 -11.03 11.96 24.86 27.96 15.85 1.864 17.87 39.92 -19.11 -29.05 -43.03
4.7 7.923 -1.087 3.884 13.98 45.98 -23.15 5.903 23.92 19.88 9.942 -2.02 21.9 29.98 -13.05 -27.03 -31.07
4.705 0 -19.11 0.9321 5.903 30.91 -29.05 0 24.86 9.942 3.884 -1.087 23.92 15.85 -11.03 -20.04 -18.02
4.71 0.9321 -29.05 -7.146 -2.02 18.95 -29.05 -1.087 18.95 1.864 -2.02 -3.107 18.95 7.923 -8.078 -8.078 -4.039
4.715 -1.087 -33.09 -15.07 -5.127 9.942 -25.01 -5.127 7.923 1.864 0 -1.087 11.96 5.903 -5.127 -2.02 3.884
4.72 -1.087 -27.03 -20.04 -13.05 8.855 -21.13 -11.03 1.864 5.903 3.884 -2.02 0.9321 7.923 1.864 4.971 18.95
4.725 -1.087 -21.13 -24.08 -19.11 3.884 -19.11 -14.14 -7.146 11.96 9.942 -8.078 0 11.96 4.971 1.864 26.88
4.73 -1.087 -17.09 -29.05 -25.01 0.9321 -21.13 -21.13 -21.13 13.98 13.98 -15.07 -11.03 7.923 3.884 -19.11 27.96
4.735 -9.01 -19.11 -32 -31.07 -13.05 -33.09 -26.1 -38.06 6.991 11.96 -24.08 -28.12 -2.02 0 -39.15 19.88
4.74 -23.15 -31.07 -42.1 -41.01 -36.04 -51.11 -34.02 -58.1 -4.039 2.952 -32 -47.07 -15.07 -24.08 -53.13 1.864
4.745 -41.01 -47.07 -53.13 -51.11 -61.05 -65.09 -43.03 -83.11 -25.01 -7.146 -39.15 -67.11 -33.09 -53.13 -55.15 -9.01
4.75 -61.05 -57.01 -59.03 -60.12 -79.07 -74.1 -46.14 -96.01 -40.08 -18.02 -37.13 -79.07 -46.14 -71.15 -40.08 -12.12
4.755 -67.11 -63.07 -57.01 -58.1 -88.08 -76.12 -41.01 -99.11 -52.04 -28.12 -33.09 -74.1 -48 -66.02 -21.13 -5.127
4.76 -63.07 -61.05 -43.03 -49.09 -87.15 -69.13 -31.07 -87.15 -53.13 -33.09 -21.13 -61.05 -41.01 -47.07 -11.03 7.923
4.765 -42.1 -41.01 -20.04 -28.12 -80 -54.06 -13.05 -70.06 -46.14 -29.05 -6.059 -43.03 -25.01 -15.07 -10.1 24.86
4.77 -20.04 -19.11 -1.087 -4.039 -75.03 -38.06 -1.087 -58.1 -34.02 -21.13 1.864 -31.07 -13.05 0.9321 -22.06 33.87
4.775 -1.087 0.9321 7.923 9.942 -74.1 -23.15 10.87 -53.13 -23.15 -6.059 7.923 -26.1 -5.127 9.942 -37.13 29.98
4.78 4.971 18.95 13.98 16.93 -75.03 -10.1 14.91 -58.1 -8.078 3.884 7.923 -27.03 0 2.952 -50.02 17.87
4.785 10.87 30.91 14.91 19.88 -70.06 0.9321 13.98 -58.1 -1.087 15.85 4.971 -27.03 3.884 1.864 -60.12 8.855
4.79 15.85 30.91 15.85 15.85 -61.05 0 9.942 -49.09 7.923 21.9 3.884 -23.15 9.942 -2.02 -67.11 0
4.795 21.9 30.91 17.87 18.95 -50.02 0.9321 7.923 -29.05 12.89 16.93 1.864 -8.078 16.93 6.991 -65.09 1.864
4.8 23.92 22.99 17.87 18.95 -47.07 -2.02 6.991 -2.02 16.93 8.855 5.903 1.864 20.97 15.85 -64 6.991
4.805 17.87 16.93 11.96 15.85 -49.09 -15.07 3.884 15.85 13.98 -2.02 1.864 13.98 21.9 11.96 -55.15 9.942
4.81 7.923 2.952 2.952 5.903 -56.08 -23.15 0.9321 26.88 14.91 -1.087 1.864 23.92 19.88 -4.039 -35.11 9.942
4.815 -1.087 -9.01 -2.02 -3.107 -65.09 -29.05 -4.039 24.86 16.93 5.903 -4.039 20.97 17.87 -34.02 -11.03 9.942
4.82 -15.07 -21.13 -13.05 -13.05 -69.13 -27.03 -11.03 13.98 17.87 13.98 -9.01 11.96 15.85 -59.03 5.903 3.884
4.825 -25.01 -33.09 -18.02 -21.13 -65.09 -27.03 -12.12 3.884 17.87 13.98 -8.078 6.991 11.96 -54.06 24.86 4.971
4.83 -29.05 -37.13 -20.04 -21.13 -62.14 -27.03 -13.05 -3.107 9.942 1.864 -6.059 2.952 7.923 -24.08 36.97 10.87
4.835 -29.05 -37.13 -23.15 -21.13 -63.07 -31.07 -11.03 -19.11 0 -11.03 -5.127 0 0 7.923 37.91 21.9
4.84 -25.01 -35.11 -25.01 -21.13 -68.04 -37.13 -9.01 -38.06 -7.146 -21.13 -7.146 -1.087 -1.087 30.91 34.95 34.95
4.845 -25.01 -37.13 -29.05 -27.03 -76.12 -39.15 -15.07 -54.06 -13.05 -15.07 -13.05 0.9321 -5.127 23.92 30.91 40.86
4.85 -23.15 -39.15 -33.09 -35.11 -85.13 -37.13 -21.13 -69.13 -11.03 -3.107 -19.11 -5.127 -7.146 1.864 21.9 35.89
4.855 -23.15 -41.01 -33.09 -41.01 -86.06 -33.09 -27.03 -76.12 -5.127 3.884 -21.13 -9.01 -5.127 -9.01 15.85 27.96
4.86 -19.11 -37.13 -31.07 -39.15 -87.15 -25.01 -29.05 -72.08 -3.107 3.884 -21.13 -13.05 -5.127 0.9321 7.923 15.85
4.865 -11.03 -25.01 -27.03 -33.09 -83.11 -19.11 -25.01 -65.09 -3.107 -1.087 -17.09 -15.07 -7.146 23.92 0 7.923
4.87 0.9321 -9.01 -25.01 -25.01 -79.07 -11.03 -21.13 -55.15 -5.127 -9.01 -15.07 -19.11 -9.01 51.89 -3.107 3.884
4.875 7.923 -1.087 -25.01 -23.15 -73.01 -1.087 -19.11 -57.01 -3.107 -5.127 -17.09 -25.01 -9.01 53.91 -13.05 1.864
4.88 17.87 4.971 -27.03 -25.01 -61.05 3.884 -23.15 -63.07 -2.02 7.923 -21.13 -33.09 -3.107 31.85 -21.13 0
4.885 19.88 2.952 -25.01 -27.03 -45.05 7.923 -27.03 -65.09 9.942 25.94 -25.01 -39.15 1.864 1.864 -27.03 0.9321
4.89 15.85 -1.087 -23.15 -27.03 -31.07 7.923 -29.05 -63.07 19.88 35.89 -25.01 -39.15 11.96 -13.05 -27.03 -7.146
4.895 13.98 -1.087 -21.13 -23.15 -21.13 3.884 -25.01 -53.13 21.9 29.98 -25.01 -33.09 15.85 -9.01 -25.01 -13.05
4.9 11.96 2.952 -17.09 -15.07 -15.07 -2.02 -21.13 -39.15 17.87 15.85 -23.15 -25.01 15.85 1.864 -17.09 -19.11
4.905 13.98 10.87 -15.07 -9.01 -15.07 -1.087 -15.07 -25.01 9.942 1.864 -19.11 -15.07 11.96 17.87 -7.146 -21.13
4.91 19.88 20.97 -9.01 -3.107 -11.03 0.9321 -9.01 -13.05 3.884 0.9321 -13.05 -7.146 9.942 21.9 -2.02 -19.11
4.915 23.92 32.93 0.9321 -2.02 -3.107 0 -3.107 -5.127 5.903 0 -5.127 0.9321 11.96 17.87 5.903 -13.05
4.92 25.94 40.86 7.923 3.884 0 3.884 0 -1.087 9.942 3.884 0 1.864 15.85 15.85 5.903 -7.146
4.925 25.94 44.9 13.98 9.942 7.923 9.942 7.923 0.9321 13.98 3.884 7.923 3.884 15.85 15.85 1.864 -7.146
4.93 21.9 38.99 11.96 9.942 7.923 15.85 11.96 0 13.98 0 9.942 0 7.923 17.87 -3.107 -13.05
4.935 17.87 26.88 0 1.864 1.864 21.9 7.923 -3.107 5.903 -1.087 5.903 -4.039 -1.087 11.96 -13.05 -27.03
4.94 17.87 8.855 -9.01 -7.146 -5.127 26.88 0.9321 -15.07 0.9321 -9.01 0.9321 -16 -13.05 0 -19.11 -41.01
4.945 19.88 0.9321 -21.13 -21.13 -13.05 29.98 -11.03 -25.01 -7.146 -11.03 -11.03 -27.03 -21.13 -9.01 -23.15 -53.13
4.95 24.86 0.9321 -19.11 -27.03 -15.07 34.95 -17.09 -28.12 -10.1 -12.12 -15.07 -32 -19.11 -19.11 -27.03 -59.03
4.955 28.89 8.855 -13.05 -23.15 -7.146 40.86 -15.07 -30.14 -10.1 -10.1 -15.07 -38.06 -13.05 -25.01 -33.09 -63.07
4.96 29.98 24.86 -5.127 -17.09 -2.02 45.98 -9.01 -33.09 -9.01 -9.01 -11.03 -47.07 -9.01 -25.01 -41.01 -65.09
4.965 26.88 30.91 -7.146 -13.05 3.884 52.97 -7.146 -43.03 -6.059 -6.059 -11.03 -57.01 -9.01 -29.05 -45.05 -71.15
4.97 16.93 22.99 -19.11 -19.11 0 53.91 -15.07 -54.06 -4.039 -10.1 -13.05 -69.13 -15.07 -31.07 -45.05 -73.01
4.975 1.864 2.952 -31.07 -33.09 -7.146 41.94 -25.01 -65.09 -7.146 -17.09 -21.13 -79.07 -21.13 -29.05 -43.03 -75.03
4.98 -3.107 -11.03 -41.01 -45.05 -23.15 27.96 -39.15 -68.04 -9.01 -23.15 -29.05 -78.14 -26.1 -24.08 -39.15 -77.05
4.985 -9.01 -23.15 -43.03 -50.02 -37.13 18.95 -47.07 -61.05 -15.07 -33.09 -35.11 -74.1 -26.1 -16 -36.04 -73.01
4.99 -9.01 -23.15 -37.13 -49.09 -43.03 13.98 -45.05 -53.13 -17.09 -33.09 -33.09 -69.13 -21.13 -13.05 -35.11 -67.11
4.995 0 -13.05 -27.03 -36.04 -39.15 23.92 -34.02 -42.1 -14.14 -24.08 -28.12 -62.14 -14.14 -12.12 -28.12 -59.03
5 4.971 2.952 -17.09 -22.06 -29.05 38.99 -22.06 -35.11 -5.127 -11.03 -20.04 -59.03 -4.039 -14.14 -16 -47.07
5.005 15.85 6.991 -11.03 -9.01 -15.07 53.91 -15.07 -31.07 3.884 1.864 -19.11 -53.13 1.864 -11.03 -7.146 -35.11
5.01 22.99 10.87 -6.059 -3.107 0 59.96 -9.01 -23.15 20.97 17.87 -16 -48 12.89 -6.059 0.9321 -24.08
5.015 22.99 10.87 -3.107 -2.02 3.884 56.86 -9.01 -15.07 32.93 22.99 -18.02 -41.01 20.97 -5.127 0.9321 -18.02
5.02 15.85 8.855 -5.127 -5.127 0 46.92 -11.03 -9.01 32.93 13.98 -19.11 -33.09 22.99 -2.02 -2.02 -18.02
5.025 2.952 4.971 -9.01 -12.12 -1.087 36.97 -7.146 -9.01 22.99 -1.087 -20.04 -31.07 14.91 -1.087 -5.127 -18.02
5.03 -2.02 4.971 -14.14 -19.11 -16 27.96 -7.146 -13.05 6.991 -15.07 -16 -28.12 2.952 0.9321 -5.127 -18.02
5.035 -7.146 2.952 -17.09 -17.09 -35.11 27.96 -7.146 -25.01 -5.127 -25.01 -11.03 -29.05 -5.127 7.923 -2.02 -15.07
5.04 -10.1 0.9321 -21.13 -16 -49.09 24.86 -6.059 -31.07 -15.07 -25.01 -6.059 -29.05 -12.12 16.93 8.855 -9.01
5.045 -10.1 0.9321 -21.13 -14.14 -55.15 21.9 -8.078 -32 -18.02 -18.02 -8.078 -26.1 -10.1 18.95 16.93 -3.107
5.05 -13.05 -5.127 -19.11 -11.03 -59.03 13.98 -11.03 -29.05 -19.11 -11.03 -9.01 -25.01 -5.127 11.96 21.9 -2.02
5.055 -17.09 -9.01 -17.09 -10.1 -59.03 6.991 -11.03 -23.15 -13.05 -5.127 -13.05 -24.08 1.864 -1.087 22.99 0
5.06 -23.15 -9.01 -13.05 -11.03 -53.13 3.884 -9.01 -14.14 -5.127 -3.107 -13.05 -22.06 -1.087 -10.1 17.87 -1.087
5.065 -27.03 -11.03 -5.127 -9.01 -45.05 5.903 -5.127 -11.03 -1.087 -3.107 -11.03 -21.13 0 -19.11 5.903 -9.01
5.07 -22.06 -3.107 -1.087 -7.146 -37.13 13.98 -1.087 -6.059 -1.087 1.864 -7.146 -17.09 1.864 -23.15 -7.146 -15.07
5.075 -16 2.952 -2.02 -5.127 -29.05 18.95 -2.02 -5.127 2.952 4.971 -5.127 -15.07 7.923 -19.11 -25.01 -19.11
5.08 -9.01 2.952 -1.087 -5.127 -21.13 21.9 0.9321 -3.107 5.903 9.942 -7.146 -15.07 13.98 -13.05 -31.07 -13.05
5.085 -2.02 8.855 -7.146 -7.146 -13.05 30.91 -3.107 1.864 8.855 14.91 -15.07 -14.14 19.88 -7.146 -27.03 -3.107
5.09 1.864 14.91 -17.09 -11.03 -5.127 32.93 -11.03 1.864 14.91 14.91 -23.15 -18.02 25.94 -1.087 -15.07 0
5.095 0 16.93 -25.01 -15.07 -2.02 37.91 -17.09 0.9321 17.87 15.85 -29.05 -23.15 31.85 1.864 -5.127 5.903
5.1 0 14.91 -27.03 -17.09 3.884 34.95 -21.13 0 23.92 23.92 -33.09 -22.06 37.91 5.903 -9.01 5.903
5.105 0 10.87 -23.15 -17.09 5.903 29.98 -21.13 3.884 29.98 33.87 -29.05 -20.04 43.96 9.942 -19.11 5.903
5.11 0.9321 8.855 -13.05 -13.05 1.864 23.92 -17.09 7.923 35.89 43.96 -23.15 -13.05 49.87 13.98 -31.07 7.923
5.115 -3.107 8.855 -1.087 -7.146 0.9321 21.9 -9.01 10.87 41.94 47.85 -13.05 -3.107 55.93 19.88 -35.11 13.98
5.12 -1.087 14.91 1.864 -1.087 -5.127 25.94 -3.107 10.87 45.98 45.98 -5.127 0 55.93 25.94 -29.05 21.9
5.125 0.9321 20.97 5.903 0 -11.03 31.85 0.9321 11.96 45.98 33.87 -3.107 5.903 53.91 33.87 -15.07 27.96
5.13 0 22.99 1.864 0 -15.07 33.87 0.9321 13.98 41.94 19.88 -3.107 7.923 49.87 37.91 -3.107 31.85
5.135 -2.02 16.93 -2.02 0 -23.15 25.94 0.9321 13.98 37.91 7.923 -3.107 5.903 45.98 35.89 0 33.87
5.14 -5.127 6.991 0.9321 -2.02 -33.09 13.98 0.9321 9.942 31.85 0 -1.087 0 41.94 27.96 7.923 35.89
5.145 -15.07 0.9321 0.9321 0.9321 -43.03 0 -2.02 3.884 27.96 0 -2.02 0.9321 37.91 15.85 17.87 33.87
5.15 -25.01 -3.107 1.864 -2.02 -53.13 -5.127 3.884 -2.02 25.94 1.864 3.884 -3.107 33.87 3.884 27.96 25.94
5.155 -29.05 -1.087 7.923 0 -57.01 -11.03 5.903 -2.02 21.9 5.903 3.884 -7.146 27.96 -3.107 29.98 7.923
5.16 -25.01 -1.087 15.85 3.884 -57.01 -11.03 9.942 1.864 19.88 7.923 1.864 -7.146 23.92 -9.01 21.9 -9.01
5.165 -15.07 4.971 19.88 11.96 -53.13 -9.01 11.96 11.96 13.98 11.96 0 -9.01 23.92 -9.01 7.923 -25.01
5.17 -3.107 6.991 25.94 19.88 -41.01 -5.127 17.87 23.92 13.98 19.88 1.864 -9.01 29.98 -3.107 0 -27.03
5.175 1.864 10.87 29.98 29.98 -27.03 0.9321 23.92 29.98 19.88 35.89 7.923 -7.146 39.92 -2.02 7.923 -13.05
5.18 5.903 14.91 29.98 33.87 -11.03 4.971 27.96 27.96 33.87 51.89 15.85 -1.087 49.87 3.884 27.96 -2.02
5.185 3.884 16.93 23.92 31.85 -1.087 10.87 25.94 25.94 47.85 61.98 19.88 1.864 57.95 3.884 47.85 9.942
5.19 0 16.93 13.98 19.88 -1.087 5.903 15.85 19.88 55.93 57.95 15.85 5.903 57.95 3.884 51.89 7.923
5.195 1.864 10.87 0 3.884 -11.03 -4.039 3.884 11.96 49.87 35.89 1.864 5.903 47.85 1.864 33.87 -1.087
5.2 0 2.952 -9.01 -5.127 -31.07 -20.04 -7.146 6.991 32.93 7.923 -9.01 0 31.85 1.864 0 -6.059
5.205 -3.107 -1.087 -17.09 -17.09 -49.09 -33.09 -17.09 1.864 13.98 -7.146 -23.15 -7.146 15.85 0 -25.01 -7.146
5.21 -4.039 -7.146 -18.02 -21.13 -56.08 -30.14 -23.15 -1.087 4.971 -8.078 -29.05 -19.11 7.923 1.864 -44.12 2.952
5.215 -4.039 -11.03 -16 -21.13 -54.06 -15.07 -24.08 -1.087 8.855 4.971 -28.12 -23.15 10.87 -4.039 -48 22.99
5.22 -7.146 -13.05 -17.09 -19.11 -39.15 -2.02 -27.03 1.864 23.92 31.85 -27.03 -21.13 19.88 -11.03 -47.07 37.91
5.225 -3.107 -9.01 -18.02 -20.04 -20.04 13.98 -26.1 6.991 40.86 48.94 -26.1 -13.05 34.95 -2.02 -44.12 43.96
5.23 1.864 -5.127 -18.02 -20.04 -2.02 18.95 -26.1 9.942 46.92 48.94 -28.12 -5.127 40.86 12.89 -42.1 43.96
5.235 7.923 -1.087 -19.11 -21.13 0 19.88 -25.01 7.923 39.92 33.87 -29.05 0.9321 39.92 31.85 -41.01 35.89
5.24 16.93 0.9321 -19.11 -22.06 1.864 11.96 -24.08 5.903 27.96 15.85 -24.08 0 32.93 41.94 -31.07 30.91
5.245 14.91 -3.107 -21.13 -21.13 -3.107 3.884 -21.13 4.971 16.93 1.864 -21.13 0 21.9 27.96 -19.11 25.94
5.25 0 -21.13 -25.01 -25.01 -17.09 -9.01 -27.03 0 7.923 -2.02 -25.01 0.9321 7.923 3.884 -5.127 13.98
5.255 -14.14 -35.11 -30.14 -28.12 -32 -23.15 -29.05 -2.02 1.864 0 -25.01 -2.02 0 -12.12 0 0.9321
5.26 -34.02 -49.09 -35.11 -30.14 -41.01 -38.06 -32 0 -8.078 -7.146 -29.05 -1.087 -8.078 -19.11 6.991 -6.059
5.265 -41.01 -45.05 -32 -25.01 -39.15 -45.05 -26.1 -3.107 -23.15 -15.07 -27.03 -1.087 -16 -7.146 10.87 -13.05
5.27 -38.06 -37.13 -25.01 -16 -29.05 -38.06 -16 -4.039 -34.02 -21.13 -19.11 3.884 -20.04 5.903 10.87 -8.078
5.275 -24.08 -19.11 -10.1 -4.039 -16 -21.13 -3.107 -5.127 -35.11 -20.04 -3.107 12.89 -17.09 20.97 9.942 0
5.28 -9.01 -7.146 0 3.884 -3.107 -7.146 0 0.9321 -25.01 -13.05 5.903 23.92 -7.146 19.88 7.923 3.884
5.285 -1.087 2.952 15.85 17.87 1.864 0.9321 13.98 2.952 -4.039 0.9321 17.87 35.89 7.923 17.87 5.903 11.96
5.29 2.952 12.89 27.96 24.86 9.942 -1.087 18.95 13.98 9.942 7.923 18.95 47.85 22.99 19.88 7.923 14.91
5.295 5.903 18.95 33.87 33.87 15.85 -3.107 25.94 25.94 23.92 13.98 19.88 55.93 37.91 21.9 9.942 13.98
5.3 9.942 24.86 38.99 42.88 24.86 -2.02 30.91 39.92 34.95 22.99 20.97 63.85 48.94 30.91 16.93 23.92
5.305 15.85 22.99 40.86 50.95 34.95 -2.02 36.97 50.95 38.99 36.97 26.88 71.93 58.88 36.97 24.86 33.87
5.31 19.88 20.97 39.92 53.91 41.94 5.903 39.92 59.96 45.98 51.89 33.87 79.85 63.85 39.92 33.87 45.98
5.315 22.99 16.93 42.88 51.89 46.92 13.98 42.88 66.96 54.99 64.94 40.86 85.91 68.98 44.9 42.88 56.86
5.32 20.97 10.87 42.88 47.85 38.99 10.87 45.98 70.99 60.9 62.92 44.9 89.95 61.98 50.95 48.94 58.88
5.325 13.98 6.991 41.94 39.92 23.92 0.9321 41.94 71.93 55.93 43.96 39.92 89.95 49.87 57.95 47.85 53.91
5.33 0.9321 -1.087 31.85 25.94 0 -14.14 29.98 64.94 40.86 17.87 27.96 77.99 31.85 57.95 41.94 42.88
5.335 -12.12 -9.01 15.85 9.942 -19.11 -32 11.96 51.89 15.85 -5.127 9.942 63.85 7.923 47.85 27.96 28.89
5.34 -31.07 -27.03 -1.087 -3.107 -41.01 -45.05 -3.107 35.89 -7.146 -27.03 0.9321 45.98 -9.01 29.98 13.98 17.87
5.345 -49.09 -43.03 -15.07 -15.07 -53.13 -50.02 -15.07 23.92 -29.05 -39.15 -11.03 29.98 -25.01 9.942 1.864 9.942
5.35 -57.01 -55.15 -21.13 -19.11 -55.15 -48 -19.11 21.9 -39.15 -41.01 -15.07 21.9 -31.07 -5.127 -3.107 3.884
5.355 -61.05 -61.05 -15.07 -17.09 -53.13 -45.05 -13.05 25.94 -37.13 -35.11 -13.05 19.88 -31.07 -17.09 -11.03 -1.087
5.36 -57.01 -57.01 -7.146 -11.03 -49.09 -43.03 -5.127 31.85 -31.07 -29.05 -11.03 23.92 -29.05 -25.01 -19.11 -13.05
5.365 -51.11 -49.09 -3.107 -7.146 -47.07 -45.05 -1.087 35.89 -27.03 -25.01 -9.01 23.92 -25.01 -33.09 -27.03 -23.15
5.37 -45.05 -41.01 -7.146 -7.146 -49.09 -49.09 -5.127 27.96 -29.05 -23.15 -11.03 15.85 -23.15 -37.13 -31.07 -21.13
5.375 -41.01 -33.09 -11.03 -11.03 -49.09 -51.11 -13.05 13.98 -31.07 -25.01 -13.05 3.884 -23.15 -37.13 -31.07 -5.127
5.38 -37.13 -29.05 -13.05 -15.07 -45.05 -49.09 -19.11 -2.02 -35.11 -31.07 -17.09 -3.107 -21.13 -31.07 -27.03 15.85
5.385 -31.07 -25.01 -11.03 -15.07 -35.11 -41.01 -21.13 -5.127 -33.09 -35.11 -19.11 -13.05 -19.11 -17.09 -19.11 43.96
5.39 -25.01 -23.15 -3.107 -11.03 -23.15 -35.11 -17.09 -5.127 -29.05 -39.15 -17.09 -17.09 -17.09 -1.087 -13.05 59.96
5.395 -21.13 -21.13 0.9321 -5.127 -15.07 -33.09 -13.05 0.9321 -25.01 -39.15 -15.07 -17.09 -17.09 1.864 -9.01 57.95
5.4 -17.09 -17.09 0.9321 0.9321 -9.01 -37.13 -9.01 1.864 -25.01 -39.15 -13.05 -15.07 -19.11 -2.02 -5.127 43.96
5.405 -15.07 -11.03 -3.107 -2.02 -9.01 -43.03 -11.03 5.903 -25.01 -35.11 -13.05 -13.05 -21.13 -11.03 -2.02 27.96
5.41 -13.05 -5.127 -3.107 0 -7.146 -47.07 -11.03 10.87 -25.01 -31.07 -15.07 -7.146 -19.11 -27.03 7.923 21.9
5.415 -7.146 -1.087 -2.02 0 0.9321 -43.03 -9.01 16.93 -17.09 -23.15 -13.05 0 -13.05 -33.09 23.92 31.85
5.42 0.9321 6.991 7.923 5.903 5.903 -33.09 -1.087 23.92 -7.146 -13.05 -5.127 19.88 -1.087 -23.15 39.92 51.89
5.425 5.903 14.91 19.88 13.98 19.88 -18.02 5.903 39.92 0 0 1.864 41.94 7.923 0.9321 53.91 72.86
5.43 17.87 24.86 29.98 25.94 29.98 -4.039 17.87 51.89 9.942 2.952 13.98 62.92 21.9 30.91 65.87 78.92
5.435 29.98 32.93 37.91 37.91 37.91 -2.02 25.94 55.93 19.88 7.923 25.94 77.99 33.87 47.85 73.95 71.93
5.44 40.86 42.88 41.94 47.85 47.85 2.952 31.85 62.92 27.96 14.91 31.85 87 45.98 50.95 79.85 56.86
5.445 50.95 52.97 48.94 55.93 57.95 0.9321 37.91 64.94 39.92 22.99 38.99 92.9 55.93 34.95 83.89 42.88
5.45 53.91 60.9 51.89 59.96 65.87 0 43.96 63.85 51.89 25.94 39.92 91.97 63.85 17.87 85.91 35.89
5.455 52.97 60.9 52.97 57.95 69.91 3.884 48.94 57.95 57.95 32.93 42.88 88.86 67.89 9.942 85.91 43.96
5.46 48.94 52.97 46.92 49.87 69.91 9.942 46.92 50.95 57.95 33.87 40.86 80.94 65.87 11.96 79.85 51.89
5.465 41.94 40.86 35.89 39.92 65.87 9.942 35.89 35.89 51.89 27.96 35.89 67.89 61.98 21.9 75.97 61.98
5.47 37.91 28.89 26.88 30.91 57.95 8.855 24.86 26.88 44.9 23.92 28.89 53.91 57.95 30.91 71.93 74.88
5.475 33.87 20.97 24.86 26.88 53.91 4.971 16.93 17.87 38.99 22.99 24.86 47.85 54.99 32.93 69.91 83.89
5.48 33.87 16.93 23.92 27.96 51.89 0.9321 15.85 19.88 39.92 19.88 21.9 43.96 51.89 25.94 67.89 81.87
5.485 36.97 22.99 25.94 34.95 55.93 -2.02 23.92 26.88 44.9 15.85 21.9 43.96 52.97 18.95 63.85 76.9
5.49 33.87 22.99 28.89 38.99 60.9 -7.146 23.92 29.98 42.88 13.98 22.99 36.97 48.94 9.942 52.97 54.99
5.495 25.94 16.93 21.9 31.85 53.91 -15.07 21.9 21.9 35.89 -2.02 17.87 23.92 37.91 0 35.89 19.88
5.5 5.903 2.952 11.96 20.97 38.99 -28.12 10.87 7.923 18.95 -20.04 7.923 7.923 19.88 -8.078 18.95 -13.05
5.505 -12.12 -9.01 0 6.991 11.96 -49.09 -1.087 -11.03 -1.087 -44.12 1.864 -3.107 0.9321 -28.12 3.884 -44.12
5.51 -32 -21.13 -3.107 -1.087 -4.039 -63.07 -6.059 -29.05 -26.1 -59.03 -7.146 -11.03 -20.04 -46.14 -1.087 -58.1
5.515 -40.08 -21.13 -3.107 -4.039 -13.05 -63.07 -4.039 -29.05 -37.13 -56.08 -7.146 -3.107 -29.05 -54.06 3.884 -48
5.52 -29.05 -7.146 1.864 -1.087 -4.039 -42.1 0.9321 -21.13 -32 -34.02 0.9321 13.98 -19.11 -48 18.95 -23.15
5.525 -3.107 4.971 17.87 15.85 13.98 -13.05 11.96 -1.087 -7.146 -5.127 9.942 37.91 1.864 -33.09 33.87 0.9321
5.53 17.87 22.99 36.97 32.93 40.86 3.884 25.94 15.85 16.93 13.98 26.88 56.86 26.88 -5.127 46.92 8.855
5.535 32.93 34.95 45.98 42.88 53.91 12.89 33.87 26.88 32.93 9.942 33.87 65.87 34.95 12.89 45.98 6.991
5.54 29.98 34.95 47.85 39.92 49.87 0 29.98 19.88 25.94 -9.01 33.87 53.91 21.9 29.98 29.98 -1.087
5.545 13.98 26.88 36.97 28.89 29.98 -10.1 22.99 3.884 4.971 -38.06 24.86 35.89 0.9321 36.97 5.903 -9.01
5.55 1.864 16.93 16.93 10.87 11.96 -16 8.855 -10.1 -14.14 -55.15 10.87 13.98 -21.13 34.95 -15.07 -10.1
5.555 -3.107 8.855 -2.02 0.9321 1.864 -13.05 0.9321 -33.09 -29.05 -47.07 -2.02 -1.087 -29.05 25.94 -31.07 0.9321
5.56 0 0.9321 -8.078 -13.05 1.864 0.9321 -4.039 -50.02 -25.01 -25.01 -2.02 -14.14 -29.05 21.9 -35.11 5.903
5.565 0.9321 -1.087 -18.02 -17.09 7.923 1.864 -10.1 -65.09 -17.09 -8.078 -8.078 -24.08 -23.15 19.88 -29.05 11.96
5.57 7.923 2.952 -17.09 -17.09 15.85 0.9321 -13.05 -73.01 -11.03 -3.107 -9.01 -35.11 -19.11 19.88 -25.01 9.942
5.575 16.93 12.89 -12.12 -11.03 25.94 -8.078 -11.03 -74.1 -15.07 -6.059 -8.078 -40.08 -23.15 22.99 -27.03 4.971
5.58 22.99 22.99 -5.127 -3.107 35.89 -12.12 -9.01 -70.06 -23.15 -10.1 -9.01 -44.12 -29.05 20.97 -31.07 4.971
5.585 27.96 34.95 0 0 51.89 -9.01 -5.127 -63.07 -27.03 -9.01 -5.127 -43.03 -31.07 15.85 -35.11 11.96
5.59 33.87 40.86 9.942 7.923 69.91 -1.087 -2.02 -51.11 -25.01 0 -2.02 -34.02 -27.03 16.93 -33.09 24.86
5.595 39.92 44.9 17.87 15.85 81.87 4.971 7.923 -45.05 -19.11 0.9321 9.942 -27.03 -23.15 20.97 -25.01 34.95
5.6 43.96 44.9 23.92 21.9 85.91 5.903 17.87 -47.07 -15.07 -2.02 19.88 -17.09 -19.11 29.98 -15.07 37.91
5.605 45.98 46.92 27.96 25.94 85.91 1.864 21.9 -42.1 -13.05 -1.087 23.92 -9.01 -15.07 39.92 -9.01 31.85
5.61 41.94 48.94 27.96 27.96 81.87 -1.087 19.88 -36.04 -9.01 -3.107 21.9 -3.107 -7.146 39.92 -9.01 21.9
5.615 35.89 48.94 27.96 25.94 77.99 -9.01 13.98 -31.07 -5.127 0.9321 15.85 -2.02 0.9321 27.96 -11.03 7.923
5.62 27.96 46.92 25.94 25.94 73.95 -13.05 11.96 -27.03 0.9321 -2.02 13.98 3.884 0 13.98 -15.07 -2.02
5.625 21.9 42.88 25.94 25.94 67.89 -15.07 13.98 -27.03 -2.02 -1.087 15.85 3.884 -2.02 3.884 -17.09 -3.107
5.63 19.88 38.99 29.98 29.98 61.98 -11.03 19.88 -31.07 -1.087 -9.01 19.88 -2.02 -5.127 1.864 -19.11 -5.127
5.635 25.94 36.97 33.87 37.91 57.95 -1.087 29.98 -37.13 -9.01 -17.09 27.96 -5.127 -13.05 7.923 -23.15 -3.107
5.64 33.87 38.99 39.92 47.85 57.95 7.923 37.91 -41.01 -11.03 -11.03 33.87 -11.03 -15.07 11.96 -27.03 -2.02
5.645 37.91 40.86 43.96 51.89 59.96 21.9 39.92 -41.01 -5.127 -2.02 35.89 -11.03 -7.146 3.884 -29.05 0
5.65 37.91 40.86 39.92 45.98 57.95 23.92 35.89 -37.13 0 9.942 33.87 -9.01 -2.02 -5.127 -29.05 0
5.655 27.96 36.97 27.96 33.87 49.87 15.85 23.92 -37.13 7.923 9.942 27.96 -5.127 -2.02 -17.09 -25.01 -1.087
5.66 13.98 28.89 15.85 17.87 37.91 0 13.98 -43.03 1.864 -1.087 17.87 -3.107 -7.146 -23.15 -19.11 -7.146
5.665 5.903 20.97 7.923 5.903 25.94 -7.146 7.923 -45.05 -11.03 -21.13 11.96 -5.127 -23.15 -15.07 -15.07 -9.01
5.67 3.884 18.95 9.942 5.903 21.9 -3.107 11.96 -43.03 -27.03 -33.09 11.96 -7.146 -35.11 -1.087 -11.03 -7.146
5.675 7.923 20.97 19.88 13.98 27.96 7.923 19.88 -37.13 -31.07 -25.01 19.88 -5.127 -33.09 5.903 -5.127 0.9321
5.68 13.98 20.97 29.98 25.94 33.87 27.96 29.98 -27.03 -19.11 -7.146 27.96 0.9321 -21.13 9.942 -2.02 1.864
5.685 12.89 18.95 31.85 27.96 33.87 38.99 35.89 -19.11 1.864 1.864 31.85 0 -6.059 5.903 3.884 3.884
5.69 2.952 8.855 21.9 17.87 17.87 32.93 29.98 -21.13 6.991 0 25.94 1.864 -2.02 -1.087 5.903 0.9321
5.695 -9.01 -1.087 1.864 0 -5.127 11.96 15.85 -29.05 0 -13.05 11.96 -2.02 -13.05 -17.09 1.864 -13.05
5.7 -22.06 -13.05 -13.05 -15.07 -30.14 -4.039 0 -35.11 -14.14 -34.02 0.9321 0.9321 -30.14 -39.15 -1.087 -29.05
5.705 -36.04 -25.01 -26.1 -27.03 -44.12 -16 -7.146 -39.15 -36.04 -50.02 -11.03 0.9321 -42.1 -62.14 -7.146 -36.04
5.71 -39.15 -31.07 -25.01 -27.03 -41.01 -15.07 -13.05 -31.07 -49.09 -51.11 -15.07 1.864 -45.05 -85.13 -5.127 -37.13
5.715 -35.11 -23.15 -14.14 -20.04 -26.1 0.9321 -9.01 -20.04 -46.14 -40.08 -10.1 13.98 -33.09 -96.01 -2.02 -28.12
5.72 -25.01 -15.07 0 -8.078 -10.1 11.96 -1.087 -6.059 -31.07 -26.1 1.864 23.92 -19.11 -94.14 11.96 -18.02
5.725 -17.09 -9.01 3.884 0.9321 0.9321 19.88 5.903 0 -19.11 -23.15 7.923 31.85 -11.03 -79.07 21.9 -13.05
5.73 -10.1 -3.107 6.991 6.991 -1.087 22.99 11.96 8.855 -16 -23.15 14.91 35.89 -10.1 -52.04 27.96 -8.078
5.735 -5.127 0.9321 5.903 8.855 -9.01 17.87 15.85 10.87 -20.04 -32 18.95 35.89 -16 -21.13 27.96 -7.146
5.74 -7.146 -1.087 -2.02 11.96 -15.07 11.96 15.85 13.98 -31.07 -39.15 15.85 35.89 -25.01 -1.087 21.9 -11.03
5.745 -10.1 0.9321 0.9321 9.942 -15.07 12.89 11.96 14.91 -34.02 -40.08 10.87 34.95 -28.12 7.923 13.98 -7.146
5.75 -12.12 0.9321 0 4.971 -6.059 18.95 4.971 14.91 -33.09 -34.02 6.991 31.85 -24.08 6.991 3.884 -12.12
5.755 -11.03 -1.087 1.864 1.864 0 25.94 0.9321 11.96 -24.08 -24.08 0 21.9 -21.13 -1.087 -2.02 -16
5.76 -14.14 2.952 0.9321 2.952 -1.087 30.91 2.952 14.91 -17.09 -18.02 2.952 21.9 -16 -10.1 0.9321 -22.06
5.765 -16 0.9321 9.942 5.903 -3.107 34.95 7.923 18.95 -10.1 -16 6.991 18.95 -16 -19.11 0 -27.03
5.77 -21.13 -1.087 17.87 15.85 -7.146 35.89 17.87 27.96 -11.03 -17.09 11.96 19.88 -19.11 -23.15 3.884 -31.07
5.775 -19.11 -1.087 29.98 28.89 -9.01 43.96 27.96 40.86 -10.1 -14.14 20.97 25.94 -14.14 -11.03 3.884 -19.11
5.78 -14.14 6.991 32.93 36.97 -1.087 50.95 31.85 54.99 -6.059 -9.01 24.86 31.85 -8.078 2.952 0 -2.02
5.785 -3.107 12.89 29.98 35.89 0 57.95 29.98 65.87 -2.02 -3.107 25.94 37.91 0 23.92 -5.127 17.87
5.79 7.923 18.95 26.88 30.91 8.855 59.96 23.92 70.99 9.942 4.971 20.97 35.89 11.96 36.97 -17.09 38.99
5.795 13.98 20.97 18.95 22.99 10.87 53.91 17.87 64.94 12.89 6.991 16.93 25.94 13.98 38.99 -27.03 52.97
5.8 5.903 16.93 7.923 11.96 5.903 37.91 9.942 51.89 5.903 3.884 5.903 15.85 0 27.96 -35.11 51.89
5.805 1.864 12.89 2.952 0 -1.087 26.88 0 37.91 -2.02 0 -1.087 3.884 -12.12 18.95 -41.01 48.94
5.81 -10.1 8.855 -2.02 -1.087 -2.02 18.95 -1.087 33.87 -16 -10.1 -7.146 0 -26.1 11.96 -41.01 47.85
5.815 -15.07 8.855 1.864 -5.127 -3.107 19.88 0.9321 41.94 -23.15 -11.03 -7.146 7.923 -29.05 13.98 -31.07 55.93
5.82 -8.078 14.91 9.942 0.9321 -3.107 26.88 3.884 59.96 -18.02 -9.01 0.9321 21.9 -18.02 19.88 -11.03 71.93
5.825 -1.087 18.95 17.87 7.923 -5.127 32.93 15.85 77.99 -6.059 0.9321 9.942 37.91 -2.02 23.92 7.923 85.91
5.83 5.903 22.99 27.96 19.88 -15.07 35.89 27.96 89.95 0 1.864 21.9 51.89 5.903 17.87 23.92 87.93
5.835 9.942 22.99 31.85 25.94 -29.05 37.91 33.87 89.95 7.923 5.903 25.94 53.91 13.98 7.923 23.92 75.97
5.84 11.96 22.99 25.94 21.9 -41.01 35.89 29.98 79.85 11.96 7.923 21.9 49.87 15.85 0.9321 9.942 51.89
5.845 15.85 20.97 13.98 9.942 -45.05 35.89 17.87 69.91 11.96 5.903 11.96 45.98 11.96 -3.107 -5.127 25.94
5.85 19.88 18.95 -2.02 -1.087 -43.03 33.87 3.884 61.98 9.942 0 -2.02 45.98 5.903 -1.087 -19.11 9.942
5.855 19.88 12.89 -11.03 -15.07 -43.03 29.98 -3.107 53.91 5.903 -3.107 -7.146 51.89 0 -2.02 -17.09 1.864
5.86 17.87 4.971 -17.09 -23.15 -47.07 25.94 -9.01 49.87 0 -9.01 -11.03 57.95 -1.087 1.864 -1.087 1.864
5.865 11.96 0.9321 -15.07 -23.15 -55.15 23.92 -9.01 41.94 -3.107 -9.01 -11.03 61.98 -7.146 5.903 11.96 3.884
5.87 5.903 -1.087 -11.03 -19.11 -61.05 25.94 -3.107 33.87 -9.01 -3.107 -7.146 61.98 -9.01 9.942 23.92 3.884
5.875 5.903 2.952 -5.127 -13.05 -61.05 33.87 0.9321 25.94 -9.01 3.884 -5.127 55.93 -11.03 17.87 21.9 -2.02
5.88 7.923 6.991 -3.107 -9.01 -53.13 41.94 0 17.87 -5.127 13.98 -5.127 43.96 -11.03 27.96 9.942 -5.127
5.885 9.942 10.87 -3.107 -9.01 -43.03 45.98 -2.02 7.923 -1.087 19.88 -7.146 29.98 -13.05 33.87 -3.107 -13.05
5.89 7.923 12.89 -5.127 -13.05 -43.03 41.94 -5.127 0.9321 0.9321 13.98 -11.03 9.942 -17.09 31.85 -19.11 -23.15
5.895 1.864 10.87 -5.127 -17.09 -49.09 29.98 -13.05 -9.01 0.9321 3.884 -17.09 -1.087 -21.13 21.9 -29.05 -29.05
5.9 -2.02 12.89 -5.127 -19.11 -57.01 19.88 -19.11 -16 -3.107 -2.02 -21.13 -13.05 -23.15 13.98 -33.09 -25.01
5.905 1.864 20.97 -1.087 -15.07 -59.03 17.87 -17.09 -18.02 -7.146 -2.02 -19.11 -17.09 -21.13 13.98 -31.07 -7.146
5.91 13.98 28.89 -2.02 -9.01 -49.09 21.9 -9.01 -19.11 -7.146 3.884 -15.07 -15.07 -15.07 27.96 -31.07 15.85
5.915 25.94 36.97 1.864 -1.087 -33.09 29.98 -1.087 -20.04 -5.127 11.96 -11.03 -14.14 -11.03 43.96 -33.09 43.96
5.92 31.85 34.95 0 -2.02 -17.09 33.87 0.9321 -23.15 -3.107 15.85 -11.03 -18.02 -11.03 52.97 -39.15 57.95
5.925 23.92 28.89 0.9321 0.9321 -9.01 27.96 -3.107 -31.07 -5.127 11.96 -15.07 -27.03 -17.09 43.96 -43.03 51.89
5.93 9.942 20.97 -7.146 -5.127 -7.146 17.87 -13.05 -31.07 -9.01 4.971 -19.11 -34.02 -25.01 24.86 -43.03 33.87
5.935 0.9321 18.95 -11.03 -9.01 -9.01 5.903 -15.07 -24.08 -15.07 0.9321 -17.09 -36.04 -31.07 0.9321 -29.05 17.87
5.94 -2.02 24.86 -7.146 -7.146 -7.146 -2.02 -11.03 -9.01 -19.11 -2.02 -11.03 -31.07 -31.07 -7.146 -7.146 9.942
5.945 4.971 32.93 -2.02 0.9321 0.9321 0 -2.02 7.923 -17.09 4.971 -2.02 -18.02 -22.06 -4.039 11.96 14.91
5.95 12.89 40.86 9.942 5.903 1.864 6.991 11.96 26.88 -15.07 6.991 9.942 -3.107 -14.14 5.903 35.89 26.88
5.955 17.87 42.88 19.88 15.85 5.903 7.923 23.92 39.92 -13.05 0 15.85 0 -7.146 17.87 49.87 29.98
5.96 18.95 34.95 23.92 20.97 3.884 4.971 24.86 50.95 -11.03 -9.01 12.89 9.942 -6.059 25.94 51.89 24.86
5.965 12.89 24.86 23.92 18.95 -2.02 -1.087 18.95 55.93 -15.07 -27.03 4.971 16.93 -10.1 24.86 47.85 6.991
5.97 7.923 16.93 19.88 13.98 0.9321 -1.087 11.96 57.95 -19.11 -37.13 -2.02 17.87 -17.09 15.85 33.87 -7.146
5.975 9.942 16.93 15.85 12.89 0 1.864 8.855 55.93 -23.15 -30.14 -1.087 13.98 -19.11 7.923 17.87 -13.05
5.98 12.89 16.93 13.98 10.87 5.903 9.942 8.855 46.92 -18.02 -8.078 2.952 7.923 -19.11 2.952 1.864 -13.05
5.985 13.98 18.95 11.96 7.923 11.96 13.98 7.923 33.87 -9.01 11.96 3.884 -1.087 -15.07 3.884 -7.146 -5.127
5.99 11.96 16.93 6.991 3.884 12.89 19.88 6.991 11.96 0 22.99 0.9321 -13.05 -12.12 12.89 -16 1.864
5.995 0 6.991 0 1.864 0.9321 10.87 -2.02 0 0.9321 18.95 -3.107 -23.15 -18.02 20.97 -19.11 1.864
6 -6.059 -3.107 -3.107 -7.146 -12.12 1.864 -6.059 -12.12 -6.059 0 -10.1 -36.04 -28.12 25.94 -25.01 -9.01
6.005 -17.09 -15.07 -7.146 -14.14 -30.14 -10.1 -15.07 -20.04 -21.13 -18.02 -15.07 -41.01 -40.08 24.86 -23.15 -25.01
6.01 -17.09 -21.13 -10.1 -15.07 -42.1 -11.03 -14.14 -23.15 -36.04 -32 -16 -39.15 -46.14 22.99 -22.06 -32
6.015 -19.11 -23.15 -11.03 -15.07 -43.03 -9.01 -9.01 -21.13 -41.01 -33.09 -11.03 -37.13 -45.05 19.88 -19.11 -29.05
6.02 -16 -21.13 -9.01 -10.1 -35.11 -1.087 -4.039 -22.06 -38.06 -24.08 -6.059 -27.03 -41.01 20.97 -15.07 -11.03
6.025 -21.13 -19.11 -9.01 -12.12 -23.15 0 -2.02 -27.03 -29.05 -16 -6.059 -23.15 -31.07 19.88 -13.05 1.864
6.03 -23.15 -19.11 -9.01 -17.09 -13.05 -5.127 -5.127 -29.05 -23.15 -15.07 -11.03 -23.15 -33.09 9.942 -15.07 11.96
6.035 -20.04 -15.07 -5.127 -16 -9.01 -8.078 -8.078 -29.05 -23.15 -17.09 -12.12 -24.08 -34.02 2.952 -17.09 14.91
6.04 -12.12 -9.01 -1.087 -12.12 -7.146 -2.02 -10.1 -30.14 -23.15 -13.05 -10.1 -27.03 -30.14 -2.02 -11.03 12.89
6.045 0.9321 -1.087 1.864 -1.087 -3.107 3.884 -3.107 -23.15 -19.11 -9.01 -1.087 -23.15 -23.15 3.884 0 11.96
6.05 10.87 14.91 9.942 7.923 0 20.97 1.864 -14.14 -11.03 1.864 1.864 -11.03 -10.1 21.9 23.92 14.91
6.055 20.97 24.86 13.98 17.87 5.903 25.94 11.96 -13.05 -5.127 1.864 7.923 -4.039 -2.02 36.97 43.96 12.89
6.06 19.88 22.99 11.96 15.85 3.884 19.88 9.942 -15.07 -7.146 -15.07 1.864 -9.01 -9.01 41.94 41.94 3.884
6.065 10.87 14.91 7.923 7.923 0.9321 3.884 -2.02 -18.02 -21.13 -38.06 -5.127 -16 -25.01 28.89 21.9 -17.09
6.07 3.884 12.89 7.923 1.864 -5.127 -5.127 -7.146 -21.13 -37.13 -58.1 -17.09 -26.1 -39.15 6.991 -5.127 -51.11
6.075 9.942 24.86 13.98 7.923 0.9321 -7.146 -7.146 -19.11 -45.05 -57.01 -15.07 -29.05 -41.01 -13.05 -27.03 -81.09
6.08 29.98 48.94 29.98 25.94 19.88 -2.02 1.864 -3.107 -37.13 -33.09 -3.107 -16 -23.15 -24.08 -29.05 -101.1
6.085 57.95 72.86 47.85 49.87 51.89 17.87 23.92 12.89 -11.03 -2.02 13.98 -1.087 1.864 -19.11 -11.03 -105
6.09 77.99 88.86 59.96 69.91 81.87 33.87 45.98 37.91 11.96 25.94 29.98 15.85 25.94 0.9321 5.903 -99.11
6.095 87.93 88.86 63.85 75.97 97.87 43.96 51.89 52.97 29.98 37.91 33.87 19.88 35.89 21.9 11.96 -85.13
6.1 83.89 76.9 55.93 69.91 95.85 41.94 41.94 54.99 35.89 33.87 25.94 13.98 27.96 41.94 1.864 -71.15
6.105 73.95 64.94 39.92 53.91 79.85 31.85 23.92 45.98 29.98 23.92 9.942 0 15.85 45.98 -19.11 -55.15
6.11 61.98 50.95 21.9 35.89 63.85 17.87 5.903 31.85 21.9 21.9 0.9321 -3.107 3.884 31.85 -39.15 -41.01
6.115 47.85 34.95 9.942 23.92 47.85 5.903 0.9321 17.87 15.85 27.96 -5.127 -3.107 1.864 9.942 -43.03 -25.01
6.12 29.98 14.91 3.884 17.87 33.87 -2.02 0.9321 11.96 11.96 33.87 -1.087 -2.02 1.864 -5.127 -29.05 -5.127
6.125 7.923 -7.146 1.864 13.98 23.92 -1.087 0 13.98 11.96 33.87 1.864 5.903 -2.02 -7.146 -3.107 11.96
6.13 -7.146 -31.07 3.884 9.942 11.96 -3.107 5.903 21.9 7.923 21.9 9.942 13.98 -5.127 9.942 13.98 35.89
6.135 -23.15 -45.05 5.903 7.923 5.903 -5.127 9.942 31.85 1.864 3.884 13.98 19.88 -15.07 49.87 27.96 55.93
6.14 -29.05 -43.03 1.864 3.884 3.884 -11.03 9.942 41.94 -3.107 -7.146 15.85 25.94 -21.13 85.91 29.98 67.89
6.145 -31.07 -33.09 -1.087 0 9.942 -15.07 5.903 43.96 -7.146 -13.05 13.98 31.85 -19.11 99.89 27.96 71.93
6.15 -29.05 -23.15 -9.01 0.9321 17.87 -21.13 1.864 41.94 -7.146 -7.146 7.923 33.87 -11.03 85.91 27.96 65.87
6.155 -33.09 -21.13 -13.05 -5.127 21.9 -27.03 -2.02 31.85 -1.087 0 3.884 29.98 -3.107 47.85 35.89 55.93
6.16 -37.13 -27.03 -15.07 -7.146 23.92 -31.07 -1.087 19.88 0 9.942 0 21.9 0.9321 5.903 49.87 39.92
6.165 -39.15 -35.11 -9.01 -7.146 21.9 -33.09 0.9321 10.87 5.903 11.96 0 19.88 -2.02 -14.14 61.98 13.98
6.17 -31.07 -37.13 0.9321 -1.087 23.92 -31.07 1.864 9.942 9.942 7.923 5.903 21.9 0 -19.11 67.89 -15.07
6.175 -15.07 -27.03 7.923 5.903 29.98 -20.04 11.96 22.99 9.942 3.884 15.85 30.91 5.903 -2.02 65.87 -54.06
6.18 0 -11.03 17.87 19.88 41.94 -8.078 19.88 36.97 13.98 1.864 23.92 40.86 15.85 6.991 53.91 -88.08
6.185 19.88 0.9321 23.92 27.96 53.91 0 21.9 49.87 21.9 9.942 27.96 43.96 27.96 13.98 35.89 -113.1
6.19 31.85 12.89 23.92 29.98 65.87 6.991 19.88 56.86 31.85 21.9 23.92 38.99 33.87 10.87 15.85 -118.1
6.195 37.91 16.93 19.88 25.94 65.87 6.991 11.96 51.89 39.92 33.87 11.96 24.86 35.89 4.971 -2.02 -106.1
6.2 37.91 16.93 15.85 19.88 63.85 3.884 3.884 39.92 41.94 39.92 3.884 7.923 35.89 5.903 -5.127 -83.11
6.205 38.99 14.91 9.942 13.98 63.85 4.971 -2.02 33.87 39.92 43.96 0.9321 1.864 35.89 21.9 -3.107 -43.03
6.21 40.86 16.93 9.942 13.98 63.85 9.942 0.9321 36.97 37.91 46.92 0.9321 0.9321 40.86 43.96 1.864 -1.087
6.215 41.94 18.95 11.96 15.85 59.96 11.96 0 41.94 37.91 47.85 -2.02 -2.02 45.98 67.89 13.98 37.91
6.22 34.95 14.91 9.942 13.98 49.87 11.96 0.9321 39.92 39.92 50.95 0 1.864 46.92 81.87 17.87 70.99
6.225 18.95 0.9321 3.884 7.923 29.98 2.952 1.864 32.93 38.99 46.92 1.864 -8.078 34.95 80.94 8.855 89.95
6.23 -1.087 -15.07 -1.087 0.9321 1.864 -11.03 -5.127 15.85 27.96 33.87 -5.127 -23.15 13.98 77.99 -3.107 91.97
6.235 -20.04 -27.03 -8.078 -8.078 -11.03 -28.12 -9.01 0.9321 12.89 17.87 -6.059 -34.02 -3.107 79.85 -14.14 87
6.24 -30.14 -33.09 -6.059 -7.146 -10.1 -34.02 -12.12 0 0.9321 5.903 -5.127 -37.13 -16 83.89 -17.09 85.91
6.245 -25.01 -25.01 1.864 0.9321 2.952 -27.03 0.9321 7.923 -2.02 10.87 2.952 -22.06 -11.03 87.93 -10.1 87.93
6.25 -8.078 -13.05 12.89 9.942 30.91 -16 6.991 31.85 0 25.94 13.98 -3.107 0.9321 77.99 -2.02 91.97
6.255 0.9321 -7.146 18.95 22.99 53.91 -6.059 17.87 48.94 18.95 45.98 20.97 10.87 21.9 53.91 6.991 87
6.26 5.903 -11.03 15.85 21.9 61.98 -3.107 19.88 53.91 31.85 55.93 19.88 17.87 37.91 19.88 9.942 65.87
6.265 8.855 -19.11 9.942 17.87 61.98 -2.02 16.93 50.95 40.86 50.95 14.91 16.93 42.88 0.9321 8.855 33.87
