    T[sec] Fp1 Fp2  F7  F3  F4  F8  T3  C3  C4  T4  T5  P3  P4  T6  O1  O2
41 196.1 196.1 196.1 196.1 196.1 196.1 196.1 196.1 196.1 196.1 196.1 196.1 196.1 196.1 196.1 196.1
0.625 -35.04 -27 -33.03 -25.09 -23.08 -31.02 -25.09 -53.05 -41.08 -25.09 -27 -27 -51.03 -25.09 -27 -51.03
0.63 -22.02 -19.05 -21.06 -13.02 -13.02 -18 -13.02 -48.07 -25.09 0 -22.02 -28.05 -47.01 -11.01 -36 -50.08
0.635 -9 -7.085 -17.04 0.9575 -2.011 -3.064 -5.075 -36 -4.021 32.94 -18 -20.01 -39.07 5.936 -30.07 -36
0.64 0.9575 -1.053 -19.05 7.947 1.915 1.915 -5.075 -21.06 9.958 51.99 -13.02 -11.01 -19.05 21.93 -17.04 -15.03
0.645 -1.053 0.9575 -24.03 11.97 3.926 3.926 -6.032 -5.075 23.94 49.98 -10.05 0 0.9575 30.93 0.9575 1.915
0.65 -2.011 -5.075 -32.08 6.99 1.915 -2.011 -15.03 -7.085 29.97 25.95 -12.06 1.915 10.92 28.92 6.99 12.93
0.655 -17.04 -15.03 -29.01 -3.064 -13.02 -17.04 -21.06 -11.01 15.99 -3.064 -15.03 -7.085 11.97 15.99 5.936 11.97
0.66 -30.07 -23.08 -20.01 -12.06 -24.03 -25.09 -17.04 -13.02 0.9575 -30.07 -15.03 -17.04 1.915 2.968 -1.053 6.99
0.665 -36 -27 -8.043 -19.05 -30.07 -23.08 -12.06 -18 -10.05 -36 -9 -23.08 0.9575 0 -6.032 2.968
0.67 -35.04 -27 -3.064 -15.03 -27 -15.03 -7.085 -17.04 -17.04 -25.09 -9 -27 -3.064 0.9575 -13.02 5.936
0.675 -26.04 -21.06 -3.064 -4.021 -16.09 0 0 -10.05 -8.043 -4.021 -4.021 -22.02 0.9575 7.947 -11.01 17.91
0.68 -19.05 -15.03 -7.085 2.968 -4.021 2.968 0 0 4.979 4.979 0 -12.06 14.94 19.92 1.915 35.91
0.685 -13.02 -15.03 -11.01 7.947 0.9575 3.926 -1.053 5.936 19.92 7.947 -2.011 0.9575 29.97 27.96 13.98 45.96
0.69 -13.02 -13.02 -8.043 13.98 -2.011 -1.053 -1.053 11.97 25.95 1.915 4.979 6.99 36.96 29.97 28.92 46.92
0.695 -17.04 -13.02 -4.021 12.93 -1.053 -4.021 4.979 19.92 25.95 -2.011 12.93 16.95 34.95 23.94 34.95 36.96
0.7 -19.05 -9 -1.053 13.98 -3.064 -7.085 13.98 19.92 19.92 0.9575 19.92 21.93 25.95 11.97 27.96 19.92
0.705 -17.04 -7.085 0 14.94 -1.053 -3.064 21.93 20.97 11.97 1.915 23.94 25.95 11.97 0 16.95 0.9575
0.71 -13.02 -5.075 -4.021 12.93 0.9575 -2.011 23.94 16.95 7.947 5.936 21.93 21.93 -2.011 -7.085 4.979 -10.05
0.715 -9 -9 -11.01 3.926 0.9575 0 17.91 7.947 3.926 1.915 13.98 15.99 -13.02 -19.05 0.9575 -23.08
0.72 -11.01 -21.06 -17.04 -3.064 -3.064 -1.053 5.936 0.9575 -2.011 -5.075 3.926 3.926 -27 -27 -1.053 -29.01
0.725 -19.05 -33.03 -25.09 -17.04 -11.01 -13.02 -1.053 -7.085 -5.075 -21.06 -1.053 -1.053 -37.06 -29.01 0.9575 -33.03
0.73 -27 -43.09 -29.01 -27 -19.05 -23.08 -7.085 -15.03 -17.04 -33.03 -7.085 -7.085 -37.06 -25.09 0 -31.02
0.735 -29.01 -43.09 -31.02 -27 -21.06 -25.09 -7.085 -19.05 -25.09 -35.04 -7.085 -7.085 -31.02 -13.02 1.915 -25.09
0.74 -23.08 -33.03 -27 -17.04 -17.04 -19.05 -3.064 -12.06 -25.09 -23.08 -1.053 -1.053 -15.03 -2.011 3.926 -11.01
0.745 -11.01 -21.06 -21.06 -1.053 -7.085 -7.085 -2.011 0 -17.04 -5.075 -2.011 3.926 -2.011 17.91 7.947 1.915
0.75 0.9575 -9 -11.01 3.926 -2.011 0 0 1.915 -5.075 5.936 0 7.947 13.98 31.98 9.958 17.91
0.755 0 -7.085 -9 4.979 1.915 5.936 0.9575 7.947 1.915 9.958 0.9575 6.99 20.97 33.99 8.905 27.96
0.76 -1.053 -11.01 -11.01 0 -2.011 3.926 -7.085 1.915 3.926 5.936 -7.085 1.915 20.97 25.95 0.9575 25.95
0.765 -11.01 -17.04 -19.05 -19.05 -7.085 0.9575 -15.03 -3.064 0 0.9575 -13.02 -11.01 19.92 13.98 -9 21.93
0.77 -21.06 -19.05 -24.03 -29.01 -18 -9 -17.04 -16.09 -5.075 -7.085 -14.08 -16.09 18.96 3.926 -20.01 20.97
0.775 -23.08 -15.03 -22.02 -29.01 -24.03 -14.08 -12.06 -21.06 -13.02 -7.085 -8.043 -16.09 24.99 0 -22.02 26.91
0.78 -19.05 -7.085 -13.02 -21.06 -25.09 -19.05 0.9575 -21.06 -17.04 -3.064 0 -9 37.92 3.926 -17.04 39.93
0.785 -15.03 -1.053 -1.053 -6.032 -22.02 -22.02 4.979 -12.06 -17.04 -3.064 8.905 1.915 51.99 5.936 -3.064 52.95
0.79 -15.03 -1.053 8.905 -1.053 -22.02 -24.03 10.92 -9 -14.08 -10.05 12.93 7.947 51.99 0 -2.011 52.95
0.795 -23.08 -9 7.947 -2.011 -21.06 -29.01 7.947 -7.085 -19.05 -25.09 7.947 5.936 33.99 -15.03 -3.064 33.99
0.8 -37.06 -17.04 1.915 -5.075 -25.09 -32.08 2.968 -10.05 -26.04 -40.02 0 1.915 10.92 -37.06 -12.06 7.947
0.805 -51.03 -25.09 -9 -16.09 -29.01 -30.07 0 -15.03 -32.08 -50.08 -3.064 -13.02 -10.05 -55.06 -24.03 -17.04
0.81 -55.06 -29.01 -15.03 -25.09 -31.02 -25.09 -5.075 -19.05 -35.04 -51.03 -7.085 -23.08 -29.01 -55.06 -25.09 -31.02
0.815 -47.01 -19.05 -4.021 -18 -23.08 -15.03 -3.064 -10.05 -26.04 -38.01 -2.011 -14.08 -29.01 -37.06 -12.06 -29.01
0.82 -29.01 -5.075 10.92 -2.011 -10.05 -2.011 4.979 0.9575 -8.043 -17.04 10.92 1.915 -20.01 -12.06 1.915 -14.08
0.825 -7.085 2.968 27.96 9.958 -2.011 1.915 15.99 17.91 7.947 -1.053 21.93 21.93 -5.075 3.926 9.958 -5.075
0.83 1.915 10.92 36.96 20.97 6.99 9.958 23.94 31.98 27.96 5.936 27.96 40.98 0 18.96 11.97 -2.011
0.835 1.915 4.979 31.98 20.97 9.958 6.99 22.98 39.93 38.97 6.99 27.96 46.92 1.915 14.94 4.979 0.9575
0.84 -1.053 -1.053 17.91 11.97 3.926 0 15.99 37.92 37.92 1.915 17.91 37.92 -1.053 5.936 -5.075 -9
0.845 -11.01 -9 5.936 3.926 0 0.9575 7.947 29.97 33.99 -2.011 7.947 25.95 -4.021 0 -19.05 -9
0.85 -14.08 -11.01 0.9575 0.9575 -1.053 -2.011 1.915 21.93 23.94 1.915 0.9575 5.936 -3.064 0 -26.04 -3.064
0.855 -8.043 -7.085 0 5.936 0 0.9575 -2.011 9.958 20.97 -1.053 -10.05 -7.085 0 4.979 -29.01 1.915
0.86 1.915 0.9575 -1.053 8.905 0 5.936 -11.01 1.915 21.93 0.9575 -17.04 -21.06 1.915 7.947 -24.03 5.936
0.865 7.947 2.968 -3.064 9.958 5.936 5.936 -23.08 -5.075 21.93 0.9575 -25.09 -31.02 0.9575 3.926 -25.09 7.947
0.87 7.947 0.9575 -11.01 0 3.926 0 -33.03 -11.01 19.92 -19.05 -33.03 -41.08 -1.053 -7.085 -27 0.9575
0.875 0 -3.064 -15.03 -6.032 0.9575 -4.021 -34.09 -9 10.92 -38.01 -31.02 -42.03 -11.01 -26.04 -34.09 -9
0.88 -5.075 -11.01 -12.06 -12.06 -6.032 -11.01 -27 -5.075 0.9575 -51.03 -27 -34.09 -19.05 -40.02 -39.07 -23.08
0.885 -11.01 -15.03 -3.064 -9 -9 -11.01 -13.02 1.915 -7.085 -47.01 -15.03 -21.06 -25.09 -43.09 -37.06 -25.09
0.89 -7.085 -7.085 10.92 -1.053 1.915 0 2.968 14.94 -4.021 -23.08 1.915 -1.053 -18 -32.08 -23.08 -16.09
0.895 0 -1.053 24.99 12.93 8.905 7.947 17.91 22.98 2.968 -1.053 9.958 12.93 -5.075 -19.05 -2.011 -1.053
0.9 13.98 8.905 29.97 19.92 17.91 19.92 25.95 27.96 15.99 15.99 17.91 27.96 1.915 -9 11.97 7.947
0.905 15.99 8.905 25.95 18.96 21.93 18.96 22.98 25.95 26.91 14.94 15.99 35.91 6.99 -9 24.99 9.958
0.91 11.97 0.9575 13.98 7.947 11.97 12.93 10.92 20.97 30.93 4.979 7.947 28.92 0.9575 -19.05 24.99 1.915
0.915 1.915 -13.02 -2.011 -2.011 1.915 5.936 1.915 15.99 23.94 -3.064 -2.011 19.92 -9 -29.01 11.97 -19.05
0.92 0 -17.04 0 0.9575 4.979 6.99 -1.053 19.92 20.97 1.915 0 11.97 -23.08 -33.03 3.926 -34.09
0.925 5.936 -9 -1.053 14.94 14.94 16.95 2.968 28.92 21.93 11.97 1.915 11.97 -29.01 -27 0.9575 -40.02
0.93 21.93 4.979 5.936 23.94 29.97 27.96 7.947 33.99 27.96 29.97 1.915 11.97 -33.03 -11.01 -1.053 -35.04
0.935 33.99 20.97 14.94 33.99 36.96 32.94 10.92 33.99 35.91 43.95 8.905 16.95 -24.03 1.915 0 -22.02
0.94 33.99 26.91 14.94 29.97 32.94 27.96 9.958 26.91 37.92 43.95 8.905 12.93 -14.08 15.99 -2.011 -12.06
0.945 19.92 18.96 7.947 15.99 17.91 15.99 1.915 11.97 35.91 35.91 0 1.915 -7.085 21.93 -7.085 -7.085
0.95 0 4.979 -2.011 4.979 3.926 3.926 -3.064 -2.011 27.96 25.95 -5.075 -6.032 0 21.93 -14.08 -5.075
0.955 -9 0.9575 -7.085 -1.053 -1.053 -1.053 -13.02 -5.075 19.92 17.91 -19.05 -22.02 -1.053 15.99 -18 -1.053
0.96 -11.01 -1.053 -13.02 -1.053 -3.064 -9 -23.08 -9 9.958 11.97 -31.02 -31.02 -2.011 7.947 -19.05 -2.011
0.965 -9 2.968 -19.05 -7.085 -5.075 -15.03 -33.03 -12.06 0.9575 5.936 -41.08 -37.06 0.9575 1.915 -21.06 0
0.97 -7.085 2.968 -25.09 -19.05 -11.01 -25.09 -45 -26.04 -15.03 -2.011 -51.03 -41.08 -5.075 0.9575 -23.08 0.9575
0.975 -13.02 -5.075 -33.03 -35.04 -23.08 -33.03 -57.07 -39.07 -33.03 -7.085 -57.07 -43.09 -15.03 -3.064 -31.02 -11.01
0.98 -25.09 -21.06 -39.07 -47.01 -37.06 -41.08 -59.08 -49.02 -49.02 -17.04 -57.07 -45 -25.09 -9 -41.08 -29.01
0.985 -29.01 -29.01 -39.07 -47.01 -43.09 -39.07 -47.01 -49.02 -59.08 -27 -47.01 -39.07 -31.02 -15.03 -43.09 -43.09
0.99 -25.09 -21.06 -25.09 -31.02 -39.07 -31.02 -23.08 -35.04 -57.07 -31.02 -27 -27 -35.04 -23.08 -37.06 -49.02
0.995 -9 0.9575 -3.064 -7.085 -25.09 -17.04 -2.011 -13.02 -45 -31.02 -3.064 -9 -37.06 -31.02 -21.06 -47.01
1 3.926 22.98 13.98 13.98 -9 -1.053 15.99 9.958 -25.09 -23.08 7.947 5.936 -37.06 -35.04 -2.011 -41.08
1.005 15.99 38.97 25.95 29.97 0 5.936 15.99 27.96 -7.085 -9 13.98 17.91 -39.07 -35.04 4.979 -41.08
1.01 17.91 40.98 25.95 29.97 7.947 11.97 5.936 33.99 0 0 9.958 21.93 -43.09 -31.02 7.947 -43.09
1.015 13.98 30.93 14.94 22.98 9.958 9.958 -1.053 26.91 1.915 11.97 1.915 15.99 -47.01 -23.08 2.968 -46.06
1.02 7.947 16.95 2.968 10.92 7.947 5.936 -11.01 10.92 -5.075 13.98 0 5.936 -49.02 -15.03 1.915 -46.06
1.025 5.936 4.979 0.9575 0 0 0 -15.03 -5.075 -19.05 7.947 -5.075 -3.064 -43.09 -11.01 -5.075 -41.08
1.03 5.936 -1.053 -2.011 -2.011 -3.064 1.915 -16.09 -20.01 -31.02 1.915 -8.043 -18 -30.07 -11.01 -7.085 -24.03
1.035 5.936 -1.053 0 -6.032 -9 0 -24.03 -24.03 -33.03 -12.06 -16.09 -32.08 -16.09 -15.03 -9 -8.043
1.04 3.926 -1.053 -1.053 -7.085 -11.01 -1.053 -31.02 -17.04 -27 -25.09 -27 -43.09 -5.075 -21.06 -11.01 0.9575
1.045 -2.011 -3.064 -1.053 -5.075 -11.01 -4.021 -30.07 -5.075 -19.05 -28.05 -30.07 -40.02 0.9575 -25.09 -8.043 0
1.05 -1.053 -1.053 -3.064 -1.053 -9 -4.021 -20.01 0.9575 -15.03 -22.02 -22.02 -30.07 4.979 -23.08 -5.075 1.915
1.055 -1.053 6.99 -7.085 0 -3.064 -5.075 -7.085 0.9575 -15.03 -7.085 -13.02 -13.02 7.947 -15.03 -3.064 3.926
1.06 -2.011 18.96 -6.032 6.99 -2.011 -1.053 1.915 -4.021 -17.04 8.905 -5.075 0 9.958 -3.064 0 6.99
1.065 5.936 24.99 -10.05 5.936 0.9575 0.9575 1.915 -7.085 -17.04 25.95 -4.021 5.936 7.947 3.926 -5.075 3.926
1.07 9.958 26.91 -15.03 1.915 0 -2.011 -13.02 -7.085 -13.02 29.97 -15.03 0 3.926 9.958 -17.04 0
1.075 9.958 20.97 -18 -2.011 1.915 0 -26.04 0.9575 -7.085 22.98 -25.09 -2.011 -1.053 13.98 -28.05 -7.085
1.08 7.947 12.93 -21.06 0.9575 0 -3.064 -28.05 4.979 -3.064 10.92 -30.07 -9 0.9575 9.958 -33.03 -11.01
1.085 0 0.9575 -17.04 -3.064 -5.075 -7.085 -21.06 9.958 -3.064 0 -23.08 -7.085 -7.085 9.958 -31.02 -17.04
1.09 -4.021 -5.075 -12.06 -9 -5.075 -6.032 -6.032 6.99 -2.011 -1.053 -7.085 -3.064 -5.075 6.99 -18 -9
1.095 -14.08 -17.04 -12.06 -12.06 -7.085 -6.032 -3.064 1.915 -2.011 2.968 0.9575 1.915 -1.053 2.968 -3.064 1.915
1.1 -18 -21.06 -17.04 -17.04 -4.021 -5.075 -4.021 -7.085 -1.053 9.958 1.915 0.9575 1.915 1.915 -2.011 1.915
1.105 -20.01 -23.08 -20.01 -20.01 -7.085 -6.032 -15.03 -12.06 2.968 14.94 -5.075 -2.011 0 -4.021 1.915 1.915
1.11 -16.09 -15.03 -20.01 -17.04 -7.085 -6.032 -18 -12.06 2.968 14.94 -11.01 -11.01 -1.053 -6.032 -2.011 -11.01
1.115 -11.01 -7.085 -15.03 -7.085 -7.085 -5.075 -11.01 -5.075 5.936 11.97 -7.085 -13.02 -15.03 -5.075 -3.064 -25.09
1.12 -5.075 -1.053 -5.075 3.926 -2.011 1.915 1.915 6.99 11.97 10.92 0.9575 -9 -19.05 -3.064 0 -29.01
1.125 0.9575 2.968 2.968 11.97 0.9575 10.92 10.92 21.93 21.93 12.93 13.98 0 -24.03 0.9575 10.92 -27
1.13 5.936 4.979 9.958 19.92 11.97 21.93 15.99 27.96 35.91 17.91 19.92 3.926 -19.05 -2.011 15.99 -15.03
1.135 15.99 4.979 12.93 29.97 26.91 37.92 15.99 35.91 47.97 25.95 22.98 11.97 -7.085 0 21.93 -2.011
1.14 23.94 8.905 16.95 36.96 37.92 45.96 10.92 38.97 55.92 30.93 17.91 19.92 5.936 3.926 20.97 16.95
1.145 33.99 16.95 17.91 41.94 47.97 43.95 7.947 41.94 59.94 33.99 15.99 25.95 17.91 13.98 19.92 27.96
1.15 33.99 22.98 21.93 41.94 43.95 36.96 14.94 39.93 57.93 36.96 18.96 30.93 32.94 23.94 23.94 33.99
1.155 29.97 18.96 15.99 29.97 29.97 24.99 24.99 33.99 49.98 34.95 22.98 32.94 38.97 31.98 24.99 37.92
1.16 17.91 8.905 1.915 13.98 11.97 11.97 29.97 21.93 37.92 23.94 23.94 27.96 37.92 33.99 21.93 37.92
1.165 3.926 -5.075 -2.011 -2.011 -3.064 0.9575 28.92 6.99 23.94 14.94 20.97 18.96 32.94 29.97 11.97 32.94
1.17 -3.064 -19.05 -8.043 -18 -15.03 -4.021 16.95 -6.032 5.936 6.99 12.93 2.968 18.96 21.93 0.9575 22.98
1.175 -11.01 -27 -7.085 -29.01 -21.06 -9 0 -21.06 -3.064 0 0 -9 1.915 11.97 -27 5.936
1.18 -13.02 -23.08 -6.032 -28.05 -23.08 -13.02 -13.02 -28.05 -19.05 -1.053 -6.032 -21.06 -9 0 -50.08 -10.05
1.185 -13.02 -17.04 -10.05 -26.04 -23.08 -21.06 -25.09 -32.08 -35.04 -13.02 -19.05 -33.03 -27 -11.01 -68.08 -30.07
1.19 -19.05 -17.04 -23.08 -31.02 -27 -29.01 -31.02 -41.08 -49.02 -31.02 -29.01 -43.09 -43.09 -25.09 -81 -51.03
1.195 -25.09 -23.08 -37.06 -41.08 -35.04 -37.06 -33.03 -49.02 -63 -45 -35.04 -53.05 -55.06 -37.06 -78.04 -65.01
1.2 -29.01 -29.01 -43.09 -51.03 -41.08 -39.07 -29.01 -55.06 -75.07 -51.03 -33.03 -57.07 -65.01 -43.09 -64.06 -71.05
1.205 -29.01 -29.01 -33.03 -57.07 -39.07 -35.04 -21.06 -53.05 -77.08 -49.02 -25.09 -55.06 -63 -41.08 -45 -65.01
1.21 -23.08 -21.06 -15.03 -47.01 -31.02 -29.01 -11.01 -45 -73.06 -41.08 -11.01 -43.09 -55.06 -33.03 -21.06 -53.05
1.215 -21.06 -9 0 -29.01 -21.06 -25.09 -1.053 -31.02 -61.09 -33.03 -2.011 -27 -41.08 -27 -1.053 -39.07
1.22 -23.08 -5.075 9.958 -11.01 -17.04 -25.09 3.926 -17.04 -49.02 -33.03 7.947 -11.01 -29.01 -25.09 3.926 -29.01
1.225 -31.02 -13.02 7.947 -3.064 -17.04 -27 7.947 -11.01 -39.07 -33.03 9.958 0.9575 -23.08 -25.09 5.936 -25.09
1.23 -37.06 -23.08 3.926 -3.064 -19.05 -25.09 9.958 -8.043 -31.02 -29.01 7.947 0 -23.08 -27 1.915 -25.09
1.235 -31.02 -27 1.915 -4.021 -13.02 -15.03 9.958 -4.021 -21.06 -15.03 3.926 1.915 -21.06 -23.08 -2.011 -23.08
1.24 -13.02 -15.03 3.926 0.9575 -2.011 0 9.958 3.926 -7.085 3.926 1.915 1.915 -13.02 -11.01 -2.011 -13.02
1.245 5.936 4.979 5.936 12.93 19.92 19.92 7.947 21.93 5.936 25.95 3.926 4.979 1.915 3.926 0.9575 0
1.25 25.95 24.99 3.926 28.92 37.92 35.91 5.936 37.92 27.96 39.93 5.936 8.905 14.94 23.94 4.979 19.92
1.255 29.97 32.94 0.9575 37.92 43.95 41.94 3.926 47.97 45.96 37.92 7.947 13.98 29.97 35.91 7.947 37.92
1.26 19.92 24.99 -6.032 37.92 40.98 38.97 3.926 51.99 55.92 31.98 8.905 22.98 40.98 39.93 8.905 48.93
1.265 7.947 10.92 -6.032 21.93 32.94 30.93 6.99 48.93 57.93 27.96 8.905 31.98 48.93 39.93 4.979 54.96
1.27 1.915 0.9575 -3.064 7.947 27.96 25.95 9.958 41.94 53.91 31.98 5.936 33.99 51.99 41.94 -2.011 57.93
1.275 9.958 2.968 2.968 2.968 32.94 28.92 12.93 39.93 49.98 44.91 2.968 29.97 53.91 47.97 -7.085 60.99
1.28 19.92 10.92 8.905 1.915 36.96 32.94 10.92 37.92 43.95 52.95 0.9575 18.96 51.99 53.91 -15.03 58.98
1.285 25.95 16.95 3.926 0 35.91 33.99 3.926 27.96 39.93 49.98 -2.011 0 37.92 49.98 -25.09 41.94
1.29 19.92 12.93 0.9575 -1.053 27.96 25.95 1.915 16.95 33.99 30.93 0.9575 -11.01 12.93 29.97 -34.09 15.99
1.295 7.947 0.9575 -9 -5.075 15.99 11.97 -5.075 3.926 19.92 0.9575 -5.075 -29.01 -12.06 0 -43.09 -19.05
1.3 0.9575 -3.064 -11.01 -9 0 -2.011 -15.03 0 0 -23.08 -13.02 -43.09 -45 -31.02 -51.03 -53.05
1.305 -3.064 -3.064 -4.021 -6.032 0 -5.075 -19.05 3.926 -17.04 -35.04 -15.03 -47.01 -68.08 -55.06 -53.05 -76.03
1.31 0.9575 0.9575 0 -2.011 0 -2.011 -18 4.979 -33.03 -35.04 -16.09 -50.08 -78.04 -63 -50.08 -79.09
1.315 3.926 0.9575 9.958 7.947 -2.011 1.915 -11.01 7.947 -37.06 -27 -11.01 -41.08 -77.08 -55.06 -39.07 -73.06
1.32 3.926 2.968 16.95 14.94 2.968 7.947 -1.053 15.99 -31.02 -16.09 -3.064 -23.08 -63 -39.07 -19.05 -53.05
1.325 -2.011 -1.053 18.96 17.91 3.926 11.97 6.99 20.97 -14.08 -9 5.936 -1.053 -45 -25.09 2.968 -38.01
1.33 -5.075 -3.064 17.91 13.98 3.926 5.936 15.99 23.94 -1.053 -11.01 15.99 21.93 -31.02 -15.03 25.95 -27
1.335 -8.043 -3.064 17.91 12.93 2.968 1.915 24.99 29.97 8.905 -2.011 27.96 43.95 -15.03 -7.085 42.99 -14.08
1.34 -1.053 0.9575 18.96 14.94 5.936 3.926 29.97 35.91 17.91 8.905 31.98 47.97 -1.053 -1.053 50.94 0.9575
1.345 1.915 0.9575 16.95 13.98 4.979 4.979 26.91 35.91 26.91 31.98 28.92 45.96 4.979 12.93 50.94 14.94
1.35 9.958 6.99 12.93 10.92 5.936 9.958 17.91 25.95 33.99 48.93 17.91 35.91 19.92 28.92 42.99 31.98
1.355 8.905 8.905 0 4.979 0.9575 5.936 1.915 15.99 36.96 50.94 1.915 23.94 35.91 39.93 32.94 50.94
1.36 5.936 8.905 -9 0.9575 0 -2.011 -29.01 7.947 29.97 37.92 -25.09 9.958 43.95 45.96 21.93 59.94
1.365 5.936 10.92 -20.01 -1.053 0 -1.053 -56.01 2.968 22.98 19.92 -51.03 4.979 53.91 45.96 14.94 62.91
1.37 9.958 14.94 -28.05 1.915 6.99 -3.064 -77.08 5.936 13.98 8.905 -73.06 3.926 57.93 41.94 3.926 63.96
1.375 19.92 18.96 -23.08 9.958 11.97 3.926 -83.02 7.947 13.98 11.97 -81 7.947 61.95 39.93 -2.011 61.95
1.38 25.95 22.98 -7.085 23.94 20.97 18.96 -70.09 20.97 23.94 29.97 -70.09 20.97 62.91 41.94 -2.011 63.96
1.385 27.96 22.98 2.968 36.96 24.99 25.95 -55.06 31.98 37.92 39.93 -53.05 31.98 60.99 41.94 -3.064 60.99
1.39 27.96 20.97 9.958 35.91 19.92 27.96 -41.08 33.99 49.98 33.99 -37.06 33.99 55.92 39.93 -7.085 57.93
1.395 25.95 20.97 13.98 31.98 13.98 21.93 -35.04 27.96 51.99 20.97 -27 25.95 50.94 35.91 -7.085 45.96
1.4 25.95 18.96 13.98 26.91 9.958 10.92 -42.03 16.95 35.91 2.968 -30.07 13.98 38.97 29.97 -8.043 35.91
1.405 27.96 22.98 7.947 17.91 1.915 -2.011 -51.03 0 11.97 -3.064 -41.08 0.9575 25.95 21.93 -11.01 19.92
1.41 27.96 22.98 4.979 11.97 2.968 0 -52.09 -9 -5.075 -4.021 -46.06 -14.08 11.97 13.98 -11.01 0.9575
1.415 21.93 18.96 2.968 6.99 2.968 1.915 -50.08 -23.08 -23.08 -2.011 -46.06 -25.09 -5.075 1.915 -7.085 -12.06
1.42 11.97 14.94 -2.011 1.915 -2.011 -2.011 -47.01 -29.01 -31.02 -3.064 -43.09 -27 -29.01 -7.085 -3.064 -35.04
1.425 0 8.905 -4.021 0 0 1.915 -38.01 -30.07 -35.04 -7.085 -32.08 -24.03 -50.08 -19.05 -1.053 -56.01
1.43 0.9575 4.979 -14.08 0 -8.043 -4.021 -35.04 -31.02 -37.06 -15.03 -24.03 -18 -68.08 -31.02 6.99 -70.09
1.435 -2.011 6.99 -23.08 0.9575 -13.02 -11.01 -33.03 -29.01 -41.08 -17.04 -21.06 -7.085 -75.07 -33.03 11.97 -75.07
1.44 5.936 10.92 -25.09 1.915 -15.03 -13.02 -29.01 -25.09 -41.08 -11.01 -19.05 2.968 -68.08 -29.01 22.98 -65.01
1.445 13.98 14.94 -21.06 0 -7.085 -7.085 -23.08 -15.03 -35.04 -2.011 -17.04 14.94 -52.09 -19.05 30.93 -49.02
1.45 17.91 12.93 -13.02 -3.064 -2.011 0 -17.04 -7.085 -21.06 11.97 -15.03 21.93 -31.02 -3.064 33.99 -25.09
1.455 15.99 8.905 -9 -4.021 7.947 11.97 -13.02 0 -3.064 19.92 -15.03 19.92 -7.085 5.936 31.98 -3.064
1.46 9.958 2.968 -13.02 -5.075 13.98 17.91 -17.04 -1.053 5.936 17.91 -17.04 11.97 9.958 17.91 25.95 9.958
1.465 3.926 0.9575 -19.05 -7.085 11.97 11.97 -25.09 0.9575 9.958 7.947 -21.06 0 25.95 23.94 13.98 21.93
1.47 1.915 -1.053 -25.09 -5.075 3.926 -2.011 -35.04 -7.085 3.926 -1.053 -27 -3.064 33.99 21.93 1.915 29.97
1.475 0 -1.053 -21.06 -1.053 -1.053 -9 -39.07 -15.03 -3.064 -13.02 -27 -7.085 35.91 13.98 -1.053 31.98
1.48 3.926 -1.053 -7.085 0 -7.085 -13.02 -31.02 -15.03 -13.02 -19.05 -21.06 -5.075 29.97 3.926 -5.075 27.96
1.485 7.947 4.979 5.936 5.936 -5.075 -7.085 -15.03 -9 -15.03 -17.04 -9 -2.011 19.92 -1.053 -3.064 21.93
1.49 11.97 8.905 21.93 9.958 0 1.915 -2.011 -2.011 -9 -9 0 3.926 13.98 -5.075 0 15.99
1.495 13.98 10.92 25.95 10.92 11.97 13.98 7.947 9.958 -1.053 0.9575 7.947 5.936 11.97 -5.075 -2.011 11.97
1.5 11.97 8.905 17.91 5.936 17.91 15.99 5.936 13.98 -2.011 1.915 3.926 1.915 11.97 -5.075 -13.02 5.936
1.505 3.926 2.968 -1.053 0.9575 11.97 3.926 -1.053 11.97 -1.053 1.915 -2.011 -3.064 11.97 -5.075 -24.03 4.979
1.51 -1.053 -3.064 -14.08 0 0 -7.085 -16.09 0.9575 -11.01 -1.053 -16.09 -15.03 5.936 -11.01 -37.06 0
1.515 -9 -11.01 -23.08 -3.064 -5.075 -17.04 -27 -3.064 -23.08 -11.01 -23.08 -25.09 -1.053 -19.05 -45 -9
1.52 -13.02 -13.02 -22.02 1.915 -11.01 -19.05 -28.05 -4.021 -27 -21.06 -22.02 -24.03 -13.02 -27 -39.07 -14.08
1.525 -9 -11.01 -14.08 3.926 -3.064 -4.021 -18 1.915 -23.08 -29.01 -14.08 -16.09 -21.06 -33.03 -22.02 -16.09
1.53 -1.053 -7.085 -7.085 5.936 0 5.936 -9 3.926 -11.01 -29.01 -7.085 -3.064 -23.08 -41.08 -7.085 -17.04
1.535 1.915 0.9575 -3.064 3.926 9.958 14.94 -6.032 8.905 1.915 -31.02 -5.075 4.979 -25.09 -49.02 0 -21.06
1.54 1.915 0.9575 -11.01 0.9575 7.947 10.92 -8.043 9.958 0.9575 -37.06 -9 12.93 -26.04 -59.08 0 -31.02
1.545 -1.053 -7.085 -23.08 -3.064 0.9575 -1.053 -15.03 0 0.9575 -47.01 -17.04 5.936 -35.04 -73.06 0.9575 -51.03
1.55 -13.02 -15.03 -28.05 -9 -13.02 -16.09 -15.03 -7.085 -12.06 -55.06 -22.02 -4.021 -52.09 -76.03 -11.01 -70.09
1.555 -25.09 -23.08 -29.01 -17.04 -27 -30.07 -17.04 -22.02 -32.08 -59.08 -20.01 -29.01 -72 -70.09 -24.03 -86.08
1.56 -27 -25.09 -29.01 -21.06 -31.02 -35.04 -19.05 -37.06 -49.02 -55.06 -21.06 -57.07 -93.07 -57.07 -41.08 -93.07
1.565 -24.03 -21.06 -23.08 -26.04 -29.01 -27 -23.08 -47.01 -57.07 -45 -22.02 -78.04 -100.1 -34.09 -58.02 -86.08
1.57 -18 -21.06 -20.01 -33.03 -20.01 -12.06 -32.08 -56.01 -55.06 -29.01 -31.02 -88.09 -97.09 -15.03 -73.06 -75.07
1.575 -11.01 -19.05 -19.05 -33.03 -9 -1.053 -37.06 -53.05 -41.08 -11.01 -37.06 -81 -79.09 -1.053 -79.09 -51.03
1.58 -1.053 -13.02 -14.08 -19.05 0.9575 7.947 -31.02 -30.07 -16.09 3.926 -32.08 -56.01 -47.01 4.979 -70.09 -24.03
1.585 0 -9 -9 -2.011 17.91 15.99 -16.09 0 3.926 19.92 -18 -25.09 -12.06 14.94 -50.08 0
1.59 0 -7.085 -4.021 6.99 24.99 21.93 1.915 19.92 23.94 29.97 0 1.915 12.93 21.93 -29.01 18.96
1.595 3.926 -11.01 -1.053 12.93 23.94 21.93 8.905 28.92 33.99 29.97 6.99 13.98 28.92 24.99 -12.06 31.98
1.6 1.915 -13.02 0 5.936 14.94 17.91 5.936 22.98 30.93 17.91 8.905 14.94 31.98 20.97 -8.043 32.94
1.605 -5.075 -19.05 -1.053 -5.075 0 7.947 -1.053 7.947 21.93 1.915 0 5.936 23.94 9.958 -11.01 27.96
1.61 -10.05 -19.05 0 -13.02 -2.011 2.968 -10.05 -2.011 7.947 -7.085 -3.064 0.9575 23.94 3.926 -17.04 25.95
1.615 -14.08 -15.03 1.915 -12.06 -5.075 0 -9 -5.075 1.915 -11.01 -6.032 0.9575 20.97 1.915 -14.08 26.91
1.62 -13.02 -15.03 -2.011 -3.064 0.9575 -2.011 -1.053 -1.053 -5.075 -7.085 -1.053 7.947 25.95 -1.053 -5.075 29.97
1.625 -9 -15.03 1.915 0 0 -1.053 1.915 6.99 -8.043 -2.011 8.905 19.92 30.93 0 2.968 34.95
1.63 -7.085 -15.03 -2.011 1.915 -2.011 -1.053 7.947 5.936 -8.043 3.926 18.96 24.99 30.93 -4.021 11.97 32.94
1.635 -9 -21.06 -3.064 0.9575 -3.064 0.9575 5.936 1.915 -9 5.936 19.92 27.96 23.94 -11.01 15.99 25.95
1.64 -11.01 -19.05 0.9575 0 -7.085 0 6.99 1.915 -6.032 3.926 17.91 32.94 18.96 -19.05 13.98 17.91
1.645 -11.01 -15.03 9.958 1.915 -9 0 12.93 1.915 0 3.926 15.99 34.95 9.958 -23.08 13.98 7.947
1.65 -7.085 -9 17.91 15.99 -3.064 -2.011 19.92 3.926 -2.011 1.915 13.98 35.91 3.926 -23.08 5.936 0.9575
1.655 0.9575 -1.053 22.98 31.98 1.915 0.9575 26.91 16.95 0 0 14.94 30.93 -1.053 -19.05 -1.053 -8.043
1.66 1.915 0.9575 20.97 34.95 3.926 3.926 20.97 26.91 1.915 -2.011 14.94 22.98 -9 -17.04 -7.085 -20.01
1.665 1.915 -5.075 7.947 23.94 3.926 5.936 5.936 29.97 1.915 -1.053 5.936 7.947 -23.08 -15.03 -25.09 -35.04
1.67 -2.011 -9 1.915 8.905 0 5.936 -4.021 20.97 1.915 0.9575 1.915 0.9575 -35.04 -15.03 -35.04 -44.04
1.675 -1.053 -9 -6.032 1.915 1.915 3.926 -13.02 7.947 1.915 1.915 -6.032 -3.064 -41.08 -11.01 -46.06 -46.06
1.68 -1.053 -7.085 -7.085 -3.064 1.915 3.926 -9 0.9575 1.915 11.97 -3.064 -3.064 -39.07 -7.085 -39.07 -37.06
1.685 0.9575 -3.064 0.9575 -1.053 5.936 1.915 1.915 -3.064 0 15.99 3.926 1.915 -23.08 -1.053 -20.01 -19.05
1.69 0 -1.053 1.915 3.926 5.936 -2.011 17.91 -5.075 -2.011 9.958 17.91 7.947 -5.075 0 0.9575 0
1.695 0 -3.064 1.915 9.958 3.926 -1.053 21.93 -5.075 -2.011 -1.053 23.94 11.97 11.97 1.915 25.95 21.93
1.7 0.9575 -5.075 -1.053 9.958 0 -3.064 13.98 -1.053 0.9575 -19.05 19.92 11.97 25.95 0 43.95 33.99
1.705 -1.053 -9 -13.02 5.936 -2.011 -1.053 0 -3.064 0.9575 -29.01 5.936 9.958 29.97 0.9575 49.98 33.99
1.71 -1.053 -7.085 -15.03 3.926 0 0 -7.085 -5.075 -2.011 -27 -1.053 7.947 25.95 -3.064 49.98 23.94
1.715 0 -3.064 -7.085 3.926 5.936 7.947 -7.085 -1.053 0 -15.03 -3.064 5.936 15.99 -5.075 45.96 9.958
1.72 7.947 0.9575 3.926 7.947 11.97 13.98 0 2.968 3.926 -3.064 -2.011 5.936 7.947 -7.085 41.94 0
1.725 11.97 8.905 19.92 14.94 15.99 15.99 13.98 14.94 5.936 -2.011 9.958 5.936 5.936 -7.085 39.93 -2.011
1.73 9.958 8.905 25.95 15.99 15.99 11.97 23.94 21.93 5.936 -2.011 19.92 5.936 7.947 -3.064 33.99 1.915
1.735 3.926 6.99 17.91 12.93 9.958 3.926 21.93 23.94 3.926 0.9575 19.92 4.979 11.97 -2.011 23.94 9.958
1.74 0.9575 0.9575 6.99 4.979 3.926 0.9575 11.97 15.99 0 -1.053 13.98 4.979 14.94 5.936 12.93 13.98
1.745 -3.064 -1.053 0 1.915 -2.011 -1.053 3.926 11.97 0.9575 0.9575 5.936 3.926 11.97 11.97 -2.011 11.97
1.75 0.9575 2.968 4.979 3.926 0.9575 0.9575 4.979 11.97 0.9575 1.915 6.99 8.905 8.905 13.98 -6.032 6.99
1.755 3.926 12.93 14.94 7.947 6.99 8.905 16.95 11.97 -2.011 7.947 14.94 14.94 2.968 11.97 -10.05 1.915
1.76 7.947 18.96 23.94 13.98 9.958 13.98 27.96 21.93 0 11.97 25.95 21.93 -1.053 5.936 -7.085 -7.085
1.765 5.936 18.96 24.99 14.94 10.92 10.92 34.95 25.95 1.915 9.958 32.94 27.96 -8.043 0.9575 -3.064 -12.06
1.77 0.9575 12.93 23.94 11.97 0.9575 0.9575 30.93 22.98 -2.011 4.979 28.92 21.93 -17.04 -9 -1.053 -20.01
1.775 -7.085 8.905 19.92 1.915 -3.064 -5.075 15.99 5.936 -5.075 -2.011 17.91 7.947 -33.03 -21.06 -13.02 -33.03
1.78 -9 8.905 17.91 1.915 -11.01 -9 5.936 -1.053 -19.05 -4.021 5.936 -6.032 -45 -25.09 -31.02 -41.08
1.785 -6.032 8.905 18.96 -7.085 -13.02 -9 1.915 -17.04 -33.03 -6.032 0.9575 -23.08 -52.09 -23.08 -42.03 -51.03
1.79 -5.075 0.9575 3.926 -15.03 -11.01 -9 -3.064 -27 -39.07 -7.085 -3.064 -35.04 -53.05 -13.02 -45 -47.01
1.795 -10.05 -11.01 -11.01 -30.07 -12.06 -12.06 -4.021 -34.09 -43.09 0 0 -33.03 -43.09 0 -31.02 -30.07
1.8 -28.05 -39.07 -34.09 -47.01 -17.04 -22.02 -6.032 -39.07 -43.09 1.915 0 -28.05 -20.01 8.905 -8.043 -3.064
1.805 -47.01 -61.09 -47.01 -61.09 -33.03 -37.06 -15.03 -41.08 -41.08 3.926 -3.064 -19.05 0.9575 13.98 3.926 11.97
1.81 -60.04 -59.08 -40.02 -59.08 -46.06 -48.07 -16.09 -42.03 -38.01 0.9575 -8.043 -21.06 12.93 16.95 10.92 25.95
1.815 -53.05 -41.08 -20.01 -51.03 -50.08 -49.02 -17.04 -41.08 -40.02 -12.06 -15.03 -24.03 16.95 10.92 5.936 20.97
1.82 -37.06 -9 -3.064 -35.04 -47.01 -39.07 -15.03 -43.09 -43.09 -25.09 -19.05 -37.06 9.958 0 -1.053 7.947
1.825 -12.06 8.905 -1.053 -19.05 -33.03 -20.01 -12.06 -43.09 -39.07 -27 -16.09 -42.03 0.9575 -1.053 -3.064 -1.053
1.83 2.968 16.95 -6.032 -14.08 -18 -6.032 -12.06 -43.09 -37.06 -17.04 -15.03 -45 1.915 2.968 0 0
1.835 13.98 12.93 -22.02 -18 -2.011 1.915 -14.08 -44.04 -30.07 0.9575 -11.01 -33.03 0.9575 12.93 9.958 11.97
1.84 14.94 6.99 -28.05 -22.02 4.979 0.9575 -14.08 -35.04 -19.05 21.93 -9 -23.08 16.95 18.96 23.94 25.95
1.845 12.93 2.968 -28.05 -21.06 9.958 0.9575 -14.08 -27 -7.085 29.97 -8.043 -8.043 30.93 22.98 27.96 34.95
1.85 7.947 6.99 -21.06 -13.02 11.97 0 -11.01 -15.03 0.9575 25.95 -11.01 0.9575 35.91 17.91 21.93 33.99
1.855 7.947 8.905 -12.06 -1.053 10.92 1.915 -7.085 -3.064 6.99 16.95 -13.02 2.968 36.96 10.92 11.97 34.95
1.86 8.905 10.92 -4.021 3.926 10.92 6.99 0 0.9575 16.95 9.958 -10.05 1.915 36.96 6.99 0.9575 35.91
1.865 7.947 4.979 -1.053 5.936 13.98 11.97 -2.011 7.947 27.96 13.98 -7.085 5.936 33.99 9.958 -3.064 35.91
1.87 8.905 -1.053 2.968 3.926 17.91 14.94 0.9575 13.98 37.92 27.96 -2.011 8.905 34.95 20.97 -6.032 41.94
1.875 6.99 0.9575 11.97 -1.053 14.94 10.92 2.968 16.95 43.95 32.94 1.915 11.97 29.97 24.99 -11.01 34.95
1.88 0 -5.075 9.958 -3.064 7.947 0 0 15.99 41.94 19.92 0.9575 11.97 19.92 17.91 -15.03 15.99
1.885 0 -5.075 2.968 -7.085 -2.011 -5.075 1.915 7.947 27.96 0.9575 -3.064 7.947 1.915 1.915 -18 -7.085
1.89 -7.085 -9 -5.075 -14.08 -7.085 -15.03 -3.064 -1.053 11.97 -14.08 -9 -1.053 -23.08 -13.02 -22.02 -31.02
1.895 -11.01 -11.01 -17.04 -15.03 -17.04 -19.05 -11.01 -11.01 0.9575 -23.08 -15.03 -7.085 -41.08 -27 -25.09 -49.02
1.9 -11.01 -11.01 -13.02 -9 -18 -16.09 -10.05 -8.043 -5.075 -14.08 -14.08 -17.04 -39.07 -27 -23.08 -44.04
1.905 -15.03 -13.02 -8.043 -6.032 -20.01 -18 -4.021 -1.053 -5.075 -3.064 -10.05 -21.06 -26.04 -11.01 -21.06 -24.03
1.91 -19.05 -15.03 -1.053 -5.075 -21.06 -21.06 0.9575 1.915 -1.053 0 -5.075 -21.06 -3.064 3.926 -19.05 0.9575
1.915 -25.09 -21.06 1.915 -9 -24.03 -26.04 1.915 0 -1.053 1.915 0 -22.02 8.905 21.93 -12.06 16.95
1.92 -29.01 -25.09 -6.032 -13.02 -28.05 -28.05 0 -5.075 -5.075 0 1.915 -22.02 18.96 27.96 -4.021 24.99
1.925 -29.01 -25.09 -17.04 -23.08 -29.01 -29.01 -9 -27 -15.03 0 -3.064 -29.01 13.98 23.94 0.9575 21.93
1.93 -25.09 -21.06 -22.02 -28.05 -27 -27 -17.04 -43.09 -25.09 1.915 -9 -34.09 6.99 15.99 -1.053 15.99
1.935 -17.04 -15.03 -21.06 -24.03 -21.06 -25.09 -21.06 -47.01 -31.02 3.926 -13.02 -36 1.915 3.926 -2.011 9.958
1.94 -11.01 -7.085 -13.02 -11.01 -17.04 -23.08 -17.04 -41.08 -29.01 0 -15.03 -33.03 3.926 -1.053 -1.053 9.958
1.945 0.9575 0.9575 -1.053 2.968 -11.01 -17.04 -9 -20.01 -23.08 -1.053 -11.01 -19.05 11.97 -7.085 0.9575 11.97
1.95 9.958 8.905 1.915 21.93 -2.011 -3.064 0 -2.011 -11.01 -1.053 -1.053 -1.053 21.93 -7.085 5.936 15.99
1.955 27.96 24.99 7.947 39.93 17.91 13.98 11.97 11.97 0 1.915 7.947 11.97 27.96 -3.064 17.91 21.93
1.96 45.96 40.98 11.97 53.91 39.93 35.91 21.93 27.96 17.91 21.93 19.92 25.95 31.98 1.915 25.95 23.94
1.965 55.92 52.95 15.99 59.94 57.93 51.99 25.95 37.92 35.91 41.94 23.94 29.97 27.96 9.958 25.95 19.92
1.97 57.93 54.96 15.99 61.95 63.96 53.91 21.93 37.92 43.95 51.99 19.92 25.95 19.92 15.99 13.98 11.97
1.975 49.98 48.93 11.97 55.92 55.92 45.96 13.98 27.96 43.95 49.98 7.947 15.99 9.958 15.99 0.9575 -2.011
1.98 39.93 38.97 3.926 47.97 39.93 33.99 3.926 15.99 33.99 39.93 0.9575 1.915 -2.011 11.97 -18 -9
1.985 33.99 32.94 -2.011 39.93 23.94 21.93 -2.011 3.926 21.93 29.97 -7.085 -3.064 -9 5.936 -34.09 -21.06
1.99 31.98 28.92 0.9575 29.97 15.99 17.91 0.9575 -1.053 7.947 23.94 -9 -9 -19.05 0 -41.08 -29.01
1.995 29.97 28.92 -1.053 18.96 11.97 15.99 0 -5.075 1.915 19.92 -5.075 -11.01 -27 -1.053 -42.03 -34.09
2 22.98 20.97 -1.053 2.968 5.936 7.947 1.915 -11.01 0.9575 11.97 0 -13.02 -33.03 -7.085 -36 -38.01
2.005 5.936 4.979 -3.064 -13.02 -3.064 -5.075 -2.011 -19.05 -7.085 0.9575 -1.053 -21.06 -39.07 -13.02 -31.02 -45
2.01 -12.06 -13.02 -14.08 -36 -26.04 -30.07 -2.011 -35.04 -21.06 -19.05 -4.021 -35.04 -47.01 -23.08 -23.08 -48.07
2.015 -36 -35.04 -32.08 -62.05 -54 -58.02 -16.09 -61.09 -43.09 -41.08 -14.08 -55.06 -56.01 -37.06 -17.04 -54
2.02 -55.06 -55.06 -47.01 -79.09 -79.09 -77.08 -25.09 -83.02 -67.02 -59.08 -21.06 -71.05 -63 -47.01 -7.085 -55.06
2.025 -62.05 -57.07 -56.01 -83.02 -88.09 -80.05 -28.05 -93.07 -85.03 -64.06 -24.03 -76.03 -60.04 -51.03 0.9575 -45
2.03 -60.04 -53.05 -51.03 -81 -88.09 -70.09 -28.05 -89.05 -90 -60.04 -19.05 -74.01 -52.09 -47.01 12.93 -31.02
2.035 -49.02 -47.01 -45 -65.01 -75.07 -55.06 -25.09 -75.07 -81 -49.02 -17.04 -59.08 -33.03 -35.04 23.94 -11.01
2.04 -31.02 -33.03 -35.04 -48.07 -53.05 -33.03 -19.05 -51.03 -60.04 -30.07 -15.03 -36 -10.05 -16.09 30.93 4.979
2.045 -17.04 -25.09 -28.05 -29.01 -35.04 -21.06 -21.06 -31.02 -38.01 -12.06 -12.06 -16.09 4.979 -4.021 25.95 18.96
2.05 -7.085 -13.02 -21.06 -15.03 -19.05 -13.02 -19.05 -17.04 -23.08 0.9575 -13.02 -1.053 17.91 -2.011 15.99 23.94
2.055 1.915 -1.053 -13.02 -2.011 -4.021 -4.021 -12.06 -8.043 -10.05 7.947 -5.075 1.915 21.93 2.968 10.92 26.91
2.06 0.9575 6.99 1.915 8.905 1.915 0 -1.053 0 0.9575 11.97 -1.053 3.926 22.98 8.905 10.92 23.94
2.065 5.936 14.94 7.947 19.92 9.958 13.98 9.958 1.915 3.926 13.98 9.958 3.926 19.92 13.98 19.92 19.92
2.07 14.94 18.96 10.92 23.94 20.97 24.99 17.91 8.905 15.99 13.98 15.99 5.936 19.92 20.97 26.91 18.96
2.075 22.98 20.97 8.905 26.91 26.91 27.96 20.97 14.94 22.98 18.96 16.95 8.905 15.99 21.93 25.95 10.92
2.08 24.99 20.97 3.926 22.98 31.98 27.96 14.94 18.96 26.91 18.96 12.93 10.92 9.958 14.94 15.99 0.9575
2.085 26.91 22.98 2.968 20.97 36.96 23.94 6.99 18.96 26.91 18.96 6.99 12.93 0 7.947 7.947 -4.021
2.09 24.99 28.92 6.99 17.91 32.94 22.98 5.936 16.95 21.93 13.98 7.947 13.98 -7.085 -1.053 2.968 -10.05
2.095 21.93 34.95 15.99 17.91 23.94 21.93 15.99 11.97 19.92 9.958 17.91 15.99 -15.03 -2.011 7.947 -11.01
2.1 18.96 32.94 23.94 18.96 17.91 21.93 27.96 8.905 25.95 9.958 28.92 21.93 -12.06 0.9575 20.97 -7.085
2.105 15.99 24.99 21.93 12.93 8.905 18.96 34.95 6.99 26.91 15.99 33.99 27.96 -13.02 4.979 26.91 -6.032
2.11 7.947 10.92 9.958 0 3.926 9.958 29.97 0 27.96 19.92 23.94 23.94 -13.02 1.915 21.93 -15.03
2.115 -2.011 -1.053 1.915 -3.064 1.915 0 13.98 -3.064 24.99 18.96 10.92 12.93 -18 -1.053 15.99 -24.03
2.12 -3.064 -11.01 -9 -14.08 1.915 -3.064 0 -11.01 14.94 8.905 0 -1.053 -28.05 0 12.93 -36
2.125 -15.03 -19.05 -9 -17.04 -1.053 -11.01 -7.085 -17.04 3.926 -3.064 0.9575 -9 -39.07 -3.064 17.91 -39.07
2.13 -20.01 -19.05 0.9575 -15.03 -8.043 -10.05 -6.032 -19.05 0.9575 -14.08 0 -14.08 -42.03 0.9575 28.92 -31.02
2.135 -20.01 -17.04 6.99 -5.075 -10.05 -4.021 1.915 -13.02 1.915 -10.05 8.905 -12.06 -36 5.936 34.95 -23.08
2.14 -9 -11.01 13.98 -2.011 -5.075 1.915 7.947 -3.064 7.947 1.915 11.97 -3.064 -25.09 15.99 27.96 -17.04
2.145 4.979 -1.053 16.95 12.93 4.979 14.94 14.94 1.915 13.98 27.96 12.93 0 -12.06 25.95 11.97 -8.043
2.15 28.92 16.95 12.93 20.97 20.97 26.91 10.92 5.936 19.92 45.96 6.99 5.936 -3.064 33.99 0.9575 -6.032
2.155 47.97 32.94 3.926 25.95 33.99 31.98 5.936 7.947 25.95 49.98 -2.011 5.936 3.926 37.92 -11.01 -1.053
2.16 58.98 40.98 1.915 30.93 37.92 35.91 1.915 11.97 29.97 41.94 1.915 9.958 15.99 37.92 -6.032 8.905
2.165 57.93 40.98 1.915 34.95 35.91 37.92 3.926 19.92 33.99 33.99 0 11.97 25.95 35.91 0.9575 24.99
2.17 51.99 36.96 0 39.93 33.99 37.92 13.98 25.95 37.92 29.97 7.947 21.93 37.92 31.98 9.958 35.91
2.175 51.99 38.97 9.958 43.95 35.91 39.93 23.94 35.91 39.93 33.99 19.92 31.98 43.95 29.97 18.96 45.96
2.18 61.95 52.95 25.95 53.91 43.95 43.95 33.99 43.95 39.93 39.93 29.97 37.92 45.96 25.95 18.96 47.97
2.185 81.96 80.91 41.94 61.95 51.99 47.97 39.93 47.97 39.93 37.92 39.93 39.93 43.95 21.93 17.91 43.95
2.19 106 113 57.93 65.97 57.93 51.99 41.94 47.97 37.92 29.97 43.95 37.92 35.91 15.99 15.99 35.91
2.195 129.9 143 65.97 69.99 59.94 53.91 39.93 49.98 39.93 19.92 39.93 29.97 23.94 9.958 11.97 19.92
2.2 145.9 161 63.96 71.91 57.93 57.93 33.99 49.98 39.93 15.99 31.98 21.93 9.958 3.926 3.926 1.915
2.205 154 163 53.91 73.92 55.92 63.96 25.95 47.97 39.93 21.93 19.92 11.97 -1.053 1.915 -5.075 -11.01
2.21 156 154.9 39.93 72.96 57.93 65.97 15.99 40.98 37.92 29.97 5.936 5.936 -17.04 3.926 -17.04 -25.09
2.215 152 143 31.98 68.94 59.94 63.96 11.97 34.95 35.91 37.92 1.915 6.99 -25.09 9.958 -23.08 -31.02
2.22 145.9 134.9 31.98 67.98 59.94 57.93 13.98 33.99 35.91 39.93 7.947 11.97 -25.09 13.98 -17.04 -27
2.225 138.9 134.9 40.98 68.94 56.97 50.94 25.95 39.93 39.93 35.91 19.92 24.99 -20.01 19.92 0 -20.01
2.23 133 138.9 52.95 73.92 52.95 50.94 38.97 52.95 45.96 36.96 36.96 34.95 -14.08 27.96 12.93 -14.08
2.235 131.9 145 59.94 75.93 51.99 55.92 45.96 63.96 55.92 39.93 43.95 41.94 -11.01 33.99 23.94 -11.01
2.24 138.9 147 60.99 84.93 60.99 68.94 44.91 71.91 68.94 50.94 44.91 47.97 -8.043 41.94 30.93 -8.043
2.245 149 145 56.97 92.97 72.96 78.99 36.96 76.98 78.99 60.99 36.96 41.94 -3.064 49.98 27.96 -2.011
2.25 154 143 49.98 95.94 79.95 79.95 25.95 73.92 81.96 59.94 27.96 35.91 -2.011 53.91 19.92 -2.011
2.255 156 143 49.98 99.96 79.95 75.93 22.98 66.93 78.99 52.95 26.91 30.93 7.947 54.96 15.99 13.98
2.26 149.9 147 53.91 96.99 71.91 63.96 23.94 62.91 70.95 39.93 29.97 25.95 16.95 46.92 14.94 21.93
2.265 142 151 49.98 89.91 59.94 53.91 21.93 51.99 55.92 21.93 27.96 19.92 17.91 33.99 15.99 21.93
2.27 145 158.9 48.93 80.91 52.95 52.95 19.92 41.94 37.92 7.947 25.95 14.94 15.99 18.96 21.93 20.97
2.275 154.9 163 38.97 65.97 49.98 55.92 16.95 29.97 15.99 0.9575 20.97 13.98 14.94 0.9575 21.93 18.96
2.28 160 158.9 29.97 57.93 47.97 49.98 11.97 19.92 -1.053 -5.075 11.97 17.91 11.97 -7.085 19.92 13.98
2.285 161 154.9 24.99 47.97 47.97 40.98 9.958 9.958 -20.01 -13.02 9.958 18.96 12.93 -11.01 15.99 13.98
2.29 151 143 23.94 39.93 36.96 29.97 6.99 -2.011 -38.01 -30.07 6.99 12.93 11.97 -17.04 4.979 12.93
2.295 134 133 23.94 35.91 23.94 21.93 5.936 -5.075 -51.03 -45 3.926 0 3.926 -15.03 -1.053 9.958
2.3 124 127 29.97 38.97 17.91 24.99 6.99 -2.011 -50.08 -48.07 6.99 -5.075 -2.011 -10.05 -6.032 13.98
2.305 127 133 42.99 52.95 28.92 41.94 12.93 8.905 -36 -34.09 10.92 0 -1.053 -2.011 -3.064 11.97
2.31 138 138.9 51.99 67.98 47.97 61.95 21.93 29.97 -9 -5.075 15.99 15.99 5.936 15.99 1.915 17.91
2.315 147.9 145 57.93 85.98 72.96 79.95 36.96 58.98 23.94 30.93 25.95 50.94 21.93 37.92 18.96 28.92
2.32 147.9 143 64.92 98.91 87.99 88.95 44.91 81.96 59.94 61.95 36.96 83.97 42.99 56.97 33.99 36.96
2.325 131 133 65.97 102 91.92 88.95 50.94 99.96 89.91 75.93 42.99 104.9 50.94 64.92 33.99 35.91
2.33 111.9 116.9 68.94 96.99 83.97 78.99 46.92 102 104 71.91 42.99 102 44.91 56.97 27.96 22.98
2.335 97.95 107 67.98 87.99 72.96 67.98 42.99 98.91 107.9 56.97 39.93 84.93 23.94 43.95 8.905 2.968
2.34 91.92 104.9 63.96 83.97 65.97 63.96 39.93 89.91 93.93 37.92 35.91 59.94 3.926 31.98 0.9575 -11.01
2.345 93.93 102.9 50.94 78.99 58.98 59.94 34.95 78.99 76.98 26.91 30.93 38.97 -4.021 25.95 -3.064 -17.04
2.35 93.93 94.98 23.94 64.92 51.99 50.94 22.98 58.98 58.98 24.99 16.95 19.92 -9 26.91 -8.043 -11.01
2.355 87.99 78.99 0.9575 41.94 41.94 37.92 5.936 29.97 39.93 21.93 0.9575 1.915 -5.075 27.96 -13.02 -1.053
2.36 82.92 62.91 -21.06 21.93 32.94 27.96 -8.043 -2.011 20.97 16.95 -18 -10.05 1.915 25.95 -24.03 2.968
2.365 86.94 58.98 -30.07 1.915 23.94 18.96 -19.05 -19.05 -1.053 11.97 -29.01 -22.02 8.905 25.95 -37.06 9.958
2.37 93.93 58.98 -21.06 -1.053 21.93 17.91 -19.05 -33.03 -11.01 3.926 -29.01 -25.09 13.98 25.95 -47.01 17.91
2.375 109 72.96 -2.011 1.915 27.96 27.96 -6.032 -27 -15.03 4.979 -14.08 -17.04 26.91 34.95 -41.08 30.93
2.38 116.9 76.98 12.93 18.96 36.96 40.98 0 -5.075 -1.053 11.97 -1.053 1.915 39.93 42.99 -23.08 48.93
2.385 109.9 80.91 21.93 33.99 41.94 47.97 3.926 13.98 9.958 15.99 0 17.91 53.91 43.95 -7.085 63.96
2.39 99.96 78.99 21.93 38.97 45.96 49.98 1.915 34.95 30.93 15.99 -1.053 33.99 66.93 38.97 0.9575 71.91
2.395 91.92 80.91 19.92 33.99 43.95 47.97 -8.043 38.97 38.97 10.92 -12.06 40.98 67.98 26.91 3.926 67.98
2.4 89.91 80.91 13.98 27.96 41.94 39.93 -11.01 31.98 39.93 3.926 -13.02 39.93 63.96 15.99 3.926 55.92
2.405 94.98 82.92 16.95 22.98 38.97 32.94 -2.011 20.97 32.94 2.968 0 39.93 53.91 13.98 9.958 40.98
2.41 92.97 78.99 20.97 18.96 32.94 22.98 10.92 3.926 24.99 4.979 12.93 39.93 32.94 11.97 10.92 20.97
2.415 79.95 66.93 25.95 13.98 17.91 9.958 27.96 -3.064 11.97 -2.011 27.96 27.96 7.947 5.936 0 -3.064
2.42 56.97 52.95 32.94 5.936 1.915 -6.032 32.94 -16.09 0.9575 -10.05 28.92 4.979 -18 -5.075 -16.09 -36
2.425 32.94 42.99 34.95 -4.021 -22.02 -28.05 25.95 -31.02 -23.08 -29.01 19.92 -26.04 -52.09 -25.09 -46.06 -72
2.43 13.98 36.96 31.98 -19.05 -41.08 -45 13.98 -51.03 -49.02 -43.09 7.947 -63 -85.03 -39.07 -69.04 -99.01
2.435 5.936 30.93 25.95 -32.08 -47.01 -49.02 1.915 -66.07 -69.04 -45 0 -82.06 -103 -43.09 -67.02 -109.1
2.44 3.926 22.98 11.97 -38.01 -45 -43.09 -1.053 -74.01 -77.08 -37.06 -2.011 -83.02 -109.1 -35.04 -43.09 -103
2.445 3.926 10.92 -2.011 -41.08 -39.07 -31.02 -5.075 -71.05 -71.05 -23.08 0.9575 -65.01 -101 -23.08 -9 -89.05
2.45 1.915 0.9575 -9 -39.07 -35.04 -23.08 -9 -61.09 -57.07 -13.02 -5.075 -41.08 -85.03 -13.02 15.99 -71.05
2.455 0 -1.053 -13.02 -31.02 -33.03 -19.05 -13.02 -49.02 -45 -7.085 -15.03 -21.06 -65.01 -5.075 29.97 -47.01
2.46 0 4.979 -7.085 -15.03 -29.01 -15.03 -13.02 -33.03 -33.03 -3.064 -17.04 -7.085 -35.04 0 29.97 -15.03
2.465 5.936 18.96 0 0 -17.04 -7.085 -9 -11.01 -15.03 0.9575 -11.01 0 -2.011 15.99 25.95 25.95
2.47 19.92 34.95 9.958 19.92 0.9575 3.926 0.9575 1.915 3.926 5.936 0 13.98 45.96 39.93 25.95 75.93
2.475 35.91 48.93 12.93 29.97 17.91 19.92 1.915 15.99 33.99 19.92 11.97 27.96 91.92 59.94 31.98 120
2.48 47.97 54.96 5.936 33.99 31.98 33.99 3.926 31.98 57.93 31.98 11.97 39.93 124 73.92 35.91 143.9
2.485 51.99 52.95 1.915 27.96 37.92 37.92 0 40.98 67.98 41.94 5.936 47.97 138 73.92 39.93 147.9
2.49 49.98 48.93 -2.011 21.93 33.99 33.99 -2.011 46.92 65.97 43.95 0 51.99 136 65.97 37.92 136
2.495 41.94 44.91 1.915 21.93 31.98 27.96 5.936 51.99 59.94 39.93 3.926 57.93 127.9 53.91 39.93 125.9
2.5 33.99 48.93 26.91 32.94 29.97 25.95 21.93 64.92 59.94 29.97 17.91 66.93 122 41.94 43.95 124
2.505 28.92 54.96 49.98 44.91 31.98 28.92 33.99 80.91 67.98 15.99 35.91 72.96 118 29.97 46.92 120
2.51 25.95 58.98 65.97 53.91 33.99 33.99 39.93 91.92 83.97 7.947 41.94 71.91 111.9 19.92 39.93 109.9
2.515 24.99 56.97 67.98 54.96 33.99 38.97 39.93 99.96 89.91 7.947 40.98 64.92 98.91 10.92 30.93 90.96
2.52 22.98 46.92 57.93 52.95 33.99 40.98 38.97 93.93 83.97 19.92 32.94 54.96 78.99 6.99 22.98 64.92
2.525 15.99 36.96 41.94 45.96 33.99 37.92 37.92 87.99 71.91 31.98 31.98 49.98 59.94 11.97 29.97 43.95
2.53 12.93 26.91 32.94 40.98 31.98 30.93 46.92 84.93 59.94 39.93 38.97 57.93 44.91 26.91 50.94 30.93
2.535 11.97 22.98 27.96 35.91 27.96 23.94 56.97 81.96 49.98 37.92 52.95 69.99 36.96 36.96 79.95 24.99
2.54 7.947 22.98 27.96 27.96 19.92 13.98 59.94 75.93 39.93 25.95 61.95 81.96 31.98 35.91 99.96 19.92
2.545 7.947 24.99 27.96 18.96 7.947 1.915 56.97 65.97 28.92 9.958 59.94 84.93 29.97 27.96 102 15.99
2.55 8.905 22.98 19.92 8.905 0 0 47.97 48.93 10.92 1.915 47.97 75.93 21.93 11.97 94.98 7.947
2.555 5.936 16.95 7.947 3.926 0.9575 -3.064 35.91 31.98 -1.053 1.915 31.98 61.95 15.99 5.936 83.97 7.947
2.56 0 2.968 -4.021 2.968 -1.053 0.9575 29.97 26.91 -3.064 11.97 20.97 56.97 15.99 11.97 79.95 16.95
2.565 -2.011 -9 -23.08 1.915 4.979 1.915 20.97 26.91 0 18.96 15.99 54.96 24.99 24.99 84.93 31.98
2.57 -13.02 -19.05 -40.02 1.915 4.979 2.968 12.93 24.99 13.98 16.95 13.98 52.95 34.95 33.99 83.97 41.94
2.575 -22.02 -29.01 -43.09 -5.075 -1.053 0 0.9575 18.96 25.95 10.92 5.936 46.92 40.98 30.93 72.96 45.96
2.58 -25.09 -23.08 -38.01 -12.06 -2.011 0.9575 -1.053 10.92 23.94 1.915 -1.053 32.94 39.93 21.93 49.98 40.98
2.585 -19.05 -19.05 -31.02 -15.03 -7.085 -1.053 -11.01 -2.011 9.958 3.926 -7.085 15.99 31.98 15.99 25.95 31.98
2.59 -10.05 -11.01 -25.09 -10.05 -3.064 -1.053 -9 -6.032 -1.053 17.91 -11.01 1.915 21.93 15.99 8.905 21.93
2.595 -5.075 -9 -21.06 -6.032 0 3.926 -6.032 -7.085 -2.011 37.92 -7.085 1.915 17.91 27.96 5.936 19.92
2.6 -9 -15.03 -21.06 -3.064 7.947 3.926 -1.053 -3.064 -1.053 53.91 -3.064 0.9575 11.97 31.98 7.947 13.98
2.605 -19.05 -23.08 -23.08 -1.053 5.936 1.915 -1.053 0.9575 -1.053 51.99 0.9575 0.9575 2.968 30.93 7.947 4.979
2.61 -38.01 -31.02 -18 -8.043 -3.064 -14.08 -1.053 -4.021 -9 25.95 2.968 -5.075 -6.032 12.93 1.915 -8.043
2.615 -51.03 -37.06 -11.01 -15.03 -21.06 -31.02 -1.053 -17.04 -27 -7.085 1.915 -17.04 -25.09 -5.075 -11.01 -27
2.62 -52.09 -29.01 0.9575 -16.09 -35.04 -32.08 -6.032 -25.09 -45 -39.07 1.915 -26.04 -38.01 -22.02 -18 -38.01
2.625 -36 -13.02 1.915 -12.06 -33.03 -20.01 -9 -21.06 -51.03 -45 -2.011 -28.05 -40.02 -26.04 -12.06 -36
2.63 -11.01 0.9575 3.926 -5.075 -17.04 -1.053 -3.064 -11.01 -39.07 -29.01 -1.053 -19.05 -33.03 -17.04 0.9575 -25.09
2.635 14.94 16.95 1.915 -1.053 3.926 14.94 0 4.979 -17.04 0 3.926 -4.021 -15.03 0.9575 12.93 -9
2.64 33.99 26.91 1.915 4.979 21.93 25.95 7.947 22.98 1.915 27.96 13.98 6.99 0.9575 11.97 17.91 0
2.645 39.93 24.99 -5.075 5.936 31.98 23.94 15.99 29.97 21.93 41.94 21.93 15.99 5.936 21.93 15.99 5.936
2.65 31.98 18.96 -6.032 5.936 27.96 15.99 13.98 28.92 27.96 33.99 19.92 15.99 7.947 23.94 9.958 7.947
2.655 21.93 8.905 -8.043 1.915 17.91 5.936 9.958 20.97 27.96 15.99 13.98 9.958 9.958 17.91 3.926 7.947
2.66 9.958 0.9575 -11.01 -2.011 5.936 1.915 1.915 15.99 19.92 -2.011 5.936 5.936 7.947 7.947 3.926 5.936
2.665 0 -5.075 -15.03 -3.064 -2.011 -2.011 -2.011 13.98 11.97 -7.085 1.915 3.926 5.936 0.9575 1.915 1.915
2.67 -7.085 -17.04 -19.05 -11.01 -3.064 -3.064 0.9575 9.958 1.915 -9 1.915 1.915 1.915 -11.01 1.915 -2.011
2.675 -25.09 -33.03 -21.06 -19.05 -9 -13.02 -2.011 0 -5.075 -7.085 5.936 1.915 0.9575 -17.04 -2.011 -1.053
2.68 -45 -53.05 -21.06 -27 -17.04 -25.09 3.926 -1.053 -15.03 -7.085 7.947 0 -7.085 -21.06 -1.053 -7.085
2.685 -65.01 -69.04 -15.03 -35.04 -27 -35.04 7.947 -5.075 -25.09 -7.085 7.947 -2.011 -11.01 -19.05 0.9575 -7.085
2.69 -77.08 -79.09 -9 -43.09 -37.06 -43.09 11.97 -11.01 -33.03 -13.02 7.947 -1.053 -9 -15.03 1.915 -5.075
2.695 -79.09 -83.02 -5.075 -51.03 -47.01 -47.01 9.958 -17.04 -39.07 -19.05 7.947 -7.085 -3.064 -13.02 9.958 -2.011
2.7 -73.06 -77.08 -1.053 -53.05 -55.06 -49.02 5.936 -22.02 -47.01 -23.08 5.936 -13.02 -2.011 -11.01 11.97 5.936
2.705 -63 -65.01 -2.011 -50.08 -57.07 -47.01 3.926 -26.04 -51.03 -23.08 7.947 -17.04 3.926 -7.085 5.936 11.97
2.71 -51.03 -49.02 3.926 -45 -53.05 -43.09 3.926 -31.02 -53.05 -17.04 9.958 -19.05 11.97 -3.064 -2.011 15.99
2.715 -43.09 -33.03 7.947 -34.09 -43.09 -39.07 9.958 -35.04 -51.03 -13.02 11.97 -18 16.95 -1.053 -2.011 15.99
2.72 -39.07 -25.09 6.99 -34.09 -35.04 -37.06 13.98 -39.07 -47.01 -13.02 11.97 -18 14.94 -3.064 -2.011 12.93
2.725 -43.09 -29.01 0.9575 -43.09 -37.06 -43.09 7.947 -51.03 -45 -21.06 5.936 -23.08 3.926 -15.03 -2.011 0
2.73 -53.05 -43.09 -16.09 -61.09 -48.07 -52.09 -1.053 -67.02 -51.03 -37.06 -1.053 -28.05 -10.05 -33.03 -1.053 -12.06
2.735 -61.09 -61.09 -30.07 -83.02 -62.05 -60.04 -16.09 -87.04 -67.02 -52.09 -12.06 -34.09 -34.09 -51.03 1.915 -34.09
2.74 -63 -71.05 -31.02 -87.04 -71.05 -61.09 -25.09 -93.07 -81 -61.09 -17.04 -37.06 -53.05 -59.08 -3.064 -49.02
2.745 -53.05 -61.09 -10.05 -74.01 -66.07 -52.09 -18 -87.04 -87.04 -56.01 -10.05 -29.01 -53.05 -53.05 -3.064 -54
2.75 -39.07 -45 11.97 -51.03 -50.08 -36 -2.011 -68.08 -79.09 -44.04 1.915 -23.08 -47.01 -41.08 -1.053 -47.01
2.755 -29.01 -31.02 25.95 -31.02 -33.03 -27 3.926 -53.05 -59.08 -33.03 7.947 -17.04 -39.07 -27 -2.011 -39.07
2.76 -28.05 -23.08 23.94 -19.05 -19.05 -21.06 10.92 -41.08 -37.06 -22.02 10.92 -14.08 -32.08 -21.06 2.968 -33.03
2.765 -36 -29.01 6.99 -25.09 -15.03 -23.08 4.979 -37.06 -23.08 -14.08 9.958 -14.08 -32.08 -21.06 -1.053 -30.07
2.77 -43.09 -41.08 -9 -33.03 -17.04 -27 0.9575 -43.09 -21.06 -11.01 1.915 -13.02 -39.07 -25.09 -5.075 -35.04
2.775 -42.03 -43.09 -21.06 -34.09 -18 -26.04 0.9575 -44.04 -23.08 -5.075 1.915 -10.05 -38.01 -25.09 -12.06 -39.07
2.78 -38.01 -41.08 -16.09 -26.04 -19.05 -21.06 -3.064 -35.04 -25.09 -9 2.968 -7.085 -36 -23.08 -17.04 -40.02
2.785 -35.04 -37.06 -5.075 -19.05 -21.06 -23.08 -3.064 -29.01 -21.06 -15.03 3.926 -13.02 -31.02 -21.06 -17.04 -35.04
2.79 -33.03 -37.06 -1.053 -21.06 -25.09 -23.08 -1.053 -27 -14.08 -21.06 0 -20.01 -29.01 -19.05 -12.06 -28.05
2.795 -43.09 -41.08 -1.053 -28.05 -30.07 -27 -2.011 -33.03 -8.043 -28.05 -2.011 -26.04 -24.03 -19.05 -6.032 -20.01
2.8 -51.03 -51.03 -3.064 -41.08 -33.03 -33.03 0.9575 -37.06 -9 -27 -7.085 -23.08 -21.06 -19.05 -2.011 -15.03
2.805 -50.08 -53.05 -8.043 -45 -32.08 -37.06 3.926 -33.03 -10.05 -21.06 -1.053 -8.043 -13.02 -17.04 4.979 -12.06
2.81 -45 -49.02 -12.06 -45 -26.04 -33.03 6.99 -26.04 -14.08 -16.09 0.9575 0 -4.021 -14.08 8.905 -13.02
2.815 -35.04 -49.02 -8.043 -34.09 -18 -24.03 4.979 -16.09 -10.05 -16.09 0.9575 5.936 1.915 -12.06 6.99 -10.05
2.82 -27 -43.09 0 -23.08 -14.08 -15.03 -2.011 -4.021 -2.011 -12.06 1.915 1.915 2.968 -6.032 -1.053 -9
2.825 -22.02 -41.08 2.968 -13.02 -8.043 -9 -13.02 0 2.968 -7.085 -11.01 -2.011 0 -3.064 -8.043 -6.032
2.83 -19.05 -35.04 5.936 -9 -3.064 -1.053 -17.04 1.915 9.958 -1.053 -19.05 -9 0.9575 0 -21.06 -5.075
2.835 -19.05 -27 4.979 -4.021 0.9575 1.915 -10.05 3.926 14.94 4.979 -14.08 0 -2.011 7.947 -26.04 -4.021
2.84 -13.02 -23.08 0.9575 -5.075 9.958 -2.011 1.915 11.97 16.95 15.99 0.9575 6.99 -1.053 15.99 -22.02 0
2.845 -15.03 -25.09 -1.053 -3.064 9.958 3.926 9.958 15.99 19.92 19.92 9.958 21.93 -1.053 21.93 -13.02 -2.011
2.85 -16.09 -31.02 0 -2.011 13.98 11.97 15.99 21.93 27.96 25.95 22.98 33.99 1.915 23.94 -1.053 -1.053
2.855 -18 -35.04 0 -2.011 12.93 16.95 23.94 24.99 35.91 31.98 27.96 34.95 1.915 19.92 0.9575 0
2.86 -19.05 -37.06 9.958 -2.011 9.958 17.91 23.94 25.95 41.94 31.98 25.95 33.99 0.9575 17.91 3.926 -1.053
2.865 -18 -29.01 14.94 0 7.947 9.958 24.99 27.96 41.94 32.94 23.94 28.92 1.915 11.97 4.979 -6.032
2.87 -18 -21.06 5.936 3.926 3.926 0.9575 18.96 17.91 29.97 24.99 16.95 18.96 0 5.936 2.968 -15.03
2.875 -25.09 -21.06 -3.064 -3.064 -9 -17.04 3.926 3.926 11.97 11.97 5.936 3.926 -7.085 0 0 -19.05
2.88 -35.04 -25.09 -17.04 -13.02 -24.03 -28.05 -4.021 -4.021 -3.064 4.979 -1.053 -7.085 -11.01 0.9575 0 -19.05
2.885 -45 -31.02 -18 -26.04 -36 -34.09 -10.05 -17.04 -17.04 -1.053 -4.021 -15.03 -15.03 -1.053 5.936 -14.08
2.89 -49.02 -37.06 -9 -31.02 -41.08 -33.03 -5.075 -23.08 -23.08 -1.053 -5.075 -19.05 -15.03 -3.064 7.947 -5.075
2.895 -47.01 -35.04 -1.053 -27 -36 -28.05 0.9575 -25.09 -23.08 -6.032 -2.011 -14.08 -6.032 -5.075 8.905 0
2.9 -43.09 -29.01 8.905 -19.05 -30.07 -28.05 7.947 -23.08 -23.08 -15.03 0.9575 -10.05 0 -9 2.968 0.9575
2.905 -39.07 -29.01 5.936 -15.03 -27 -29.01 5.936 -29.01 -27 -23.08 -2.011 -13.02 0.9575 -17.04 -3.064 0.9575
2.91 -37.06 -29.01 0.9575 -14.08 -27 -29.01 0.9575 -37.06 -35.04 -27 -2.011 -24.03 0 -25.09 -14.08 -2.011
2.915 -37.06 -33.03 -1.053 -18 -33.03 -31.02 -7.085 -45 -41.08 -27 -1.053 -36 -4.021 -31.02 -22.02 -7.085
2.92 -35.04 -35.04 -5.075 -21.06 -39.07 -35.04 -11.01 -49.02 -43.09 -27 -1.053 -43.09 -9 -33.03 -23.08 -11.01
2.925 -35.04 -37.06 -5.075 -20.01 -41.08 -39.07 -5.075 -44.04 -45 -27 -1.053 -41.08 -11.01 -31.02 -19.05 -15.03
2.93 -37.06 -39.07 -5.075 -21.06 -41.08 -45 -2.011 -38.01 -43.09 -25.09 -1.053 -31.02 -11.01 -27 -13.02 -15.03
2.935 -41.08 -41.08 -3.064 -17.04 -33.03 -41.08 3.926 -31.02 -43.09 -15.03 0.9575 -21.06 -9 -19.05 -5.075 -13.02
2.94 -39.07 -35.04 0.9575 -9 -19.05 -25.09 7.947 -25.09 -35.04 0 0 -11.01 -7.085 -7.085 -2.011 -11.01
2.945 -23.08 -21.06 5.936 3.926 -2.011 -2.011 11.97 -13.02 -21.06 27.96 5.936 -1.053 -5.075 7.947 7.947 -5.075
2.95 -2.011 0.9575 17.91 25.95 21.93 27.96 17.91 0.9575 0.9575 53.91 15.99 3.926 -1.053 29.97 15.99 0.9575
2.955 21.93 14.94 23.94 43.95 39.93 43.95 19.92 5.936 19.92 63.96 23.94 11.97 0 45.96 19.92 0
2.96 31.98 18.96 21.93 47.97 43.95 39.93 17.91 14.94 35.91 55.92 23.94 15.99 1.915 47.97 13.98 -2.011
2.965 21.93 6.99 9.958 37.92 35.91 23.94 11.97 10.92 35.91 33.99 17.91 7.947 0.9575 33.99 -2.011 -3.064
2.97 1.915 -9 0 19.92 19.92 5.936 7.947 -1.053 21.93 13.98 11.97 0.9575 -7.085 9.958 -11.01 -11.01
2.975 -13.02 -25.09 -1.053 1.915 7.947 0 7.947 -12.06 7.947 1.915 9.958 -7.085 -17.04 -5.075 -18 -19.05
2.98 -17.04 -27 6.99 3.926 3.926 6.99 11.97 -14.08 1.915 0.9575 13.98 -9 -25.09 -17.04 -8.043 -19.05
2.985 -9 -17.04 13.98 15.99 9.958 15.99 19.92 -1.053 5.936 1.915 19.92 -2.011 -23.08 -19.05 1.915 -15.03
2.99 -1.053 -9 18.96 25.95 11.97 18.96 21.93 11.97 15.99 0.9575 23.94 14.94 -14.08 -15.03 22.98 -5.075
2.995 -3.064 -11.01 16.95 29.97 11.97 12.93 21.93 23.94 27.96 0 21.93 26.91 0 -13.02 32.94 0
3 -17.04 -23.08 11.97 25.95 3.926 1.915 15.99 33.99 35.91 -3.064 21.93 31.98 5.936 -13.02 33.99 11.97
3.005 -33.03 -37.06 12.93 15.99 0.9575 1.915 17.91 36.96 36.96 -2.011 20.97 28.92 18.96 -9 33.99 22.98
3.01 -43.09 -41.08 21.93 9.958 -1.053 -1.053 23.94 30.93 32.94 1.915 26.91 26.91 26.91 -4.021 31.98 30.93
3.015 -41.08 -35.04 31.98 9.958 -1.053 0.9575 33.99 23.94 25.95 5.936 33.99 23.94 33.99 -2.011 27.96 33.99
3.02 -33.03 -23.08 39.93 13.98 -1.053 -2.011 37.92 20.97 18.96 3.926 36.96 25.95 39.93 -1.053 22.98 32.94
3.025 -25.09 -13.02 36.96 13.98 -2.011 1.915 33.99 19.92 8.905 -2.011 30.93 17.91 33.99 0 4.979 24.99
3.03 -21.06 -15.03 21.93 7.947 -7.085 -3.064 23.94 9.958 -2.011 -15.03 17.91 7.947 17.91 -13.02 -17.04 5.936
3.035 -23.08 -15.03 11.97 -2.011 -6.032 -3.064 12.93 2.968 0.9575 -21.06 5.936 -4.021 1.915 -18 -44.04 -9
3.04 -25.09 -19.05 11.97 -1.053 0 0.9575 4.979 1.915 -1.053 -12.06 -1.053 -19.05 -19.05 -17.04 -65.01 -28.05
3.045 -21.06 -23.08 15.99 0.9575 5.936 13.98 1.915 -1.053 7.947 3.926 -3.064 -31.02 -37.06 -11.01 -65.01 -43.09
3.05 -12.06 -21.06 20.97 4.979 23.94 28.92 3.926 1.915 26.91 29.97 0 -30.07 -43.09 -1.053 -54 -46.06
3.055 -4.021 -15.03 22.98 14.94 36.96 41.94 2.968 0 40.98 52.95 0 -23.08 -35.04 14.94 -29.01 -36
3.06 -1.053 -9 19.92 24.99 45.96 46.92 5.936 15.99 54.96 62.91 5.936 -10.05 -19.05 23.94 -6.032 -16.09
3.065 0.9575 -3.064 12.93 30.93 44.91 47.97 8.905 23.94 64.92 58.98 13.98 1.915 -1.053 36.96 13.98 0.9575
3.07 -1.053 -7.085 8.905 30.93 37.92 38.97 11.97 28.92 70.95 41.94 16.95 10.92 9.958 44.91 28.92 22.98
3.075 -7.085 -17.04 7.947 19.92 21.93 23.94 9.958 21.93 63.96 19.92 15.99 13.98 21.93 43.95 33.99 33.99
3.08 -21.06 -29.01 9.958 5.936 2.968 6.99 8.905 12.93 46.92 -1.053 11.97 11.97 23.94 37.92 29.97 32.94
3.085 -35.04 -47.01 1.915 -7.085 -12.06 -5.075 2.968 -1.053 21.93 -9 1.915 0.9575 18.96 22.98 16.95 23.94
3.09 -45 -55.06 -3.064 -21.06 -25.09 -19.05 -3.064 -11.01 -5.075 -13.02 -7.085 -9 5.936 3.926 0 5.936
3.095 -49.02 -47.01 -12.06 -27 -26.04 -20.01 -9 -13.02 -28.05 -2.011 -14.08 -21.06 0 0 -6.032 -1.053
3.1 -45 -37.06 -17.04 -23.08 -17.04 -19.05 -13.02 -14.08 -36 3.926 -14.08 -25.09 0.9575 -4.021 -14.08 0
3.105 -37.06 -29.01 -15.03 -19.05 -11.01 -15.03 -17.04 -13.02 -37.06 1.915 -13.02 -29.01 0.9575 -7.085 -15.03 0.9575
3.11 -29.01 -25.09 -9 -17.04 -9 -11.01 -19.05 -16.09 -34.09 -5.075 -10.05 -30.07 1.915 -10.05 -15.03 -1.053
3.115 -25.09 -29.01 -8.043 -23.08 -15.03 -14.08 -21.06 -24.03 -36 -32.08 -12.06 -34.09 0 -23.08 -17.04 1.915
3.12 -21.06 -31.02 -7.085 -27 -25.09 -17.04 -21.06 -29.01 -45 -55.06 -15.03 -37.06 -5.075 -37.06 -21.06 -3.064
3.125 -17.04 -31.02 -8.043 -31.02 -27 -14.08 -17.04 -31.02 -51.03 -56.01 -19.05 -36 -12.06 -45 -22.02 -9
3.13 -13.02 -25.09 -4.021 -29.01 -25.09 -8.043 -9 -25.09 -53.05 -36 -17.04 -30.07 -14.08 -41.08 -20.01 -9
3.135 -11.01 -21.06 -5.075 -27 -15.03 -5.075 -5.075 -21.06 -43.09 -7.085 -15.03 -21.06 -13.02 -29.01 -13.02 -5.075
3.14 -15.03 -21.06 -6.032 -23.08 -11.01 -4.021 -5.075 -14.08 -29.01 10.92 -11.01 -13.02 -5.075 -17.04 -6.032 -2.011
3.145 -23.08 -27 -12.06 -23.08 -13.02 -11.01 -9 -16.09 -17.04 9.958 -11.01 -13.02 0.9575 -13.02 -6.032 0
3.15 -35.04 -37.06 -21.06 -25.09 -25.09 -19.05 -17.04 -25.09 -11.01 -3.064 -15.03 -25.09 -1.053 -17.04 -13.02 -2.011
3.155 -43.09 -47.01 -27 -27 -35.04 -27 -25.09 -32.08 -11.01 -25.09 -21.06 -43.09 -11.01 -23.08 -19.05 -5.075
3.16 -45 -53.05 -25.09 -23.08 -37.06 -27 -23.08 -32.08 -13.02 -33.03 -23.08 -49.02 -17.04 -21.06 -25.09 -11.01
3.165 -45 -51.03 -15.03 -17.04 -27 -21.06 -15.03 -25.09 -11.01 -23.08 -17.04 -47.01 -19.05 -11.01 -27 -11.01
3.17 -39.07 -43.09 -1.053 -9 -13.02 -11.01 -3.064 -11.01 -3.064 -1.053 -1.053 -31.02 -13.02 1.915 -19.05 -1.053
3.175 -31.02 -31.02 7.947 0.9575 -1.053 -5.075 5.936 -2.011 1.915 11.97 11.97 -7.085 0.9575 19.92 -7.085 9.958
3.18 -25.09 -19.05 13.98 3.926 0 -1.053 17.91 15.99 11.97 15.99 25.95 13.98 13.98 29.97 3.926 21.93
3.185 -17.04 -7.085 13.98 9.958 1.915 -1.053 23.94 29.97 19.92 9.958 31.98 33.99 29.97 29.97 19.92 29.97
3.19 -9 -1.053 9.958 13.98 0 -1.053 27.96 38.97 21.93 1.915 29.97 49.98 37.92 23.94 33.99 29.97
3.195 -3.064 2.968 7.947 18.96 0 0.9575 29.97 44.91 19.92 0 25.95 59.94 39.93 17.91 44.91 25.95
3.2 -1.053 4.979 11.97 21.93 3.926 0 31.98 41.94 17.91 1.915 25.95 63.96 33.99 13.98 51.99 19.92
3.205 -5.075 2.968 13.98 18.96 3.926 0 29.97 37.92 11.97 3.926 23.94 62.91 24.99 9.958 52.95 16.95
3.21 -17.04 -1.053 12.93 10.92 -2.011 0 23.94 17.91 5.936 -2.011 19.92 48.93 12.93 1.915 42.99 12.93
3.215 -31.02 -13.02 0.9575 -3.064 -9 -15.03 9.958 -2.011 0.9575 -13.02 9.958 27.96 3.926 -5.075 23.94 9.958
3.22 -43.09 -29.01 -16.09 -21.06 -20.01 -28.05 -2.011 -9 -9 -28.05 -2.011 7.947 2.968 -19.05 5.936 8.905
3.225 -49.02 -41.08 -34.09 -35.04 -30.07 -36 -18 -17.04 -19.05 -38.01 -16.09 -1.053 9.958 -28.05 -11.01 11.97
3.23 -45 -47.01 -41.08 -45 -29.01 -31.02 -27 -17.04 -19.05 -33.03 -27 -9 17.91 -29.01 -29.01 17.91
3.235 -33.03 -39.07 -36 -37.06 -18 -18 -24.03 -11.01 -9 -12.06 -26.04 -8.043 29.97 -18 -38.01 33.99
3.24 -17.04 -27 -21.06 -27 0.9575 0.9575 -18 1.915 5.936 6.99 -18 -4.021 44.91 -2.011 -40.02 50.94
3.245 -5.075 -19.05 -11.01 -11.01 7.947 7.947 -9 3.926 29.97 23.94 -9 -3.064 53.91 5.936 -35.04 59.94
3.25 -2.011 -11.01 -5.075 0.9575 15.99 17.91 -1.053 7.947 46.92 35.91 -3.064 0.9575 61.95 14.94 -24.03 65.97
3.255 -2.011 -9 -2.011 -1.053 13.98 18.96 -2.011 7.947 48.93 31.98 0.9575 1.915 57.93 16.95 -16.09 55.92
3.26 0.9575 -15.03 -1.053 0.9575 7.947 11.97 1.915 7.947 39.93 25.95 -2.011 1.915 45.96 11.97 -5.075 35.91
3.265 -4.021 -15.03 0 -1.053 -1.053 5.936 10.92 8.905 26.91 22.98 4.979 10.92 29.97 7.947 1.915 15.99
3.27 -12.06 -19.05 1.915 -6.032 -3.064 -1.053 17.91 11.97 14.94 21.93 9.958 15.99 10.92 7.947 12.93 -1.053
3.275 -19.05 -21.06 1.915 -5.075 -1.053 0 21.93 11.97 9.958 23.94 17.91 19.92 -1.053 9.958 23.94 -5.075
3.28 -18 -17.04 0.9575 2.968 3.926 8.905 27.96 17.91 15.99 31.98 23.94 26.91 -6.032 15.99 33.99 -2.011
3.285 -10.05 -9 1.915 15.99 19.92 18.96 27.96 21.93 27.96 38.97 27.96 31.98 -3.064 22.98 36.96 0
3.29 -1.053 -5.075 -9 25.95 31.98 27.96 23.94 27.96 39.93 49.98 27.96 41.94 3.926 31.98 37.92 15.99
3.295 4.979 2.968 -11.01 31.98 40.98 30.93 19.92 33.99 49.98 52.95 24.99 51.99 23.94 45.96 39.93 30.93
3.3 3.926 2.968 -17.04 25.95 37.92 25.95 17.91 31.98 51.99 53.91 17.91 57.93 41.94 51.99 42.99 44.91
3.305 -1.053 -3.064 -15.03 17.91 26.91 15.99 14.94 28.92 49.98 43.95 10.92 60.99 54.96 57.93 43.95 56.97
3.31 -11.01 -9 -15.03 5.936 17.91 7.947 15.99 21.93 39.93 35.91 7.947 53.91 63.96 55.92 44.91 64.92
3.315 -16.09 -13.02 -5.075 5.936 10.92 6.99 15.99 17.91 31.98 24.99 6.99 45.96 69.99 51.99 43.95 76.98
3.32 -13.02 -11.01 -1.053 7.947 9.958 9.958 13.98 13.98 25.95 23.94 7.947 33.99 75.93 39.93 39.93 85.98
3.325 -8.043 -5.075 1.915 13.98 11.97 14.94 11.97 15.99 29.97 26.91 5.936 25.95 79.95 30.93 34.95 89.91
3.33 -2.011 -3.064 -6.032 10.92 13.98 12.93 1.915 17.91 31.98 33.99 -2.011 22.98 84.93 21.93 29.97 86.94
3.335 -7.085 -13.02 -21.06 0 7.947 3.926 -3.064 13.98 27.96 27.96 -3.064 21.93 79.95 7.947 21.93 79.95
3.34 -20.01 -23.08 -33.03 -12.06 -2.011 -4.021 -9 9.958 22.98 17.91 -9 19.92 70.95 -2.011 14.94 66.93
3.345 -34.09 -37.06 -33.03 -25.09 -10.05 -15.03 -14.08 -1.053 10.92 1.915 -10.05 12.93 53.91 -11.01 11.97 51.99
3.35 -45 -45 -27 -35.04 -21.06 -27 -13.02 -11.01 -3.064 -17.04 -9 0 35.91 -23.08 0 33.99
3.355 -45 -41.08 -14.08 -34.09 -27 -30.07 -11.01 -19.05 -14.08 -29.01 -9 -6.032 21.93 -28.05 -2.011 15.99
3.36 -41.08 -35.04 -11.01 -27 -29.01 -31.02 -7.085 -23.08 -24.03 -27 -11.01 -15.03 11.97 -28.05 -12.06 1.915
3.365 -37.06 -29.01 -13.02 -23.08 -25.09 -29.01 -11.01 -19.05 -25.09 -21.06 -15.03 -17.04 1.915 -29.01 -21.06 -9
3.37 -33.03 -25.09 -17.04 -19.05 -19.05 -23.08 -14.08 -12.06 -25.09 -10.05 -18 -10.05 -2.011 -18 -20.01 -18
3.375 -33.03 -25.09 -22.02 -19.05 -16.09 -18 -18 -11.01 -19.05 0 -20.01 -6.032 -11.01 -10.05 -12.06 -23.08
3.38 -33.03 -29.01 -19.05 -23.08 -15.03 -15.03 -21.06 -13.02 -11.01 -2.011 -19.05 -3.064 -21.06 -1.053 -5.075 -21.06
3.385 -35.04 -33.03 -10.05 -25.09 -18 -10.05 -18 -17.04 -7.085 1.915 -12.06 -3.064 -21.06 2.968 0.9575 -17.04
3.39 -39.07 -39.07 -10.05 -27 -22.02 -10.05 -18 -21.06 -5.075 -6.032 -14.08 -9 -22.02 3.926 -1.053 -12.06
3.395 -43.09 -45 -15.03 -29.01 -25.09 -15.03 -21.06 -27 -5.075 -13.02 -17.04 -13.02 -11.01 5.936 -7.085 -7.085
3.4 -45 -47.01 -28.05 -26.04 -23.08 -18 -25.09 -25.09 -5.075 -13.02 -23.08 -14.08 -1.053 5.936 -14.08 -1.053
3.405 -43.09 -43.09 -41.08 -20.01 -17.04 -21.06 -31.02 -23.08 -5.075 -5.075 -27 -10.05 12.93 7.947 -18 6.99
3.41 -35.04 -33.03 -43.09 -17.04 -9 -19.05 -33.03 -25.09 -5.075 3.926 -27 -7.085 19.92 9.958 -25.09 13.98
3.415 -25.09 -21.06 -29.01 -8.043 -5.075 -15.03 -29.01 -24.03 -1.053 13.98 -23.08 -5.075 17.91 7.947 -26.04 17.91
3.42 -17.04 -9 -7.085 -3.064 -3.064 -9 -19.05 -18 -2.011 17.91 -15.03 -5.075 11.97 3.926 -27 15.99
3.425 -11.01 -1.053 9.958 1.915 -3.064 -3.064 -7.085 -9 5.936 15.99 -3.064 -5.075 5.936 0 -27 13.98
3.43 -7.085 4.979 23.94 9.958 -1.053 0.9575 0.9575 -2.011 9.958 9.958 0 -5.075 7.947 -2.011 -23.08 11.97
3.435 -9 8.905 23.94 17.91 -2.011 -2.011 -2.011 3.926 9.958 5.936 3.926 -3.064 9.958 -1.053 -17.04 9.958
3.44 -13.02 6.99 15.99 19.92 -2.011 0.9575 -5.075 0 3.926 1.915 0 -5.075 7.947 -5.075 -15.03 5.936
3.445 -17.04 2.968 1.915 17.91 -1.053 -3.064 -17.04 -5.075 -5.075 -2.011 -5.075 -11.01 0.9575 -13.02 -15.03 0.9575
3.45 -21.06 0.9575 0.9575 9.958 -7.085 -9 -25.09 -20.01 -21.06 -3.064 -17.04 -19.05 -19.05 -27 -17.04 -15.03
3.455 -19.05 -3.064 -2.011 1.915 -13.02 -11.01 -21.06 -34.09 -33.03 -9 -19.05 -25.09 -41.08 -39.07 -19.05 -31.02
3.46 -11.01 -1.053 9.958 3.926 -15.03 -11.01 -11.01 -33.03 -39.07 -13.02 -13.02 -21.06 -53.05 -43.09 -11.01 -41.08
3.465 0.9575 0.9575 23.94 9.958 -13.02 -9 -2.011 -22.02 -35.04 -13.02 -1.053 -11.01 -51.03 -39.07 0 -44.04
3.47 3.926 6.99 25.95 15.99 -9 -7.085 5.936 -11.01 -23.08 -5.075 3.926 0 -39.07 -29.01 4.979 -40.02
3.475 5.936 8.905 19.92 17.91 -7.085 -7.085 3.926 -5.075 -11.01 0 5.936 11.97 -27 -21.06 3.926 -37.06
3.48 1.915 4.979 7.947 16.95 -5.075 -7.085 -1.053 -1.053 -1.053 9.958 0 17.91 -25.09 -15.03 -1.053 -36
3.485 0 -1.053 1.915 12.93 -5.075 -5.075 -9 -1.053 -2.011 17.91 -5.075 17.91 -33.03 -14.08 -6.032 -40.02
3.49 -3.064 -3.064 7.947 9.958 0 -2.011 -7.085 1.915 1.915 25.95 -7.085 13.98 -41.08 -17.04 -15.03 -41.08
3.495 1.915 -5.075 19.92 12.93 9.958 10.92 0 9.958 5.936 32.94 0.9575 16.95 -39.07 -4.021 -11.01 -33.03
3.5 4.979 -1.053 29.97 14.94 19.92 18.96 13.98 16.95 13.98 38.97 5.936 20.97 -29.01 4.979 -1.053 -17.04
3.505 7.947 -3.064 27.96 9.958 21.93 17.91 21.93 17.91 21.93 39.93 13.98 25.95 -5.075 23.94 5.936 3.926
3.51 6.99 -7.085 14.94 0.9575 15.99 12.93 19.92 15.99 24.99 40.98 11.97 28.92 15.99 38.97 6.99 24.99
3.515 0 -15.03 -1.053 -9 5.936 0.9575 7.947 9.958 20.97 38.97 2.968 20.97 37.92 45.96 1.915 40.98
3.52 -5.075 -25.09 -5.075 -23.08 -2.011 -1.053 0.9575 -2.011 11.97 33.99 -3.064 7.947 47.97 41.94 -7.085 43.95
3.525 -15.03 -29.01 -2.011 -24.03 -3.064 -3.064 -7.085 0.9575 2.968 35.91 -8.043 -3.064 50.94 35.91 -11.01 40.98
3.53 -20.01 -31.02 1.915 -22.02 -5.075 -3.064 -7.085 -6.032 -2.011 27.96 -8.043 -16.09 34.95 28.92 -18 28.92
3.535 -27 -31.02 5.936 -19.05 -9 -7.085 -1.053 -15.03 -9 17.91 -5.075 -25.09 11.97 21.93 -19.05 11.97
3.54 -29.01 -23.08 12.93 -10.05 -14.08 -9 0 -16.09 -12.06 2.968 -2.011 -26.04 -5.075 5.936 -18 0.9575
3.545 -26.04 -15.03 14.94 -2.011 -19.05 -13.02 7.947 -10.05 -19.05 -8.043 3.926 -20.01 -21.06 -10.05 -19.05 -21.06
3.55 -15.03 -9 15.99 0 -19.05 -13.02 7.947 -1.053 -20.01 -20.01 8.905 -12.06 -35.04 -33.03 -18 -37.06
3.555 -4.021 -1.053 20.97 10.92 -15.03 -11.01 7.947 0.9575 -23.08 -28.05 13.98 -2.011 -41.08 -54 -13.02 -55.06
3.56 -2.011 4.979 28.92 18.96 -6.032 -3.064 9.958 8.905 -24.03 -30.07 17.91 0.9575 -45 -67.02 -2.011 -61.09
3.565 0 8.905 31.98 21.93 -3.064 0.9575 15.99 9.958 -21.06 -29.01 19.92 0 -55.06 -65.01 3.926 -69.04
3.57 1.915 8.905 31.98 20.97 -1.053 1.915 23.94 6.99 -16.09 -25.09 20.97 0.9575 -58.02 -58.02 10.92 -68.08
3.575 -5.075 4.979 22.98 14.94 -1.053 0 29.97 0 -12.06 -15.03 18.96 -2.011 -60.04 -45 11.97 -64.06
3.58 -5.075 4.979 11.97 9.958 0.9575 -2.011 27.96 0.9575 -7.085 -3.064 13.98 0.9575 -55.06 -33.03 9.958 -57.07
3.585 -1.053 2.968 2.968 9.958 1.915 0.9575 21.93 1.915 0 10.92 12.93 1.915 -43.09 -17.04 7.947 -44.04
3.59 1.915 -1.053 0 8.905 9.958 4.979 9.958 1.915 4.979 26.91 11.97 2.968 -27 -2.011 8.905 -28.05
3.595 -3.064 -1.053 -1.053 5.936 13.98 5.936 1.915 5.936 13.98 31.98 11.97 7.947 -7.085 7.947 11.97 -9
3.6 -8.043 -5.075 0.9575 4.979 15.99 4.979 0 6.99 19.92 28.92 9.958 16.95 3.926 20.97 15.99 5.936
3.605 -16.09 -13.02 -2.011 -1.053 7.947 6.99 0 5.936 21.93 20.97 5.936 18.96 19.92 26.91 13.98 27.96
3.61 -17.04 -15.03 -2.011 -3.064 1.915 5.936 -2.011 1.915 17.91 15.99 0.9575 15.99 31.98 27.96 0.9575 35.91
3.615 -8.043 -13.02 0.9575 -4.021 0 7.947 0.9575 0.9575 9.958 21.93 -7.085 5.936 37.92 32.94 -18 42.99
3.62 -2.011 -7.085 0.9575 1.915 7.947 15.99 -7.085 -2.011 5.936 39.93 -15.03 0.9575 41.94 41.94 -36 40.98
3.625 9.958 -3.064 -2.011 0 21.93 25.95 -13.02 -2.011 9.958 59.94 -15.03 -7.085 39.93 51.99 -45 37.92
3.63 15.99 0.9575 -2.011 1.915 31.98 31.98 -15.03 1.915 19.92 71.91 -13.02 -11.01 35.91 59.94 -40.02 30.93
3.635 11.97 -1.053 0.9575 -1.053 31.98 25.95 -17.04 1.915 27.96 67.98 -13.02 -15.03 23.94 53.91 -30.07 18.96
3.64 1.915 -11.01 -9 -15.03 17.91 7.947 -19.05 -3.064 23.94 41.94 -15.03 -19.05 7.947 31.98 -21.06 -2.011
3.645 -9 -25.09 -25.09 -33.03 0.9575 -7.085 -23.08 -8.043 3.926 1.915 -21.06 -31.02 -13.02 -2.011 -15.03 -23.08
3.65 -25.09 -41.08 -37.06 -51.03 -21.06 -23.08 -27 -20.01 -21.06 -31.02 -27 -43.09 -39.07 -33.03 -11.01 -49.02
3.655 -35.04 -51.03 -41.08 -57.07 -31.02 -29.01 -25.09 -31.02 -51.03 -55.06 -25.09 -51.03 -61.09 -59.08 -7.085 -67.02
3.66 -37.06 -51.03 -29.01 -49.02 -29.01 -23.08 -15.03 -33.03 -67.02 -55.06 -15.03 -45 -69.04 -65.01 0.9575 -65.01
3.665 -31.02 -41.08 -7.085 -33.03 -19.05 -11.01 0.9575 -19.05 -61.09 -37.06 -2.011 -23.08 -59.08 -53.05 9.958 -49.02
3.67 -21.06 -25.09 7.947 -17.04 -9 -3.064 9.958 -1.053 -39.07 -13.02 9.958 -2.011 -35.04 -33.03 21.93 -23.08
3.675 -15.03 -17.04 13.98 -7.085 -7.085 -5.075 15.99 11.97 -13.02 -2.011 13.98 19.92 -9 -11.01 25.95 -3.064
3.68 -13.02 -15.03 7.947 -5.075 -11.01 -13.02 11.97 18.96 0 1.915 5.936 25.95 3.926 0.9575 21.93 3.926
3.685 -19.05 -23.08 -3.064 -8.043 -19.05 -19.05 3.926 14.94 5.936 1.915 -1.053 19.92 9.958 3.926 11.97 5.936
3.69 -25.09 -29.01 -13.02 -15.03 -21.06 -19.05 -2.011 3.926 1.915 3.926 -7.085 5.936 9.958 7.947 0 9.958
3.695 -27 -29.01 -8.043 -14.08 -17.04 -13.02 -2.011 1.915 0 13.98 -3.064 0.9575 11.97 13.98 0 15.99
3.7 -25.09 -23.08 2.968 -12.06 -11.01 -5.075 0 0 1.915 23.94 1.915 0 15.99 17.91 0 23.94
3.705 -19.05 -15.03 15.99 -7.085 -7.085 -1.053 5.936 9.958 9.958 29.97 13.98 -2.011 21.93 21.93 0.9575 31.98
3.71 -13.02 -9 24.99 -3.064 -6.032 -2.011 8.905 18.96 17.91 27.96 18.96 0.9575 26.91 21.93 0 28.92
3.715 -9 -9 14.94 -5.075 -8.043 -4.021 8.905 17.91 17.91 21.93 16.95 0.9575 24.99 21.93 -6.032 18.96
3.72 -7.085 -15.03 -2.011 -9 -11.01 -11.01 5.936 5.936 13.98 21.93 3.926 -1.053 15.99 21.93 -15.03 13.98
3.725 -11.01 -19.05 -9 -14.08 -12.06 -8.043 -1.053 0.9575 8.905 33.99 1.915 -7.085 10.92 23.94 -23.08 12.93
3.73 -17.04 -23.08 -19.05 -15.03 -12.06 -8.043 -4.021 -12.06 4.979 53.91 -8.043 -17.04 8.905 25.95 -25.09 16.95
3.735 -25.09 -29.01 -19.05 -23.08 -15.03 -11.01 -13.02 -15.03 0 69.99 -13.02 -25.09 9.958 23.94 -19.05 19.92
3.74 -35.04 -27 -10.05 -26.04 -15.03 -17.04 -15.03 -12.06 1.915 67.98 -11.01 -24.03 11.97 17.91 -6.032 17.91
3.745 -41.08 -29.01 0 -29.01 -23.08 -27 -11.01 -6.032 -6.032 53.91 -5.075 -18 9.958 5.936 3.926 5.936
3.75 -47.01 -31.02 0 -31.02 -33.03 -39.07 -2.011 -7.085 -21.06 27.96 3.926 -7.085 -2.011 -5.075 13.98 -9
3.755 -47.01 -31.02 6.99 -28.05 -38.01 -44.04 12.93 -11.01 -33.03 3.926 16.95 0 -14.08 -20.01 23.94 -23.08
3.76 -46.06 -33.03 5.936 -22.02 -38.01 -44.04 18.96 -14.08 -41.08 -7.085 21.93 4.979 -28.05 -34.09 20.97 -34.09
3.765 -45 -29.01 0 -19.05 -37.06 -41.08 13.98 -15.03 -43.09 -9 13.98 1.915 -43.09 -45 9.958 -39.07
3.77 -42.03 -23.08 -6.032 -17.04 -28.05 -34.09 0.9575 -15.03 -36 -4.021 0.9575 -1.053 -44.04 -42.03 1.915 -39.07
3.775 -36 -15.03 -16.09 -18 -27 -31.02 -13.02 -13.02 -26.04 2.968 -8.043 -7.085 -41.08 -34.09 -8.043 -29.01
3.78 -25.09 -9 -27 -17.04 -23.08 -25.09 -19.05 -15.03 -17.04 19.92 -17.04 -11.01 -25.09 -19.05 -11.01 -15.03
3.785 -15.03 -3.064 -26.04 -16.09 -18 -16.09 -12.06 -14.08 -4.021 39.93 -12.06 -1.053 0 1.915 -5.075 3.926
3.79 -11.01 0.9575 -19.05 -11.01 -15.03 -8.043 -3.064 -12.06 4.979 50.94 -2.011 4.979 20.97 9.958 0.9575 31.98
3.795 -10.05 -3.064 -11.01 -9 -7.085 0.9575 3.926 -6.032 21.93 55.92 3.926 15.99 44.91 20.97 6.99 54.96
3.8 -15.03 -11.01 -7.085 -5.075 -1.053 4.979 0 1.915 36.96 50.94 2.968 20.97 66.93 23.94 6.99 71.91
3.805 -19.05 -21.06 -10.05 -6.032 1.915 0.9575 -6.032 6.99 46.92 45.96 0 17.91 80.91 26.91 3.926 75.93
3.81 -23.08 -29.01 -23.08 -13.02 0.9575 -1.053 -21.06 5.936 43.95 37.92 -13.02 13.98 79.95 25.95 -2.011 65.97
3.815 -22.02 -35.04 -36 -18 -5.075 -11.01 -27 3.926 34.95 36.96 -20.01 13.98 70.95 26.91 0.9575 55.92
3.82 -24.03 -39.07 -44.04 -21.06 -12.06 -16.09 -22.02 -1.053 18.96 34.95 -20.01 11.97 56.97 24.99 5.936 41.94
3.825 -31.02 -45 -45 -21.06 -19.05 -19.05 -13.02 -3.064 5.936 25.95 -13.02 11.97 35.91 15.99 7.947 27.96
3.83 -36 -43.09 -39.07 -14.08 -22.02 -18 -2.011 1.915 1.915 19.92 -1.053 12.93 16.95 4.979 8.905 14.94
3.835 -37.06 -37.06 -34.09 -6.032 -20.01 -12.06 1.915 3.926 0.9575 13.98 1.915 7.947 -1.053 -6.032 5.936 -2.011
3.84 -31.02 -35.04 -29.01 0 -15.03 -9 -1.053 9.958 -3.064 11.97 -1.053 0 -13.02 -19.05 -2.011 -13.02
3.845 -23.08 -29.01 -28.05 1.915 -5.075 -3.064 -7.085 14.94 -6.032 9.958 -11.01 -4.021 -23.08 -25.09 -1.053 -23.08
3.85 -19.05 -27 -28.05 2.968 0.9575 -1.053 -15.03 10.92 -10.05 9.958 -19.05 -18 -29.01 -23.08 -10.05 -28.05
3.855 -21.06 -31.02 -31.02 -1.053 0.9575 -3.064 -21.06 0 -13.02 9.958 -25.09 -29.01 -33.03 -13.02 -17.04 -25.09
3.86 -27 -31.02 -33.03 -3.064 1.915 0 -20.01 -2.011 -10.05 11.97 -26.04 -33.03 -22.02 -2.011 -19.05 -12.06
3.865 -31.02 -27 -33.03 -6.032 0.9575 -1.053 -16.09 -5.075 -4.021 15.99 -24.03 -35.04 -8.043 15.99 -23.08 1.915
3.87 -25.09 -23.08 -39.07 -3.064 5.936 3.926 -15.03 -9 1.915 23.94 -23.08 -29.01 1.915 29.97 -21.06 7.947
3.875 -13.02 -17.04 -38.01 -1.053 10.92 10.92 -16.09 -9 13.98 33.99 -22.02 -20.01 20.97 39.93 -16.09 22.98
3.88 -2.011 -15.03 -34.09 1.915 14.94 12.93 -22.02 -12.06 21.93 39.93 -26.04 -14.08 34.95 39.93 -10.05 32.94
3.885 7.947 -19.05 -31.02 0.9575 13.98 7.947 -27 -15.03 21.93 37.92 -31.02 -9 45.96 31.98 -5.075 37.92
3.89 1.915 -25.09 -24.03 -4.021 5.936 -2.011 -31.02 -23.08 15.99 25.95 -31.02 -12.06 49.98 19.92 -4.021 39.93
3.895 -7.085 -31.02 -22.02 -10.05 -1.053 -13.02 -29.01 -25.09 1.915 9.958 -27 -19.05 45.96 1.915 -8.043 33.99
3.9 -25.09 -31.02 -27 -11.01 -17.04 -29.01 -25.09 -31.02 -11.01 -5.075 -23.08 -25.09 35.91 -9 -9 23.94
3.905 -37.06 -27 -35.04 -10.05 -31.02 -39.07 -23.08 -30.07 -31.02 -19.05 -19.05 -27 21.93 -23.08 -3.064 13.98
3.91 -43.09 -23.08 -41.08 -11.01 -37.06 -41.08 -21.06 -26.04 -49.02 -31.02 -15.03 -23.08 9.958 -33.03 0 7.947
3.915 -43.09 -23.08 -41.08 -13.02 -37.06 -37.06 -19.05 -23.08 -57.07 -35.04 -13.02 -17.04 3.926 -39.07 7.947 3.926
3.92 -39.07 -23.08 -29.01 -11.01 -31.02 -31.02 -13.02 -13.02 -59.08 -33.03 -9 -5.075 1.915 -39.07 11.97 1.915
3.925 -33.03 -19.05 -9 -5.075 -21.06 -25.09 0.9575 1.915 -51.03 -29.01 -1.053 -2.011 0 -41.08 7.947 -1.053
3.93 -25.09 -9 9.958 0 -15.03 -21.06 11.97 8.905 -39.07 -27 5.936 1.915 -5.075 -45 0 -17.04
3.935 -19.05 -1.053 21.93 9.958 -13.02 -21.06 23.94 11.97 -33.03 -35.04 15.99 -2.011 -23.08 -55.06 -1.053 -39.07
3.94 -21.06 4.979 15.99 13.98 -19.05 -23.08 21.93 10.92 -33.03 -53.05 19.92 -9 -47.01 -69.04 -3.064 -61.09
3.945 -27 -1.053 -2.011 10.92 -25.09 -25.09 7.947 4.979 -41.08 -69.04 11.97 -24.03 -71.05 -81 0.9575 -75.07
3.95 -37.06 -13.02 -17.04 0 -27 -21.06 -7.085 -3.064 -53.05 -77.08 0 -43.09 -85.03 -85.03 0.9575 -77.08
3.955 -39.07 -25.09 -23.08 1.915 -20.01 -11.01 -19.05 -9 -57.07 -69.04 -7.085 -48.07 -82.06 -73.06 -3.064 -67.02
3.96 -31.02 -27 -13.02 0.9575 -8.043 -2.011 -15.03 -4.021 -50.08 -42.03 -5.075 -44.04 -68.08 -49.02 -7.085 -45
3.965 -13.02 -17.04 5.936 13.98 0 7.947 0 3.926 -31.02 -13.02 1.915 -25.09 -45 -19.05 -9 -19.05
3.97 -2.011 -1.053 23.94 26.91 10.92 15.99 21.93 19.92 -4.021 8.905 19.92 -1.053 -18 3.926 -7.085 0.9575
3.975 4.979 0.9575 27.96 29.97 12.93 15.99 33.99 25.95 16.95 24.99 29.97 13.98 0.9575 24.99 -1.053 9.958
3.98 0 -1.053 17.91 23.94 7.947 11.97 29.97 25.95 37.92 27.96 27.96 19.92 13.98 33.99 0 17.91
3.985 0 -3.064 2.968 15.99 9.958 9.958 11.97 21.93 48.93 28.92 15.99 17.91 23.94 34.95 0.9575 21.93
3.99 -2.011 -9 0 12.93 13.98 11.97 -1.053 10.92 59.94 26.91 1.915 8.905 21.93 30.93 -11.01 19.92
3.995 -2.011 -7.085 0.9575 11.97 19.92 13.98 -9 3.926 57.93 25.95 0.9575 1.915 19.92 25.95 -27 17.91
4 2.968 2.968 2.968 13.98 18.96 14.94 -7.085 3.926 51.99 23.94 0.9575 0.9575 10.92 20.97 -39.07 7.947
4.005 0.9575 2.968 2.968 8.905 8.905 6.99 -1.053 1.915 34.95 13.98 1.915 -2.011 1.915 11.97 -41.08 0.9575
4.01 -9 -7.085 0.9575 -1.053 -5.075 -7.085 5.936 -3.064 9.958 0 3.926 -3.064 -9 0 -35.04 -13.02
4.015 -27 -23.08 -5.075 -14.08 -24.03 -18 10.92 -13.02 -5.075 -11.01 5.936 -6.032 -20.01 -7.085 -24.03 -20.01
4.02 -40.02 -37.06 -13.02 -22.02 -38.01 -28.05 4.979 -22.02 -24.03 -26.04 1.915 -10.05 -24.03 -18 -16.09 -22.02
4.025 -43.09 -43.09 -9 -23.08 -41.08 -29.01 0 -27 -31.02 -35.04 0.9575 -15.03 -23.08 -25.09 -13.02 -17.04
4.03 -35.04 -37.06 -3.064 -18 -39.07 -28.05 0.9575 -24.03 -33.03 -39.07 -3.064 -19.05 -16.09 -35.04 -13.02 -9
4.035 -30.07 -27 0 -22.02 -39.07 -33.03 -1.053 -25.09 -34.09 -45 -3.064 -25.09 -16.09 -42.03 -19.05 -10.05
4.04 -27 -23.08 1.915 -26.04 -41.08 -36 -2.011 -27 -41.08 -47.01 -3.064 -33.03 -21.06 -50.08 -25.09 -17.04
4.045 -30.07 -23.08 1.915 -34.09 -39.07 -39.07 -5.075 -29.01 -54 -49.02 0.9575 -39.07 -30.07 -52.09 -21.06 -30.07
4.05 -29.01 -23.08 -2.011 -36 -33.03 -34.09 -5.075 -32.08 -59.08 -41.08 -2.011 -37.06 -40.02 -51.03 -19.05 -36
4.055 -27 -23.08 0.9575 -29.01 -21.06 -25.09 -3.064 -27 -51.03 -31.02 0 -27 -41.08 -39.07 -19.05 -33.03
4.06 -16.09 -15.03 0 -10.05 -4.021 -10.05 -1.053 -12.06 -28.05 -14.08 5.936 -10.05 -26.04 -22.02 -12.06 -22.02
4.065 -5.075 -5.075 1.915 0.9575 4.979 1.915 8.905 1.915 0 1.915 7.947 0.9575 -4.021 -5.075 -8.043 -8.043
4.07 -2.011 -1.053 0.9575 11.97 11.97 3.926 13.98 13.98 23.94 7.947 9.958 7.947 5.936 3.926 -13.02 -2.011
4.075 2.968 4.979 0 14.94 10.92 2.968 16.95 19.92 40.98 11.97 9.958 10.92 13.98 11.97 -21.06 1.915
4.08 4.979 2.968 0 11.97 8.905 2.968 15.99 19.92 39.93 9.958 9.958 5.936 10.92 12.93 -31.02 1.915
4.085 5.936 2.968 -3.064 3.926 3.926 0 7.947 13.98 31.98 7.947 5.936 3.926 3.926 7.947 -39.07 0
4.09 6.99 4.979 -8.043 0.9575 1.915 -2.011 0 10.92 21.93 2.968 -2.011 4.979 0 4.979 -41.08 0
4.095 6.99 0.9575 -14.08 0.9575 1.915 -2.011 -3.064 3.926 10.92 -1.053 -3.064 0 1.915 0.9575 -41.08 3.926
4.1 -2.011 -1.053 -21.06 -3.064 0.9575 -3.064 -11.01 -5.075 -2.011 -5.075 -11.01 0.9575 3.926 -2.011 -37.06 3.926
4.105 -12.06 -13.02 -25.09 -5.075 -8.043 -13.02 -13.02 -17.04 -6.032 -16.09 -17.04 -9 4.979 -2.011 -33.03 3.926
4.11 -27 -29.01 -21.06 -14.08 -20.01 -21.06 -7.085 -27 -18 -26.04 -11.01 -21.06 0.9575 -11.01 -33.03 0
4.115 -35.04 -39.07 -11.01 -17.04 -29.01 -29.01 0.9575 -35.04 -29.01 -31.02 -1.053 -25.09 0.9575 -17.04 -27 0
4.12 -33.03 -33.03 -2.011 -10.05 -28.05 -25.09 7.947 -24.03 -28.05 -26.04 11.97 -16.09 -1.053 -23.08 -21.06 1.915
4.125 -27 -19.05 7.947 0 -22.02 -21.06 19.92 -7.085 -23.08 -23.08 21.93 0 2.968 -23.08 -9 3.926
4.13 -23.08 -9 9.958 1.915 -19.05 -13.02 23.94 1.915 -15.03 -21.06 25.95 5.936 3.926 -27 -2.011 1.915
4.135 -29.01 -11.01 3.926 -1.053 -17.04 -13.02 13.98 4.979 -11.01 -27 13.98 4.979 0.9575 -31.02 0.9575 -5.075
4.14 -41.08 -27 -3.064 -7.085 -23.08 -19.05 -2.011 -2.011 -17.04 -39.07 -1.053 -7.085 -15.03 -41.08 -5.075 -27
4.145 -51.03 -45 -13.02 -25.09 -33.03 -27 -15.03 -23.08 -35.04 -53.05 -21.06 -33.03 -37.06 -49.02 -21.06 -47.01
4.15 -49.02 -51.03 -15.03 -35.04 -35.04 -31.02 -25.09 -40.02 -51.03 -61.09 -29.01 -53.05 -53.05 -51.03 -31.02 -57.07
4.155 -35.04 -43.09 -11.01 -31.02 -29.01 -27 -21.06 -48.07 -61.09 -55.06 -25.09 -53.05 -53.05 -43.09 -29.01 -49.02
4.16 -17.04 -25.09 -1.053 -15.03 -15.03 -15.03 -9 -39.07 -55.06 -37.06 -11.01 -35.04 -37.06 -27 -15.03 -29.01
4.165 -3.064 -9 0 -2.011 -1.053 -3.064 0 -21.06 -35.04 -11.01 0 -5.075 -13.02 -5.075 1.915 -1.053
4.17 -1.053 0.9575 3.926 13.98 1.915 1.915 9.958 -2.011 -9 7.947 9.958 17.91 5.936 9.958 21.93 17.91
4.175 -7.085 0.9575 3.926 20.97 3.926 3.926 15.99 6.99 9.958 19.92 15.99 37.92 23.94 21.93 34.95 33.99
4.18 -13.02 0.9575 7.947 19.92 1.915 3.926 19.92 15.99 25.95 17.91 17.91 45.96 33.99 25.95 33.99 41.94
4.185 -13.02 -1.053 16.95 18.96 3.926 3.926 23.94 27.96 31.98 5.936 19.92 44.91 40.98 17.91 24.99 42.99
4.19 -5.075 2.968 24.99 18.96 7.947 5.936 26.91 29.97 27.96 -3.064 20.97 38.97 38.97 5.936 10.92 36.96
4.195 1.915 8.905 29.97 17.91 15.99 9.958 23.94 29.97 19.92 -11.01 15.99 29.97 33.99 -2.011 -2.011 25.95
4.2 9.958 10.92 28.92 19.92 20.97 16.95 16.95 28.92 13.98 -6.032 10.92 25.95 26.91 0.9575 -1.053 16.95
4.205 15.99 14.94 24.99 19.92 22.98 20.97 6.99 27.96 11.97 2.968 6.99 23.94 19.92 0 0.9575 11.97
4.21 21.93 16.95 19.92 19.92 17.91 21.93 -2.011 23.94 13.98 15.99 3.926 19.92 9.958 7.947 1.915 7.947
4.215 23.94 18.96 21.93 18.96 12.93 16.95 0.9575 23.94 15.99 22.98 6.99 18.96 3.926 11.97 6.99 5.936
4.22 21.93 16.95 21.93 11.97 4.979 6.99 7.947 20.97 11.97 16.95 11.97 12.93 0.9575 4.979 5.936 0.9575
4.225 9.958 4.979 17.91 0 -3.064 -3.064 7.947 11.97 -2.011 0.9575 7.947 1.915 -1.053 -5.075 -1.053 -5.075
4.23 -1.053 -5.075 10.92 -12.06 -15.03 -15.03 3.926 -2.011 -12.06 -19.05 0 -11.01 -9 -20.01 -14.08 -15.03
4.235 -17.04 -21.06 1.915 -29.01 -27 -25.09 -4.021 -24.03 -26.04 -33.03 -4.021 -30.07 -23.08 -34.09 -25.09 -27
4.24 -23.08 -27 -11.01 -39.07 -33.03 -25.09 -19.05 -45 -33.03 -37.06 -15.03 -51.03 -33.03 -39.07 -35.04 -33.03
4.245 -19.05 -19.05 -16.09 -36 -28.05 -14.08 -25.09 -48.07 -28.05 -26.04 -21.06 -60.04 -35.04 -32.08 -39.07 -37.06
4.25 -9 -11.01 -15.03 -28.05 -14.08 -2.011 -30.07 -45 -16.09 -12.06 -28.05 -64.06 -42.03 -24.03 -39.07 -42.03
4.255 0.9575 -5.075 -13.02 -23.08 -5.075 1.915 -29.01 -35.04 -7.085 -2.011 -29.01 -61.09 -49.02 -17.04 -41.08 -49.02
4.26 2.968 -1.053 -11.01 -19.05 1.915 6.99 -26.04 -21.06 -1.053 10.92 -28.05 -46.06 -52.09 -11.01 -34.09 -52.09
4.265 0 -9 -10.05 -16.09 0.9575 2.968 -24.03 -14.08 0.9575 19.92 -20.01 -26.04 -47.01 -2.011 -18 -47.01
4.27 -7.085 -13.02 -9 -15.03 -3.064 0.9575 -17.04 -11.01 -2.011 27.96 -11.01 -2.011 -37.06 3.926 -2.011 -31.02
4.275 -9 -7.085 -3.064 -8.043 -4.021 -1.053 0 1.915 8.905 36.96 -2.011 28.92 -11.01 23.94 25.95 0
4.28 -5.075 -1.053 4.979 0 1.915 0 14.94 11.97 19.92 41.94 14.94 55.92 16.95 41.94 43.95 29.97
4.285 -1.053 2.968 16.95 9.958 6.99 9.958 30.93 31.98 36.96 40.98 24.99 76.98 47.97 49.98 55.92 55.92
4.29 11.97 10.92 20.97 17.91 18.96 17.91 34.95 39.93 47.97 31.98 24.99 81.96 62.91 51.99 51.99 65.97
4.295 13.98 6.99 15.99 14.94 20.97 15.99 26.91 40.98 48.93 12.93 15.99 74.97 61.95 39.93 45.96 56.97
4.3 5.936 2.968 1.915 5.936 13.98 1.915 5.936 25.95 39.93 -2.011 1.915 57.93 49.98 17.91 29.97 35.91
4.305 -2.011 -3.064 -8.043 -2.011 -2.011 -12.06 -10.05 6.99 21.93 -13.02 -6.032 38.97 29.97 2.968 14.94 11.97
4.31 -14.08 -11.01 -23.08 -17.04 -14.08 -24.03 -24.03 -9 1.915 -16.09 -16.09 16.95 8.905 -1.053 0.9575 -6.032
4.315 -23.08 -21.06 -21.06 -29.01 -25.09 -29.01 -27 -29.01 -11.01 -13.02 -17.04 -2.011 -5.075 0.9575 -3.064 -17.04
4.32 -23.08 -19.05 -7.085 -28.05 -20.01 -16.09 -16.09 -31.02 -16.09 1.915 -8.043 -10.05 -10.05 6.99 -5.075 -16.09
4.325 -13.02 -13.02 2.968 -16.09 -8.043 0 0.9575 -20.01 -8.043 12.93 1.915 -12.06 -5.075 16.95 -7.085 -7.085
4.33 -3.064 -3.064 13.98 0.9575 3.926 7.947 9.958 -3.064 3.926 23.94 13.98 -11.01 -1.053 25.95 -5.075 0.9575
4.335 3.926 0.9575 18.96 15.99 17.91 9.958 18.96 8.905 18.96 29.97 20.97 -2.011 0 26.91 -1.053 0.9575
4.34 9.958 4.979 8.905 24.99 19.92 9.958 21.93 18.96 28.92 21.93 19.92 -1.053 1.915 22.98 0 -1.053
4.345 9.958 8.905 -3.064 23.94 11.97 1.915 13.98 13.98 23.94 11.97 11.97 -3.064 -1.053 15.99 0.9575 -11.01
4.35 7.947 8.905 -15.03 15.99 8.905 0.9575 7.947 4.979 13.98 2.968 3.926 -8.043 -10.05 12.93 3.926 -14.08
4.355 5.936 10.92 -17.04 2.968 4.979 4.979 2.968 0.9575 1.915 2.968 0.9575 -10.05 -9 11.97 14.94 -5.075
4.36 7.947 14.94 -11.01 1.915 9.958 5.936 3.926 -1.053 -2.011 9.958 1.915 -5.075 -2.011 19.92 29.97 11.97
4.365 9.958 20.97 -1.053 11.97 18.96 10.92 18.96 3.926 -2.011 18.96 16.95 9.958 21.93 29.97 45.96 39.93
4.37 7.947 22.98 10.92 27.96 20.97 12.93 32.94 14.94 3.926 24.99 28.92 33.99 44.91 35.91 59.94 58.98
4.375 3.926 20.97 17.91 35.91 15.99 7.947 39.93 21.93 11.97 19.92 35.91 55.92 65.97 33.99 63.96 67.98
4.38 -2.011 14.94 14.94 38.97 5.936 1.915 36.96 29.97 15.99 9.958 34.95 68.94 72.96 25.95 64.92 66.93
4.385 -3.064 2.968 6.99 30.93 -1.053 0.9575 25.95 31.98 17.91 -2.011 25.95 68.94 70.95 13.98 56.97 62.91
4.39 -7.085 -5.075 -2.011 15.99 -7.085 -1.053 11.97 25.95 13.98 -3.064 13.98 55.92 63.96 5.936 39.93 53.91
4.395 -9 -15.03 -3.064 4.979 -7.085 -1.053 1.915 14.94 9.958 -1.053 3.926 38.97 57.93 1.915 22.98 49.98
4.4 -7.085 -25.09 -5.075 0.9575 -3.064 -2.011 0 6.99 7.947 5.936 0 19.92 49.98 7.947 3.926 45.96
4.405 -7.085 -29.01 -3.064 -1.053 0 7.947 1.915 0.9575 7.947 19.92 3.926 3.926 41.94 17.91 -5.075 39.93
4.41 -7.085 -27 -1.053 -2.011 5.936 15.99 5.936 -3.064 11.97 29.97 7.947 0.9575 31.98 25.95 -13.02 29.97
4.415 -5.075 -23.08 -2.011 1.915 9.958 17.91 5.936 -4.021 19.92 31.98 9.958 -5.075 15.99 29.97 -17.04 11.97
4.42 -7.085 -19.05 -2.011 3.926 9.958 15.99 0 -2.011 23.94 21.93 7.947 -11.01 0.9575 21.93 -21.06 -5.075
4.425 -11.01 -15.03 -1.053 0 7.947 5.936 -3.064 0.9575 25.95 7.947 -2.011 -19.05 -19.05 7.947 -31.02 -27
4.43 -15.03 -19.05 -9 -5.075 0 0.9575 -13.02 -2.011 17.91 -1.053 -7.085 -31.02 -37.06 -3.064 -43.09 -45
4.435 -21.06 -25.09 -17.04 -21.06 -3.064 -9 -21.06 -13.02 5.936 -7.085 -17.04 -43.09 -49.02 -15.03 -57.07 -53.05
4.44 -25.09 -33.03 -21.06 -33.03 -13.02 -13.02 -23.08 -23.08 -1.053 -3.064 -23.08 -49.02 -55.06 -17.04 -57.07 -49.02
4.445 -23.08 -37.06 -17.04 -34.09 -19.05 -13.02 -19.05 -23.08 -9 1.915 -17.04 -41.08 -45 -9 -42.03 -35.04
4.45 -15.03 -31.02 -7.085 -26.04 -17.04 -9 -5.075 -14.08 -9 11.97 -1.053 -19.05 -27 -2.011 -14.08 -9
4.455 -5.075 -21.06 -2.011 -13.02 -11.01 -3.064 7.947 3.926 0.9575 17.91 11.97 9.958 -1.053 11.97 9.958 9.958
4.46 0 -7.085 6.99 -1.053 0.9575 1.915 27.96 33.99 11.97 15.99 27.96 44.91 22.98 19.92 38.97 32.94
4.465 5.936 -1.053 8.905 10.92 5.936 5.936 37.92 54.96 27.96 9.958 37.92 68.94 44.91 21.93 50.94 50.94
4.47 5.936 0.9575 5.936 11.97 11.97 7.947 35.91 61.95 33.99 0 35.91 77.94 53.91 17.91 47.97 55.92
4.475 1.915 -1.053 -1.053 5.936 10.92 7.947 23.94 49.98 31.98 -1.053 24.99 68.94 54.96 12.93 35.91 54.96
4.48 0 0.9575 -6.032 0.9575 4.979 5.936 1.915 28.92 21.93 -3.064 2.968 48.93 48.93 4.979 21.93 48.93
4.485 1.915 2.968 -13.02 -11.01 0 1.915 -11.01 5.936 11.97 -5.075 -11.01 25.95 41.94 0 17.91 41.94
4.49 3.926 6.99 -17.04 -18 1.915 2.968 -22.02 -8.043 1.915 -7.085 -20.01 11.97 37.92 0.9575 16.95 35.91
4.495 9.958 10.92 -17.04 -22.02 1.915 0.9575 -24.03 -18 -2.011 -13.02 -24.03 0 31.98 -1.053 16.95 23.94
4.5 7.947 8.905 -19.05 -29.01 0.9575 0.9575 -21.06 -25.09 0.9575 -19.05 -23.08 -3.064 19.92 0.9575 11.97 9.958
4.505 -1.053 0.9575 -14.08 -34.09 -1.053 -6.032 -14.08 -24.03 -3.064 -25.09 -15.03 -8.043 2.968 -3.064 1.915 -4.021
4.51 -10.05 -5.075 -12.06 -45 -10.05 -15.03 -10.05 -25.09 -13.02 -29.01 -12.06 -17.04 -11.01 -15.03 -22.02 -21.06
4.515 -17.04 -11.01 -11.01 -49.02 -17.04 -21.06 -13.02 -25.09 -19.05 -25.09 -11.01 -27 -29.01 -19.05 -49.02 -37.06
4.52 -16.09 -9 -12.06 -44.04 -22.02 -22.02 -14.08 -18 -24.03 -18 -12.06 -28.05 -38.01 -23.08 -61.09 -43.09
4.525 -6.032 -1.053 -14.08 -31.02 -20.01 -17.04 -17.04 -7.085 -21.06 -10.05 -14.08 -31.02 -36 -22.02 -61.09 -41.08
4.53 2.968 2.968 -13.02 -13.02 -12.06 -11.01 -10.05 0 -15.03 -7.085 -8.043 -27 -31.02 -18 -45 -33.03
4.535 12.93 4.979 -12.06 -1.053 -2.011 -9 -5.075 5.936 -3.064 -8.043 -4.021 -27 -26.04 -16.09 -25.09 -31.02
4.54 12.93 4.979 -8.043 4.979 2.968 -6.032 0.9575 6.99 1.915 -10.05 1.915 -18 -20.01 -17.04 -5.075 -29.01
4.545 9.958 -1.053 -5.075 9.958 7.947 -5.075 5.936 9.958 0 -17.04 0 -9 -21.06 -15.03 1.915 -29.01
4.55 4.979 0.9575 -4.021 5.936 8.905 -1.053 4.979 9.958 0 -19.05 0 0.9575 -21.06 -17.04 8.905 -29.01
4.555 2.968 0.9575 -10.05 1.915 3.926 -2.011 1.915 4.979 -3.064 -23.08 -7.085 0.9575 -22.02 -17.04 10.92 -28.05
4.56 1.915 0.9575 -17.04 -9 -1.053 -7.085 -13.02 -2.011 -11.01 -27 -19.05 -2.011 -25.09 -19.05 9.958 -29.01
4.565 1.915 0.9575 -21.06 -20.01 -12.06 -14.08 -24.03 -10.05 -21.06 -31.02 -24.03 -9 -27 -18 6.99 -29.01
4.57 0.9575 -7.085 -25.09 -30.07 -22.02 -24.03 -30.07 -26.04 -31.02 -33.03 -24.03 -19.05 -27 -16.09 2.968 -27
4.575 -11.01 -15.03 -27 -39.07 -27 -29.01 -31.02 -37.06 -33.03 -35.04 -21.06 -33.03 -29.01 -15.03 0 -25.09
4.58 -19.05 -21.06 -20.01 -33.03 -28.05 -29.01 -27 -38.01 -31.02 -39.07 -16.09 -38.01 -22.02 -10.05 0.9575 -14.08
4.585 -17.04 -21.06 -12.06 -27 -24.03 -21.06 -19.05 -29.01 -23.08 -39.07 -12.06 -36 -12.06 -4.021 0 -2.011
4.59 -11.01 -13.02 -11.01 -21.06 -19.05 -15.03 -15.03 -19.05 -13.02 -33.03 -15.03 -35.04 -3.064 -1.053 0.9575 3.926
4.595 0.9575 -3.064 -6.032 -16.09 -15.03 -9 -15.03 -10.05 -9 -27 -15.03 -28.05 2.968 -1.053 0 12.93
4.6 3.926 -1.053 -6.032 -12.06 -15.03 -9 -15.03 -5.075 -11.01 -17.04 -17.04 -26.04 6.99 -3.064 -4.021 14.94
4.605 7.947 2.968 -1.053 -9 -15.03 -7.085 -13.02 -3.064 -15.03 -7.085 -13.02 -21.06 7.947 -3.064 -7.085 11.97
4.61 5.936 4.979 1.915 1.915 -9 -3.064 -11.01 1.915 -15.03 -3.064 -5.075 -13.02 5.936 -1.053 -8.043 7.947
4.615 3.926 4.979 7.947 6.99 -5.075 0.9575 -5.075 3.926 -9 -5.075 0.9575 -5.075 3.926 0 -2.011 5.936
4.62 0 4.979 9.958 13.98 -1.053 0.9575 -1.053 13.98 -1.053 -11.01 -2.011 0.9575 1.915 5.936 0.9575 1.915
4.625 0.9575 4.979 7.947 17.91 -3.064 -5.075 -2.011 21.93 1.915 -15.03 -2.011 0 0 5.936 1.915 -2.011
4.63 -1.053 4.979 1.915 15.99 -7.085 -11.01 0 18.96 3.926 -19.05 0.9575 -2.011 0.9575 0 5.936 -5.075
4.635 -1.053 6.99 0.9575 7.947 -15.03 -17.04 0 11.97 -2.011 -23.08 -1.053 -2.011 -7.085 -7.085 3.926 -17.04
4.64 -1.053 8.905 -1.053 1.915 -19.05 -19.05 0 4.979 -5.075 -25.09 -1.053 -1.053 -17.04 -19.05 1.915 -27
4.645 -2.011 10.92 -1.053 0 -19.05 -15.03 -2.011 0.9575 -15.03 -29.01 -3.064 -7.085 -27 -29.01 -2.011 -35.04
4.65 -2.011 8.905 -2.011 0.9575 -15.03 -9 0.9575 -1.053 -23.08 -31.02 -5.075 -15.03 -35.04 -31.02 -1.053 -39.07
4.655 -2.011 2.968 1.915 0.9575 -7.085 -5.075 -1.053 -7.085 -27 -31.02 -5.075 -23.08 -35.04 -29.01 -1.053 -35.04
4.66 0.9575 -1.053 7.947 0.9575 0.9575 0.9575 0 -8.043 -25.09 -27 -1.053 -23.08 -29.01 -23.08 0.9575 -25.09
4.665 0 0.9575 13.98 4.979 3.926 1.915 7.947 -2.011 -19.05 -21.06 1.915 -17.04 -19.05 -17.04 0 -13.02
4.67 9.958 8.905 17.91 15.99 13.98 11.97 13.98 1.915 -5.075 -15.03 9.958 -7.085 -9 -9 1.915 -5.075
4.675 27.96 28.92 20.97 28.92 21.93 23.94 15.99 13.98 7.947 -11.01 13.98 -1.053 -2.011 -3.064 0.9575 0
4.68 45.96 46.92 16.95 38.97 29.97 33.99 10.92 19.92 21.93 -7.085 10.92 2.968 0 -2.011 -2.011 -4.021
4.685 55.92 54.96 5.936 37.92 29.97 35.91 -2.011 21.93 29.97 -3.064 -2.011 0 -3.064 1.915 -9 -11.01
4.69 51.99 46.92 1.915 27.96 26.91 28.92 -4.021 14.94 27.96 -1.053 -4.021 1.915 -8.043 1.915 -13.02 -18
4.695 35.91 32.94 -2.011 11.97 16.95 16.95 -4.021 1.915 19.92 -2.011 -6.032 0.9575 -16.09 1.915 -11.01 -22.02
4.7 19.92 20.97 -1.053 3.926 7.947 5.936 -2.011 0.9575 11.97 -5.075 0.9575 -2.011 -23.08 0 -5.075 -29.01
4.705 9.958 18.96 5.936 4.979 2.968 2.968 8.905 3.926 3.926 -8.043 7.947 0 -29.01 -2.011 -1.053 -37.06
4.71 9.958 26.91 11.97 11.97 2.968 0.9575 15.99 10.92 2.968 -12.06 13.98 4.979 -41.08 -1.053 1.915 -51.03
4.715 13.98 34.95 11.97 13.98 1.915 -2.011 9.958 9.958 -2.011 -15.03 5.936 -2.011 -57.07 -7.085 -13.02 -71.05
4.72 15.99 32.94 4.979 10.92 1.915 0.9575 0.9575 4.979 -2.011 -18 -4.021 -7.085 -70.09 -19.05 -33.03 -90
4.725 9.958 24.99 0 1.915 -7.085 -11.01 -18 -8.043 -18 -25.09 -22.02 -29.01 -87.04 -33.03 -50.08 -105
4.73 -2.011 4.979 -7.085 -9 -21.06 -23.08 -37.06 -33.03 -35.04 -39.07 -39.07 -51.03 -107 -45 -65.01 -119
4.735 -8.043 -7.085 -10.05 -22.02 -34.09 -32.08 -41.08 -56.01 -52.09 -51.03 -45 -69.04 -118.1 -53.05 -66.07 -122.1
4.74 -14.08 -13.02 -7.085 -32.08 -39.07 -37.06 -45 -63 -62.05 -58.02 -40.02 -80.05 -129.1 -54 -59.08 -123
4.745 -15.03 -15.03 -7.085 -35.04 -41.08 -39.07 -37.06 -63 -71.05 -61.09 -33.03 -79.09 -127.1 -51.03 -51.03 -115.1
4.75 -10.05 -13.02 -10.05 -39.07 -37.06 -35.04 -28.05 -58.02 -73.06 -57.07 -21.06 -72 -116 -48.07 -40.02 -101
4.755 -8.043 -11.01 -18 -40.02 -32.08 -31.02 -28.05 -56.01 -70.09 -50.08 -21.06 -61.09 -97.09 -46.06 -33.03 -84.07
4.76 -9 -19.05 -29.01 -43.09 -31.02 -31.02 -33.03 -57.07 -65.01 -49.02 -27 -55.06 -79.09 -43.09 -29.01 -69.04
4.765 -10.05 -21.06 -34.09 -42.03 -30.07 -29.01 -41.08 -55.06 -59.08 -46.06 -36 -47.01 -59.08 -41.08 -25.09 -55.06
4.77 -9 -25.09 -32.08 -37.06 -27 -23.08 -42.03 -48.07 -51.03 -43.09 -38.01 -38.01 -44.04 -35.04 -18 -44.04
4.775 -6.032 -23.08 -20.01 -29.01 -20.01 -19.05 -37.06 -37.06 -43.09 -32.08 -37.06 -32.08 -34.09 -22.02 -11.01 -33.03
4.78 1.915 -17.04 -6.032 -15.03 -13.02 -7.085 -22.02 -18 -29.01 -23.08 -22.02 -20.01 -22.02 -13.02 0 -18
4.785 4.979 -11.01 4.979 -4.021 -2.011 0 -9 -5.075 -17.04 -12.06 -6.032 -5.075 -11.01 -1.053 5.936 -5.075
4.79 9.958 -3.064 9.958 0.9575 0 3.926 0.9575 -2.011 -7.085 -5.075 0 3.926 -1.053 1.915 13.98 5.936
4.795 14.94 -1.053 8.905 1.915 0.9575 5.936 0.9575 0 -1.053 -4.021 3.926 15.99 3.926 6.99 19.92 12.93
4.8 10.92 0.9575 0.9575 -5.075 0.9575 0 0.9575 -6.032 1.915 -7.085 3.926 18.96 6.99 6.99 20.97 11.97
4.805 5.936 0.9575 -3.064 -11.01 -11.01 -9 0.9575 -9 0.9575 -15.03 -2.011 13.98 3.926 0 13.98 1.915
4.81 1.915 -1.053 -7.085 -18 -13.02 -15.03 -6.032 -9 -8.043 -18 -2.011 4.979 -2.011 -6.032 5.936 -3.064
4.815 -2.011 -7.085 -10.05 -22.02 -14.08 -18 -13.02 -12.06 -18 -23.08 -7.085 -1.053 -2.011 -15.03 0 -6.032
4.82 -5.075 -7.085 -11.01 -19.05 -9 -13.02 -21.06 -19.05 -19.05 -19.05 -13.02 -13.02 -3.064 -21.06 -15.03 -7.085
4.825 -3.064 -3.064 -4.021 -13.02 -1.053 -3.064 -22.02 -20.01 -12.06 -9 -18 -15.03 -1.053 -23.08 -26.04 -7.085
4.83 -2.011 -1.053 -2.011 -6.032 1.915 1.915 -23.08 -18 1.915 -6.032 -24.03 -13.02 -6.032 -23.08 -37.06 -16.09
4.835 3.926 -1.053 0.9575 -3.064 1.915 0.9575 -19.05 -15.03 5.936 -5.075 -25.09 -11.01 -17.04 -21.06 -45 -33.03
4.84 11.97 2.968 -2.011 0 4.979 -1.053 -9 -4.021 8.905 -2.011 -19.05 -10.05 -37.06 -21.06 -46.06 -51.03
4.845 17.91 4.979 0 4.979 8.905 0.9575 -6.032 3.926 1.915 -2.011 -13.02 -11.01 -55.06 -21.06 -46.06 -65.01
4.85 21.93 8.905 3.926 11.97 11.97 9.958 -1.053 7.947 0.9575 0.9575 -5.075 -13.02 -73.06 -17.04 -43.09 -71.05
4.855 25.95 12.93 6.99 17.91 16.95 14.94 1.915 13.98 -2.011 4.979 0 -7.085 -72 -7.085 -35.04 -70.09
4.86 25.95 20.97 12.93 25.95 18.96 18.96 2.968 16.95 5.936 15.99 4.979 0 -62.05 1.915 -23.08 -58.02
4.865 25.95 24.99 11.97 25.95 19.92 17.91 9.958 23.94 19.92 23.94 13.98 11.97 -43.09 17.91 -7.085 -43.09
4.87 25.95 28.92 14.94 26.91 19.92 19.92 20.97 29.97 33.99 29.97 26.91 32.94 -14.08 33.99 10.92 -14.08
4.875 23.94 26.91 14.94 24.99 21.93 23.94 29.97 37.92 43.95 31.98 35.91 50.94 6.99 45.96 30.93 12.93
4.88 23.94 24.99 13.98 25.95 25.95 31.98 35.91 41.94 49.98 37.92 37.92 61.95 27.96 55.92 51.99 41.94
4.885 21.93 20.97 11.97 24.99 27.96 33.99 37.92 48.93 51.99 43.95 33.99 67.98 47.97 57.93 61.95 65.97
4.89 17.91 16.95 5.936 21.93 27.96 27.96 33.99 50.94 47.97 45.96 23.94 67.98 61.95 55.92 61.95 75.93
4.895 9.958 12.93 -2.011 13.98 19.92 11.97 25.95 47.97 39.93 41.94 13.98 61.95 67.98 49.98 49.98 69.99
4.9 0 6.99 -5.075 3.926 5.936 -3.064 13.98 43.95 25.95 25.95 5.936 53.91 63.96 39.93 35.91 57.93
4.905 -3.064 2.968 -9 0.9575 -3.064 -13.02 0 36.96 11.97 7.947 0 45.96 53.91 27.96 21.93 43.95
4.91 -5.075 2.968 -9 -1.053 -9 -11.01 -5.075 26.91 3.926 -1.053 0.9575 37.92 43.95 19.92 13.98 33.99
4.915 -3.064 4.979 -3.064 -2.011 -5.075 -2.011 -7.085 15.99 7.947 -3.064 -3.064 31.98 33.99 13.98 11.97 27.96
4.92 -2.011 10.92 1.915 10.92 3.926 13.98 -3.064 14.94 17.91 0 -1.053 29.97 27.96 11.97 15.99 25.95
4.925 3.926 14.94 7.947 22.98 19.92 21.93 1.915 17.91 29.97 9.958 0 26.91 25.95 11.97 21.93 23.94
4.93 9.958 18.96 11.97 27.96 27.96 17.91 9.958 19.92 31.98 13.98 7.947 23.94 23.94 9.958 17.91 15.99
4.935 9.958 16.95 13.98 24.99 23.94 9.958 13.98 14.94 25.95 5.936 11.97 16.95 11.97 0 5.936 1.915
4.94 5.936 14.94 9.958 18.96 14.94 1.915 10.92 8.905 7.947 -3.064 9.958 2.968 -1.053 -9 -9 -17.04
4.945 1.915 14.94 13.98 11.97 1.915 0 1.915 0 -5.075 -13.02 1.915 -11.01 -25.09 -23.08 -33.03 -39.07
4.95 0 14.94 17.91 11.97 0.9575 9.958 0.9575 -1.053 -17.04 -13.02 0.9575 -22.02 -46.06 -29.01 -55.06 -57.07
4.955 5.936 16.95 29.97 13.98 10.92 25.95 4.979 -2.011 -19.05 -2.011 0.9575 -31.02 -62.05 -27 -63 -64.06
4.96 17.91 22.98 37.92 25.95 19.92 37.92 15.99 0.9575 -13.02 5.936 3.926 -27 -65.01 -13.02 -61.09 -59.08
4.965 29.97 28.92 43.95 36.96 30.93 42.99 24.99 0.9575 -3.064 18.96 14.94 -15.03 -56.01 0.9575 -47.01 -48.07
4.97 39.93 38.97 46.92 45.96 36.96 40.98 24.99 0.9575 1.915 18.96 22.98 1.915 -42.03 7.947 -33.03 -36
4.975 47.97 50.94 41.94 49.98 35.91 35.91 19.92 -2.011 9.958 13.98 21.93 5.936 -27 13.98 -19.05 -27
4.98 49.98 58.98 38.97 52.95 33.99 32.94 15.99 0.9575 16.95 8.905 18.96 13.98 -11.01 13.98 -5.075 -16.09
4.985 49.98 58.98 36.96 47.97 35.91 32.94 13.98 -1.053 20.97 11.97 18.96 14.94 -3.064 15.99 5.936 -4.021
4.99 43.95 50.94 31.98 39.93 35.91 29.97 21.93 -1.053 21.93 13.98 17.91 13.98 0 17.91 21.93 1.915
4.995 29.97 32.94 24.99 25.95 31.98 25.95 29.97 -3.064 16.95 15.99 23.94 12.93 10.92 21.93 35.91 15.99
5 13.98 16.95 11.97 1.915 20.97 11.97 22.98 -13.02 7.947 12.93 19.92 10.92 17.91 19.92 43.95 26.91
5.005 -2.011 -1.053 0.9575 -13.02 5.936 -2.011 9.958 -23.08 -1.053 0 13.98 5.936 21.93 13.98 41.94 31.98
5.01 -5.075 -5.075 -11.01 -27 -3.064 -8.043 -1.053 -33.03 -12.06 -11.01 0.9575 -1.053 26.91 4.979 34.95 33.99
5.015 -9 -9 -18 -33.03 -15.03 -11.01 -18 -40.02 -21.06 -20.01 -5.075 -5.075 30.93 0 21.93 35.91
5.02 -7.085 -7.085 -12.06 -32.08 -21.06 -11.01 -22.02 -41.08 -19.05 -21.06 -13.02 -11.01 32.94 0.9575 9.958 44.91
5.025 -3.064 -5.075 0 -23.08 -23.08 -9 -16.09 -32.08 -19.05 -20.01 -15.03 -13.02 38.97 1.915 0 53.91
5.03 0.9575 -3.064 9.958 -9 -19.05 -8.043 -5.075 -23.08 -16.09 -17.04 -12.06 -12.06 46.92 -1.053 -4.021 65.97
5.035 0.9575 0.9575 17.91 -1.053 -13.02 -5.075 0.9575 -11.01 -17.04 -13.02 -7.085 -11.01 47.97 -2.011 -9 65.97
5.04 -2.011 4.979 21.93 5.936 -4.021 -1.053 1.915 0.9575 -15.03 -10.05 -3.064 -6.032 45.96 -3.064 -15.03 58.98
5.045 0 6.99 16.95 15.99 1.915 1.915 0.9575 7.947 -14.08 -11.01 1.915 -2.011 40.98 -11.01 -19.05 47.97
5.05 5.936 10.92 11.97 19.92 9.958 5.936 -1.053 13.98 -11.01 -7.085 1.915 0.9575 31.98 -17.04 -21.06 37.92
5.055 13.98 14.94 14.94 25.95 17.91 16.95 1.915 25.95 1.915 1.915 10.92 4.979 25.95 -15.03 -19.05 32.94
5.06 23.94 22.98 28.92 34.95 27.96 30.93 21.93 41.94 12.93 10.92 24.99 19.92 31.98 -9 -7.085 34.95
5.065 35.91 38.97 47.97 49.98 43.95 41.94 41.94 67.98 31.98 21.93 39.93 39.93 35.91 0.9575 1.915 37.92
5.07 47.97 56.97 66.93 67.98 56.97 54.96 58.98 92.97 51.99 30.93 52.95 56.97 40.98 7.947 9.958 36.96
5.075 57.93 62.91 69.99 72.96 64.92 60.99 60.99 98.91 65.97 30.93 58.98 65.97 38.97 13.98 11.97 26.91
5.08 57.93 58.98 59.94 67.98 63.96 59.94 49.98 85.98 69.99 25.95 49.98 59.94 21.93 13.98 3.926 7.947
5.085 49.98 40.98 33.99 49.98 56.97 51.99 28.92 60.99 63.96 24.99 31.98 43.95 0.9575 9.958 -5.075 -10.05
5.09 37.92 16.95 5.936 29.97 44.91 43.95 6.99 31.98 53.91 31.98 7.947 14.94 -14.08 5.936 -13.02 -29.01
5.095 27.96 -1.053 -3.064 11.97 37.92 37.92 -3.064 7.947 43.95 37.92 -1.053 -3.064 -25.09 5.936 -13.02 -35.04
5.1 23.94 0.9575 -3.064 8.905 34.95 35.91 -2.011 2.968 37.92 39.93 -5.075 -12.06 -25.09 7.947 0.9575 -33.03
5.105 21.93 2.968 0 12.93 31.98 29.97 0.9575 2.968 33.99 29.97 -3.064 -10.05 -19.05 7.947 15.99 -23.08
5.11 13.98 4.979 7.947 9.958 19.92 15.99 0 -2.011 21.93 1.915 -2.011 -7.085 -17.04 -2.011 31.98 -17.04
5.115 0 0.9575 1.915 1.915 -2.011 -1.053 0.9575 -11.01 0 -25.09 0.9575 -8.043 -17.04 -11.01 35.91 -21.06
5.12 -19.05 -21.06 -11.01 -22.02 -23.08 -27 -9 -34.09 -25.09 -51.03 -11.01 -19.05 -25.09 -25.09 29.97 -29.01
5.125 -41.08 -43.09 -31.02 -45 -45 -47.01 -23.08 -59.08 -57.07 -57.07 -27 -33.03 -33.03 -29.01 15.99 -35.04
5.13 -55.06 -55.06 -43.09 -57.07 -53.05 -51.03 -29.01 -68.08 -75.07 -47.01 -37.06 -45 -33.03 -19.05 1.915 -33.03
5.135 -55.06 -53.05 -41.08 -49.02 -47.01 -41.08 -29.01 -66.07 -77.08 -25.09 -35.04 -47.01 -27 0.9575 -1.053 -23.08
5.14 -39.07 -37.06 -27 -31.02 -31.02 -21.06 -19.05 -51.03 -63 -5.075 -25.09 -39.07 -15.03 15.99 -5.075 -11.01
5.145 -21.06 -19.05 -9 -13.02 -15.03 -3.064 -11.01 -29.01 -43.09 0 -13.02 -29.01 -7.085 23.94 -11.01 -3.064
5.15 -5.075 -9 -2.011 -1.053 -5.075 1.915 -5.075 -10.05 -25.09 1.915 -5.075 -23.08 -5.075 23.94 -19.05 -5.075
5.155 -2.011 -5.075 0 0.9575 -1.053 3.926 -7.085 1.915 -15.03 0 -3.064 -19.05 -7.085 13.98 -27 -11.01
5.16 0.9575 -7.085 -1.053 0.9575 -2.011 1.915 -11.01 3.926 -11.01 -2.011 -7.085 -17.04 -9 5.936 -33.03 -13.02
5.165 -1.053 -5.075 -11.01 0.9575 1.915 1.915 -13.02 12.93 -7.085 0 -9 -11.01 -9 3.926 -32.08 -13.02
5.17 0.9575 -1.053 -17.04 6.99 5.936 3.926 -13.02 15.99 -1.053 1.915 -7.085 -1.053 -6.032 3.926 -26.04 -8.043
5.175 1.915 2.968 -19.05 13.98 9.958 9.958 -7.085 13.98 1.915 3.926 -1.053 5.936 -5.075 3.926 -21.06 -5.075
5.18 11.97 8.905 -14.08 24.99 15.99 15.99 -2.011 15.99 11.97 5.936 1.915 12.93 -4.021 1.915 -14.08 -4.021
5.185 19.92 8.905 -8.043 29.97 21.93 18.96 7.947 22.98 17.91 7.947 5.936 14.94 -6.032 0 -14.08 -10.05
5.19 23.94 6.99 0.9575 27.96 25.95 17.91 17.91 27.96 23.94 7.947 11.97 11.97 -9 -2.011 -17.04 -15.03
5.195 19.92 2.968 -1.053 26.91 26.91 14.94 22.98 29.97 23.94 9.958 12.93 8.905 -8.043 1.915 -11.01 -18
5.2 11.97 2.968 1.915 20.97 22.98 8.905 24.99 28.92 21.93 9.958 12.93 8.905 -7.085 7.947 -1.053 -15.03
5.205 -2.011 -9 -5.075 9.958 11.97 -2.011 17.91 23.94 15.99 9.958 11.97 13.98 -5.075 11.97 15.99 -9
5.21 -9 -19.05 -11.01 0.9575 0.9575 -2.011 12.93 12.93 5.936 6.99 12.93 19.92 -1.053 15.99 42.99 -1.053
5.215 -21.06 -27 -19.05 -14.08 -6.032 -8.043 10.92 3.926 0.9575 -1.053 10.92 27.96 0.9575 15.99 70.95 4.979
5.22 -31.02 -39.07 -17.04 -25.09 -13.02 -11.01 7.947 0 -9 -5.075 11.97 27.96 5.936 11.97 89.91 13.98
5.225 -37.06 -39.07 -10.05 -32.08 -13.02 -11.01 8.905 2.968 -12.06 -12.06 13.98 30.93 17.91 10.92 100.9 23.94
5.23 -37.06 -37.06 -7.085 -31.02 -13.02 -9 9.958 6.99 -12.06 -14.08 13.98 26.91 21.93 10.92 93.93 30.93
5.235 -29.01 -31.02 -7.085 -27 -11.01 -7.085 7.947 7.947 -13.02 -11.01 7.947 19.92 27.96 13.98 69.99 33.99
5.24 -17.04 -23.08 -6.032 -19.05 -2.011 -1.053 2.968 9.958 -8.043 -1.053 4.979 14.94 32.94 18.96 46.92 38.97
5.245 -3.064 -9 -12.06 -11.01 0.9575 0 -1.053 11.97 -6.032 1.915 0.9575 7.947 36.96 20.97 20.97 38.97
5.25 -2.011 -9 -21.06 -11.01 0 0.9575 -7.085 3.926 -5.075 5.936 -13.02 -3.064 33.99 17.91 0.9575 37.92
5.255 -3.064 -9 -24.03 -14.08 -2.011 -1.053 -16.09 -2.011 -10.05 1.915 -23.08 -17.04 29.97 8.905 -22.02 30.93
5.26 -14.08 -21.06 -26.04 -19.05 -4.021 -5.075 -26.04 -16.09 -15.03 1.915 -33.03 -36 15.99 0 -39.07 20.97
5.265 -28.05 -27 -25.09 -27 -12.06 -7.085 -33.03 -27 -20.01 -4.021 -38.01 -51.03 3.926 -4.021 -55.06 5.936
5.27 -30.07 -31.02 -20.01 -25.09 -14.08 -5.075 -32.08 -28.05 -23.08 -2.011 -31.02 -58.02 -1.053 -1.053 -61.09 0
5.275 -21.06 -19.05 -10.05 -22.02 -7.085 0 -26.04 -22.02 -18 -2.011 -21.06 -55.06 1.915 0.9575 -58.02 0
5.28 -1.053 -3.064 -1.053 -9 3.926 3.926 -15.03 -5.075 -7.085 3.926 -11.01 -41.08 7.947 9.958 -47.01 3.926
5.285 13.98 10.92 4.979 3.926 21.93 14.94 -4.021 11.97 4.979 7.947 1.915 -23.08 24.99 18.96 -32.08 22.98
5.29 21.93 22.98 14.94 11.97 32.94 23.94 0.9575 21.93 18.96 9.958 2.968 -8.043 38.97 24.99 -24.03 38.97
5.295 21.93 26.91 25.95 19.92 33.99 25.95 7.947 27.96 29.97 11.97 5.936 -2.011 45.96 21.93 -19.05 51.99
5.3 13.98 28.92 37.92 23.94 31.98 29.97 13.98 30.93 40.98 22.98 17.91 8.905 51.99 24.99 -11.01 62.91
5.305 11.97 30.93 42.99 32.94 31.98 31.98 20.97 36.96 48.93 34.95 21.93 20.97 59.94 28.92 -2.011 65.97
5.31 15.99 34.95 41.94 37.92 33.99 33.99 23.94 37.92 51.99 43.95 25.95 31.98 63.96 29.97 5.936 67.98
5.315 21.93 36.96 33.99 40.98 38.97 32.94 28.92 41.94 51.99 40.98 26.91 45.96 70.95 31.98 16.95 68.94
5.32 25.95 34.95 25.95 33.99 38.97 28.92 28.92 44.91 47.97 28.92 24.99 53.91 69.99 29.97 22.98 63.96
5.325 21.93 22.98 13.98 23.94 27.96 21.93 27.96 41.94 37.92 11.97 21.93 51.99 65.97 27.96 21.93 59.94
5.33 9.958 8.905 10.92 4.979 18.96 12.93 30.93 40.98 27.96 3.926 22.98 44.91 65.97 27.96 21.93 59.94
5.335 -1.053 -1.053 10.92 -6.032 4.979 -1.053 26.91 29.97 13.98 1.915 24.99 34.95 58.98 29.97 25.95 59.94
5.34 -11.01 -11.01 9.958 -21.06 -1.053 -7.085 23.94 15.99 1.915 5.936 25.95 23.94 51.99 27.96 29.97 53.91
5.345 -17.04 -19.05 6.99 -23.08 -7.085 -14.08 15.99 6.99 -5.075 5.936 21.93 16.95 46.92 15.99 36.96 48.93
5.35 -21.06 -25.09 1.915 -28.05 -13.02 -21.06 5.936 -5.075 -17.04 0.9575 11.97 8.905 36.96 0 32.94 34.95
5.355 -27 -31.02 -5.075 -31.02 -19.05 -25.09 -1.053 -17.04 -23.08 -11.01 0.9575 0.9575 21.93 -13.02 17.91 21.93
5.36 -31.02 -35.04 -13.02 -34.09 -25.09 -25.09 -13.02 -23.08 -25.09 -19.05 -15.03 -11.01 8.905 -25.09 0.9575 4.979
5.365 -33.03 -37.06 -17.04 -38.01 -29.01 -25.09 -23.08 -28.05 -25.09 -19.05 -27 -29.01 -3.064 -29.01 -18 -5.075
5.37 -31.02 -33.03 -13.02 -45 -29.01 -27 -29.01 -35.04 -27 -19.05 -33.03 -45 -17.04 -31.02 -37.06 -19.05
5.375 -29.01 -29.01 -7.085 -47.01 -29.01 -31.02 -31.02 -40.02 -35.04 -19.05 -31.02 -55.06 -33.03 -31.02 -49.02 -31.02
5.38 -33.03 -29.01 -1.053 -49.02 -31.02 -35.04 -27 -36 -41.08 -23.08 -27 -57.07 -43.09 -33.03 -49.02 -39.07
5.385 -43.09 -35.04 -1.053 -47.01 -35.04 -35.04 -23.08 -25.09 -43.09 -27 -21.06 -47.01 -45 -33.03 -41.08 -37.06
5.39 -55.06 -43.09 -7.085 -45 -33.03 -29.01 -21.06 -7.085 -35.04 -25.09 -19.05 -29.01 -33.03 -25.09 -29.01 -25.09
5.395 -59.08 -49.02 -17.04 -41.08 -27 -19.05 -23.08 2.968 -19.05 -17.04 -21.06 -15.03 -15.03 -15.03 -13.02 -9
5.4 -51.03 -43.09 -25.09 -39.07 -21.06 -11.01 -27 4.979 -7.085 -11.01 -27 -7.085 0.9575 -7.085 -2.011 -2.011
5.405 -31.02 -29.01 -25.09 -35.04 -15.03 -7.085 -29.01 -2.011 -3.064 -15.03 -29.01 -3.064 5.936 -5.075 7.947 3.926
5.41 -7.085 -9 -17.04 -27 -13.02 -9 -25.09 -6.032 -5.075 -21.06 -25.09 -2.011 7.947 -11.01 19.92 3.926
5.415 5.936 4.979 -3.064 -14.08 -11.01 -11.01 -11.01 -7.085 -9 -21.06 -13.02 12.93 11.97 -11.01 31.98 11.97
5.42 15.99 14.94 3.926 -1.053 -3.064 -7.085 1.915 0 -3.064 -7.085 -2.011 35.91 21.93 0.9575 51.99 27.96
5.425 15.99 14.94 5.936 8.905 3.926 0.9575 15.99 20.97 9.958 11.97 11.97 62.91 42.99 17.91 69.99 47.97
5.43 13.98 6.99 -2.011 14.94 17.91 7.947 23.94 34.95 31.98 29.97 21.93 76.98 62.91 35.91 79.95 63.96
5.435 7.947 0.9575 -9 7.947 21.93 13.98 17.91 27.96 41.94 33.99 17.91 69.99 65.97 41.94 75.93 61.95
5.44 3.926 -7.085 -15.03 0 15.99 13.98 9.958 6.99 37.92 21.93 11.97 48.93 54.96 30.93 65.97 45.96
5.445 -1.053 -13.02 -9 -3.064 3.926 11.97 1.915 -9 25.95 5.936 3.926 21.93 34.95 10.92 53.91 25.95
5.45 -3.064 -7.085 -2.011 -5.075 0.9575 9.958 1.915 -21.06 13.98 0 1.915 5.936 15.99 -1.053 43.95 11.97
5.455 -6.032 -1.053 9.958 0 0.9575 9.958 4.979 -17.04 12.93 5.936 1.915 3.926 9.958 -2.011 35.91 9.958
5.46 -8.043 0.9575 9.958 1.915 0.9575 11.97 0.9575 -8.043 16.95 17.91 -2.011 10.92 7.947 -1.053 28.92 9.958
5.465 -13.02 -1.053 -2.011 -1.053 1.915 5.936 -3.064 -5.075 15.99 17.91 -5.075 15.99 7.947 3.926 17.91 5.936
5.47 -14.08 -3.064 -17.04 -15.03 -1.053 0.9575 -16.09 -12.06 8.905 7.947 -19.05 15.99 0.9575 5.936 6.99 0
5.475 -18 -15.03 -27 -26.04 -6.032 -11.01 -26.04 -30.07 -2.011 0.9575 -28.05 5.936 -10.05 1.915 1.915 -16.09
5.48 -19.05 -19.05 -25.09 -31.02 -11.01 -13.02 -31.02 -37.06 -19.05 -1.053 -29.01 -2.011 -25.09 0.9575 0.9575 -25.09
5.485 -13.02 -13.02 -7.085 -26.04 -8.043 -4.021 -17.04 -26.04 -19.05 3.926 -18 2.968 -26.04 1.915 8.905 -22.02
5.49 -6.032 -3.064 5.936 -15.03 -1.053 0.9575 -3.064 -5.075 -11.01 17.91 -4.021 6.99 -18 1.915 21.93 -9
5.495 -3.064 -1.053 13.98 -13.02 0.9575 1.915 1.915 5.936 0.9575 19.92 1.915 13.98 -11.01 -1.053 25.95 -7.085
5.5 -1.053 -1.053 5.936 -15.03 -5.075 1.915 6.99 9.958 -1.053 9.958 3.926 13.98 -3.064 -7.085 25.95 -8.043
5.505 -11.01 -5.075 -3.064 -27 -18 -11.01 0 0.9575 -5.075 -6.032 0 5.936 -10.05 -17.04 19.92 -18
5.51 -19.05 -17.04 -15.03 -34.09 -30.07 -27 0.9575 -9 -22.02 -22.02 1.915 1.915 -18 -22.02 10.92 -27
5.515 -15.03 -15.03 -15.03 -33.03 -32.08 -27 -3.064 -18 -35.04 -26.04 -3.064 -2.011 -16.09 -15.03 15.99 -22.02
5.52 -7.085 -5.075 -7.085 -19.05 -21.06 -21.06 0 -15.03 -34.09 -13.02 0.9575 5.936 -5.075 0.9575 25.95 -4.021
5.525 0.9575 0.9575 0.9575 -9 -9 -11.01 -1.053 -9 -25.09 5.936 -2.011 11.97 5.936 11.97 35.91 11.97
5.53 0.9575 4.979 0.9575 -1.053 1.915 -2.011 -3.064 -3.064 -13.02 23.94 1.915 16.95 24.99 25.95 45.96 35.91
5.535 0 0.9575 -3.064 -2.011 1.915 0 -7.085 -12.06 -1.053 31.98 -4.021 14.94 32.94 30.93 44.91 42.99
5.54 -1.053 -3.064 -9 -7.085 -3.064 -3.064 -13.02 -25.09 0.9575 23.94 -11.01 11.97 35.91 27.96 37.92 43.95
5.545 -4.021 -7.085 -7.085 -6.032 -10.05 -11.01 -10.05 -30.07 1.915 5.936 -10.05 7.947 36.96 17.91 30.93 38.97
5.55 -4.021 -7.085 -3.064 -7.085 -12.06 -11.01 -4.021 -26.04 0 -11.01 -7.085 7.947 34.95 3.926 22.98 32.94
5.555 -3.064 -7.085 -2.011 -5.075 -13.02 -13.02 -1.053 -23.08 -3.064 -29.01 0.9575 1.915 25.95 -11.01 13.98 21.93
5.56 -8.043 -7.085 1.915 -4.021 -12.06 -11.01 -2.011 -18 -8.043 -37.06 0.9575 -4.021 13.98 -26.04 8.905 7.947
5.565 -14.08 -9 1.915 -6.032 -17.04 -9 -8.043 -23.08 -16.09 -37.06 -5.075 -17.04 -1.053 -42.03 0.9575 -5.075
5.57 -23.08 -13.02 1.915 -13.02 -21.06 -13.02 -15.03 -35.04 -25.09 -33.03 -13.02 -27 -23.08 -53.05 -5.075 -23.08
5.575 -26.04 -15.03 5.936 -15.03 -23.08 -21.06 -17.04 -39.07 -31.02 -29.01 -17.04 -29.01 -34.09 -54 -7.085 -37.06
5.58 -23.08 -9 9.958 -13.02 -23.08 -29.01 -11.01 -32.08 -33.03 -27 -17.04 -20.01 -34.09 -48.07 -1.053 -43.09
5.585 -17.04 -3.064 13.98 -11.01 -19.05 -33.03 -3.064 -15.03 -31.02 -27 -9 -3.064 -25.09 -41.08 5.936 -39.07
5.59 -11.01 0.9575 11.97 -6.032 -15.03 -31.02 -1.053 -2.011 -27 -25.09 -5.075 6.99 -12.06 -33.03 17.91 -29.01
5.595 -11.01 -3.064 5.936 -8.043 -13.02 -27 -7.085 -4.021 -25.09 -23.08 -5.075 10.92 -8.043 -25.09 21.93 -21.06
5.6 -17.04 -9 -2.011 -15.03 -17.04 -21.06 -15.03 -21.06 -25.09 -21.06 -11.01 0 -15.03 -23.08 19.92 -19.05
5.605 -21.06 -15.03 -3.064 -20.01 -19.05 -15.03 -25.09 -37.06 -27 -23.08 -19.05 -10.05 -29.01 -23.08 9.958 -23.08
5.61 -19.05 -15.03 -7.085 -25.09 -19.05 -9 -27 -58.02 -31.02 -27 -23.08 -33.03 -43.09 -25.09 -1.053 -31.02
5.615 -11.01 -13.02 -11.01 -31.02 -13.02 -3.064 -27 -65.01 -35.04 -27 -23.08 -45 -51.03 -21.06 -13.02 -37.06
5.62 0.9575 -7.085 -17.04 -33.03 -5.075 -2.011 -25.09 -60.04 -33.03 -23.08 -23.08 -49.02 -49.02 -11.01 -21.06 -37.06
5.625 5.936 -3.064 -23.08 -29.01 0 5.936 -25.09 -42.03 -29.01 -9 -21.06 -41.08 -37.06 0.9575 -21.06 -25.09
5.63 13.98 0.9575 -23.08 -23.08 9.958 15.99 -21.06 -25.09 -17.04 1.915 -17.04 -25.09 -15.03 9.958 -15.03 -3.064
5.635 21.93 4.979 -15.03 -9 21.93 27.96 -15.03 -7.085 0.9575 17.91 -9 -3.064 5.936 21.93 -5.075 17.91
5.64 31.98 14.94 -1.053 3.926 31.98 35.91 0.9575 10.92 15.99 31.98 0 15.99 31.98 25.95 3.926 41.94
5.645 41.94 26.91 9.958 17.91 41.94 39.93 13.98 30.93 35.91 39.93 15.99 39.93 53.91 27.96 16.95 59.94
5.65 45.96 32.94 19.92 25.95 41.94 35.91 29.97 41.94 47.97 37.92 31.98 53.91 65.97 25.95 27.96 65.97
5.655 41.94 30.93 19.92 22.98 35.91 27.96 35.91 42.99 49.98 27.96 39.93 57.93 61.95 19.92 36.96 59.94
5.66 29.97 20.97 15.99 12.93 23.94 19.92 31.98 34.95 39.93 11.97 37.92 49.98 46.92 9.958 36.96 44.91
5.665 15.99 8.905 11.97 1.915 9.958 11.97 21.93 19.92 25.95 0.9575 27.96 31.98 21.93 -2.011 25.95 21.93
5.67 5.936 0.9575 13.98 0 1.915 7.947 11.97 5.936 11.97 -7.085 17.91 16.95 0.9575 -9 7.947 0.9575
5.675 3.926 0.9575 23.94 -4.021 -2.011 7.947 9.958 1.915 1.915 -9 14.94 2.968 -10.05 -15.03 -9 -8.043
5.68 1.915 2.968 35.91 -1.053 0.9575 3.926 15.99 -1.053 0 -3.064 13.98 -3.064 -15.03 -15.03 -31.02 -17.04
5.685 2.968 8.905 48.93 1.915 -2.011 0 22.98 0.9575 1.915 0 22.98 -2.011 -8.043 -9 -36 -10.05
5.69 0 4.979 50.94 0.9575 0.9575 -3.064 24.99 -2.011 3.926 7.947 24.99 -2.011 1.915 -1.053 -36 0
5.695 -9 0.9575 43.95 0.9575 -1.053 -9 17.91 0.9575 9.958 11.97 19.92 -3.064 15.99 3.926 -25.09 15.99
5.7 -12.06 -7.085 34.95 -2.011 -3.064 -9 6.99 0.9575 13.98 13.98 6.99 -3.064 27.96 11.97 -11.01 31.98
5.705 -8.043 -9 22.98 1.915 0.9575 -3.064 -2.011 1.915 15.99 11.97 -1.053 -9 33.99 17.91 0 34.95
5.71 -1.053 -5.075 17.91 0.9575 3.926 5.936 -11.01 -2.011 21.93 9.958 -13.02 -11.01 27.96 21.93 1.915 25.95
5.715 9.958 2.968 21.93 0.9575 10.92 18.96 -7.085 -2.011 28.92 8.905 -11.01 -12.06 14.94 21.93 6.99 11.97
5.72 19.92 16.95 27.96 3.926 18.96 28.92 0.9575 0 34.95 8.905 1.915 -7.085 -2.011 19.92 8.905 -1.053
5.725 25.95 24.99 33.99 5.936 21.93 31.98 3.926 1.915 31.98 9.958 5.936 -7.085 -11.01 13.98 3.926 -15.03
5.73 28.92 30.93 30.93 10.92 24.99 26.91 6.99 -2.011 26.91 14.94 7.947 -1.053 -21.06 7.947 0 -22.02
5.735 29.97 34.95 23.94 15.99 24.99 16.95 1.915 0 12.93 12.93 2.968 -4.021 -27 0.9575 -16.09 -23.08
5.74 31.98 40.98 19.92 19.92 23.94 15.99 0.9575 -3.064 0 7.947 -3.064 -7.085 -27 -5.075 -33.03 -17.04
5.745 43.95 46.92 26.91 32.94 23.94 26.91 -1.053 2.968 -1.053 4.979 -6.032 -2.011 -18 -8.043 -44.04 -8.043
5.75 57.93 56.97 39.93 47.97 34.95 44.91 4.979 13.98 5.936 7.947 -1.053 1.915 -7.085 -9 -50.08 1.915
5.755 68.94 62.91 51.99 55.92 49.98 63.96 14.94 32.94 28.92 12.93 8.905 16.95 1.915 -6.032 -44.04 2.968
5.76 73.92 62.91 57.93 59.94 60.99 72.96 24.99 45.96 43.95 21.93 21.93 25.95 5.936 -5.075 -34.09 4.979
5.765 63.96 54.96 52.95 56.97 63.96 64.92 28.92 52.95 50.94 24.99 30.93 28.92 0.9575 -8.043 -20.01 0
5.77 43.95 44.91 41.94 43.95 55.92 41.94 25.95 39.93 35.91 17.91 25.95 15.99 -11.01 -19.05 -13.02 -23.08
5.775 27.96 32.94 31.98 27.96 38.97 16.95 21.93 16.95 10.92 6.99 20.97 -1.053 -35.04 -30.07 -6.032 -47.01
5.78 12.93 24.99 28.92 6.99 16.95 1.915 22.98 0.9575 -10.05 -4.021 13.98 -13.02 -59.08 -41.08 1.915 -66.07
5.785 7.947 18.96 29.97 -1.053 -2.011 -7.085 23.94 -13.02 -27 -17.04 11.97 -25.09 -69.04 -39.07 3.926 -73.06
5.79 7.947 12.93 29.97 -11.01 -8.043 -12.06 19.92 -15.03 -32.08 -24.03 14.94 -21.06 -67.02 -29.01 14.94 -65.01
5.795 3.926 2.968 27.96 -14.08 -14.08 -14.08 11.97 -13.02 -28.05 -24.03 13.98 -14.08 -50.08 -11.01 18.96 -45
5.8 -3.064 0.9575 17.91 -13.02 -13.02 -15.03 1.915 -11.01 -17.04 -19.05 11.97 -7.085 -27 0 19.92 -23.08
5.805 -10.05 -1.053 12.93 -5.075 -7.085 -13.02 1.915 -6.032 -3.064 -5.075 11.97 -2.011 -1.053 17.91 22.98 -1.053
5.81 -10.05 8.905 10.92 1.915 -2.011 -5.075 1.915 -3.064 7.947 7.947 6.99 7.947 15.99 31.98 23.94 17.91
5.815 -5.075 20.97 9.958 1.915 7.947 1.915 5.936 -2.011 21.93 23.94 5.936 15.99 33.99 41.94 25.95 33.99
5.82 4.979 28.92 14.94 9.958 15.99 11.97 12.93 9.958 31.98 27.96 8.905 30.93 53.91 45.96 32.94 47.97
5.825 14.94 26.91 18.96 15.99 17.91 15.99 18.96 27.96 35.91 25.95 8.905 44.91 64.92 43.95 32.94 56.97
5.83 19.92 20.97 17.91 13.98 19.92 17.91 21.93 37.92 35.91 19.92 9.958 53.91 73.92 37.92 31.98 69.99
5.835 19.92 14.94 21.93 12.93 23.94 21.93 25.95 42.99 35.91 17.91 14.94 58.98 84.93 33.99 29.97 86.94
5.84 21.93 14.94 27.96 16.95 27.96 27.96 29.97 43.95 39.93 23.94 19.92 60.99 90.96 33.99 25.95 100.9
5.845 27.96 22.98 31.98 25.95 33.99 35.91 31.98 43.95 45.96 29.97 25.95 59.94 93.93 35.91 15.99 109.9
5.85 35.91 32.94 29.97 32.94 35.91 39.93 25.95 40.98 49.98 29.97 25.95 51.99 98.91 33.99 6.99 111
5.855 41.94 36.96 23.94 38.97 31.98 35.91 13.98 34.95 45.96 19.92 17.91 45.96 95.94 27.96 -6.032 102
5.86 37.92 34.95 15.99 35.91 25.95 27.96 0 27.96 33.99 5.936 5.936 37.92 87.99 17.91 -21.06 87.99
5.865 27.96 24.99 13.98 29.97 17.91 17.91 -1.053 26.91 21.93 0.9575 0 31.98 71.91 5.936 -30.07 69.99
5.87 17.91 14.94 15.99 27.96 15.99 15.99 0.9575 22.98 11.97 -2.011 0 27.96 51.99 -2.011 -37.06 47.97
5.875 11.97 6.99 21.93 27.96 17.91 19.92 3.926 19.92 9.958 5.936 3.926 19.92 27.96 -5.075 -39.07 23.94
5.88 13.98 4.979 19.92 25.95 17.91 23.94 11.97 13.98 9.958 7.947 9.958 11.97 0 -15.03 -39.07 0.9575
5.885 13.98 0.9575 11.97 17.91 13.98 21.93 11.97 6.99 5.936 1.915 11.97 0 -21.06 -27 -35.04 -25.09
5.89 9.958 -1.053 -2.011 1.915 3.926 9.958 7.947 1.915 -2.011 -9 9.958 -7.085 -41.08 -35.04 -27 -45
5.895 1.915 -9 -7.085 -11.01 -7.085 0.9575 1.915 -9 -7.085 -23.08 5.936 -9 -53.05 -37.06 -13.02 -53.05
5.9 -3.064 -13.02 -9 -20.01 -17.04 -9 1.915 -5.075 -11.01 -27 5.936 0 -53.05 -31.02 1.915 -51.03
5.905 -7.085 -7.085 -3.064 -20.01 -21.06 -13.02 5.936 0 -5.075 -21.06 7.947 10.92 -44.04 -17.04 21.93 -43.09
5.91 -5.075 -1.053 -2.011 -13.02 -15.03 -11.01 11.97 9.958 0 -9 9.958 25.95 -35.04 -3.064 31.98 -39.07
5.915 -3.064 6.99 -2.011 -4.021 -7.085 -7.085 9.958 14.94 7.947 0.9575 9.958 32.94 -30.07 1.915 31.98 -41.08
5.92 -7.085 4.979 -5.075 -4.021 1.915 -3.064 1.915 8.905 11.97 0 5.936 28.92 -30.07 7.947 29.97 -39.07
5.925 -13.02 -3.064 -13.02 -9 -2.011 -2.011 -3.064 1.915 9.958 3.926 1.915 21.93 -29.01 11.97 27.96 -31.02
5.93 -15.03 -15.03 -15.03 -11.01 2.968 3.926 -9 -1.053 11.97 5.936 0 21.93 -18 13.98 35.91 -17.04
5.935 -9 -17.04 -11.01 -7.085 8.905 13.98 -5.075 1.915 13.98 11.97 0 21.93 -5.075 17.91 46.92 -1.053
5.94 3.926 -1.053 -2.011 0 17.91 21.93 0 7.947 17.91 11.97 7.947 23.94 1.915 19.92 51.99 3.926
5.945 25.95 28.92 11.97 16.95 24.99 23.94 10.92 13.98 19.92 10.92 11.97 24.99 11.97 15.99 48.93 12.93
5.95 37.92 52.95 17.91 24.99 24.99 23.94 14.94 11.97 13.98 6.99 13.98 14.94 18.96 9.958 38.97 20.97
5.955 35.91 60.99 15.99 19.92 17.91 15.99 13.98 0 1.915 1.915 11.97 1.915 21.93 1.915 23.94 31.98
5.96 22.98 50.94 10.92 6.99 5.936 9.958 8.905 -6.032 -1.053 0.9575 9.958 -2.011 27.96 0 16.95 48.93
5.965 4.979 26.91 -1.053 -1.053 -2.011 1.915 4.979 -13.02 -2.011 0.9575 5.936 -3.064 38.97 0 9.958 60.99
5.97 -3.064 2.968 -7.085 -11.01 -3.064 -2.011 1.915 -9 -5.075 0 1.915 -1.053 47.97 -2.011 3.926 63.96
5.975 -6.032 -7.085 -12.06 -10.05 -3.064 -4.021 1.915 -5.075 -2.011 0.9575 2.968 2.968 52.95 -1.053 0 53.91
5.98 -2.011 -9 -10.05 -4.021 0 -6.032 1.915 1.915 -4.021 -5.075 4.979 8.905 50.94 -5.075 0 33.99
5.985 0.9575 -1.053 -1.053 5.936 -2.011 -7.085 11.97 1.915 -5.075 -7.085 11.97 13.98 39.93 -7.085 -1.053 21.93
5.99 -1.053 2.968 7.947 18.96 3.926 0.9575 17.91 6.99 -3.064 0 23.94 14.94 26.91 -4.021 1.915 14.94
5.995 2.968 12.93 16.95 25.95 5.936 3.926 26.91 4.979 -1.053 0 29.97 9.958 14.94 -1.053 6.99 10.92
6 8.905 22.98 15.99 27.96 9.958 10.92 24.99 -2.011 3.926 0 24.99 -1.053 1.915 -3.064 7.947 0
6.005 16.95 30.93 2.968 21.93 11.97 17.91 10.92 -4.021 0.9575 -1.053 13.98 -9 -20.01 -7.085 1.915 -28.05
6.01 30.93 40.98 -11.01 12.93 11.97 17.91 -1.053 -12.06 -3.064 -8.043 0.9575 -24.03 -46.06 -16.09 -15.03 -64.06
6.015 45.96 50.94 -21.06 7.947 13.98 11.97 -11.01 -17.04 -15.03 -9 -15.03 -31.02 -75.07 -21.06 -29.01 -95.08
6.02 52.95 54.96 -22.02 10.92 18.96 10.92 -11.01 -12.06 -22.02 -3.064 -12.06 -24.03 -88.09 -17.04 -30.07 -107
6.025 50.94 52.95 -20.01 16.95 21.93 8.905 -1.053 -7.085 -22.02 3.926 -4.021 -10.05 -88.09 -5.075 -23.08 -97.09
6.03 39.93 42.99 -19.05 19.92 15.99 1.915 -2.011 -5.075 -17.04 7.947 -2.011 -5.075 -77.08 7.947 -11.01 -77.08
6.035 28.92 30.93 -18 13.98 7.947 0.9575 1.915 -11.01 -10.05 2.968 0.9575 -5.075 -60.04 17.91 -5.075 -56.01
6.04 16.95 14.94 -22.02 -1.053 0.9575 -7.085 -8.043 -20.01 -11.01 -2.011 -7.085 -16.09 -45 23.94 -8.043 -40.02
6.045 7.947 4.979 -23.08 -9 -7.085 -13.02 -15.03 -33.03 -15.03 -11.01 -13.02 -29.01 -29.01 23.94 -11.01 -29.01
6.05 1.915 0.9575 -21.06 -18 -10.05 -15.03 -14.08 -35.04 -23.08 -10.05 -15.03 -30.07 -14.08 23.94 -8.043 -14.08
6.055 -1.053 -7.085 -19.05 -24.03 -12.06 -19.05 -8.043 -35.04 -27 -4.021 -7.085 -20.01 0.9575 25.95 0 2.968
6.06 -11.01 -15.03 -19.05 -25.09 -17.04 -23.08 -3.064 -23.08 -27 0.9575 0.9575 -5.075 17.91 27.96 5.936 27.96
6.065 -21.06 -23.08 -23.08 -27 -20.01 -27 -1.053 -11.01 -23.08 -1.053 0 1.915 39.93 29.97 16.95 45.96
6.07 -23.08 -23.08 -29.01 -27 -28.05 -29.01 -11.01 -8.043 -17.04 -13.02 -5.075 3.926 54.96 27.96 15.99 51.99
6.075 -17.04 -17.04 -31.02 -29.01 -31.02 -29.01 -23.08 -9 -15.03 -25.09 -19.05 0.9575 55.92 19.92 7.947 45.96
6.08 -5.075 -3.064 -27 -20.01 -28.05 -25.09 -31.02 -8.043 -17.04 -33.03 -31.02 -2.011 46.92 7.947 -2.011 31.98
6.085 3.926 10.92 -15.03 -8.043 -19.05 -19.05 -29.01 -8.043 -21.06 -31.02 -33.03 -6.032 32.94 -1.053 -5.075 15.99
6.09 13.98 28.92 -2.011 0 -7.085 -11.01 -17.04 -7.085 -25.09 -23.08 -21.06 -3.064 17.91 -11.01 -13.02 5.936
6.095 19.92 40.98 9.958 14.94 -2.011 -5.075 -3.064 0.9575 -21.06 -13.02 -7.085 0 8.905 -17.04 -19.05 1.915
6.1 21.93 44.91 13.98 20.97 1.915 0.9575 1.915 1.915 -15.03 -7.085 0 0 3.926 -15.03 -21.06 -2.011
6.105 23.94 38.97 7.947 23.94 3.926 0 5.936 5.936 -3.064 -3.064 1.915 -3.064 -2.011 -9 -21.06 -3.064
6.11 21.93 26.91 -1.053 19.92 5.936 3.926 0 6.99 0 -3.064 0.9575 -11.01 -7.085 -1.053 -15.03 -13.02
6.115 15.99 12.93 -13.02 11.97 7.947 3.926 -3.064 0.9575 3.926 -1.053 -5.075 -15.03 -19.05 1.915 -1.053 -23.08
6.12 5.936 0.9575 -19.05 3.926 5.936 1.915 -9 -2.011 0 0.9575 -9 -13.02 -29.01 7.947 11.97 -31.02
6.125 0.9575 -3.064 -17.04 0.9575 1.915 -2.011 -11.01 -2.011 0.9575 -2.011 -9 -3.064 -35.04 11.97 29.97 -37.06
6.13 -7.085 -7.085 -11.01 -9 -3.064 -5.075 -11.01 -2.011 -5.075 0.9575 -5.075 1.915 -37.06 9.958 39.93 -41.08
6.135 -15.03 -11.01 -9 -19.05 -15.03 -13.02 -9 1.915 -9 -5.075 -1.053 7.947 -39.07 7.947 39.93 -45
6.14 -21.06 -21.06 -19.05 -29.01 -25.09 -21.06 -7.085 -3.064 -13.02 -11.01 -1.053 9.958 -41.08 1.915 31.98 -49.02
6.145 -27 -31.02 -33.03 -34.09 -33.03 -29.01 -9 -6.032 -15.03 -17.04 -5.075 9.958 -41.08 0.9575 22.98 -47.01
6.15 -27 -39.07 -46.06 -34.09 -33.03 -31.02 -11.01 -10.05 -15.03 -19.05 -11.01 7.947 -33.03 -1.053 12.93 -35.04
6.155 -23.08 -39.07 -53.05 -29.01 -31.02 -29.01 -13.02 -11.01 -15.03 -19.05 -13.02 7.947 -17.04 -1.053 5.936 -15.03
6.16 -17.04 -35.04 -46.06 -22.02 -27 -25.09 -12.06 -9 -13.02 -13.02 -14.08 4.979 -2.011 0.9575 2.968 4.979
6.165 -15.03 -31.02 -34.09 -21.06 -27 -20.01 -12.06 -11.01 -11.01 -9 -16.09 0.9575 19.92 1.915 0 26.91
6.17 -19.05 -33.03 -25.09 -31.02 -31.02 -19.05 -17.04 -17.04 -9 -5.075 -21.06 -7.085 29.97 9.958 -7.085 41.94
6.175 -27 -35.04 -22.02 -42.03 -32.08 -16.09 -22.02 -26.04 -9 -3.064 -24.03 -16.09 36.96 15.99 -13.02 48.93
6.18 -31.02 -35.04 -19.05 -44.04 -30.07 -14.08 -26.04 -31.02 -11.01 0.9575 -24.03 -22.02 38.97 23.94 -17.04 58.98
6.185 -29.01 -29.01 -19.05 -39.07 -23.08 -9 -29.01 -31.02 -9 0.9575 -23.08 -23.08 43.95 25.95 -13.02 63.96
6.19 -17.04 -11.01 -11.01 -23.08 -12.06 -2.011 -23.08 -20.01 -1.053 -3.064 -15.03 -15.03 54.96 21.93 -12.06 66.93
6.195 -3.064 -1.053 -2.011 -6.032 -4.021 1.915 -17.04 -13.02 1.915 -9 -13.02 -13.02 52.95 9.958 -15.03 59.94
6.2 0 4.979 -2.011 -2.011 -1.053 0.9575 -13.02 -5.075 7.947 -21.06 -9 -15.03 43.95 -1.053 -29.01 43.95
6.205 0.9575 2.968 0 -1.053 -3.064 -3.064 -9 -4.021 8.905 -26.04 -8.043 -22.02 25.95 -17.04 -38.01 23.94
6.21 1.915 -3.064 0.9575 0.9575 -9 -4.021 -6.032 -5.075 4.979 -24.03 -6.032 -26.04 3.926 -23.08 -37.06 12.93
6.215 -2.011 -7.085 0.9575 0 -5.075 0.9575 -5.075 -3.064 5.936 -17.04 -3.064 -23.08 -2.011 -19.05 -29.01 7.947
6.22 6.99 2.968 2.968 13.98 2.968 7.947 1.915 4.979 14.94 1.915 -1.053 -6.032 4.979 -6.032 -10.05 15.99
6.225 18.96 16.95 12.93 33.99 19.92 22.98 3.926 21.93 31.98 12.93 6.99 7.947 13.98 -1.053 1.915 19.92
6.23 29.97 28.92 19.92 43.95 33.99 31.98 7.947 27.96 43.95 19.92 9.958 17.91 19.92 3.926 0.9575 11.97
6.235 27.96 30.93 23.94 44.91 40.98 32.94 13.98 30.93 46.92 14.94 13.98 16.95 12.93 1.915 -9 0.9575
6.24 16.95 24.99 17.91 37.92 35.91 19.92 9.958 22.98 38.97 1.915 9.958 6.99 -3.064 1.915 -21.06 -24.03
6.245 5.936 12.93 5.936 25.95 23.94 10.92 10.92 15.99 25.95 -12.06 7.947 -2.011 -24.03 -1.053 -22.02 -41.08
6.25 1.915 6.99 0 17.91 9.958 0 5.936 14.94 8.905 -23.08 5.936 -10.05 -35.04 -2.011 -15.03 -42.03
6.255 0.9575 12.93 1.915 18.96 0.9575 0.9575 7.947 10.92 0.9575 -26.04 7.947 -10.05 -36 -1.053 -1.053 -33.03
6.26 5.936 22.98 1.915 19.92 -2.011 1.915 7.947 7.947 -2.011 -23.08 9.958 -9 -31.02 -1.053 1.915 -23.08
6.265 12.93 30.93 12.93 27.96 1.915 8.905 9.958 7.947 1.915 -14.08 10.92 -7.085 -19.05 0 3.926 -9
6.27 12.93 24.99 22.98 23.94 2.968 5.936 6.99 -1.053 0.9575 -14.08 10.92 -8.043 -10.05 -6.032 0 -3.064
6.275 0 10.92 23.94 13.98 -1.053 -2.011 -2.011 -5.075 -1.053 -23.08 1.915 -17.04 -7.085 -11.01 -11.01 -1.053
6.28 -6.032 2.968 17.91 -2.011 -11.01 -10.05 -6.032 -15.03 -12.06 -32.08 -4.021 -28.05 -5.075 -19.05 -17.04 0
6.285 -14.08 -3.064 9.958 -8.043 -21.06 -23.08 -17.04 -20.01 -26.04 -36 -16.09 -38.01 -5.075 -23.08 -24.03 -3.064
6.29 -19.05 -7.085 -2.011 -17.04 -27 -27 -21.06 -27 -39.07 -29.01 -27 -45 -7.085 -25.09 -27 -5.075
6.295 -17.04 -1.053 0 -16.09 -22.02 -21.06 -19.05 -31.02 -43.09 -13.02 -29.01 -43.09 -6.032 -19.05 -23.08 -3.064
6.3 -11.01 -1.053 -5.075 -13.02 -16.09 -10.05 -13.02 -32.08 -39.07 1.915 -21.06 -37.06 -6.032 -9 -18 0
6.305 -3.064 2.968 -5.075 -7.085 -5.075 -2.011 -13.02 -29.01 -27 11.97 -17.04 -29.01 -1.053 -1.053 -9 7.947
6.31 1.915 6.99 -3.064 -1.053 2.968 4.979 -12.06 -21.06 -13.02 11.97 -12.06 -16.09 8.905 -2.011 0.9575 18.96
