    T[sec] Fp1 Fp2  F7  F3  F4  F8  T3  C3  C4  T4  T5  P3  P4  T6  O1  O2
41 440.2 440.2 440.2 440.2 440.2 440.2 440.2 440.2 440.2 440.2 440.2 440.2 440.2 440.2 440.2 440.2
0.625 -15.05 -39.12 -19.13 -17.2 19.99 11.82 -19.13 -11.18 15.91 1.935 -23.21 -35.04 -53.09 -25.15 -51.16 -93.07
0.63 -8.168 -33.1 -13.11 -15.05 24.93 15.91 -18.06 -16.12 21.92 11.82 -21.06 -65.13 -65.13 -18.06 -81.04 -125.1
0.635 -2.149 -27.08 -7.093 -7.093 36.97 23.86 -14.19 -18.06 27.94 21.92 -11.18 -91.14 -77.17 -16.12 -106.2 -146.2
0.64 -3.009 -19.13 -2.149 -2.149 43.85 21.92 -5.159 -21.06 35.9 27.94 -2.149 -103.2 -91.14 -17.2 -113.1 -145.1
0.645 -8.168 -15.05 5.804 7.953 44.92 18.92 3.869 -19.13 39.98 27.94 7.953 -97.16 -92.21 -8.168 -92.21 -110.1
0.65 -20.21 -21.06 9.888 13.97 33.96 10.96 13.97 -13.11 37.83 25.79 17.84 -73.08 -78.03 -1.075 -58.04 -52.02
0.655 -43.2 -39.12 3.869 5.804 11.82 -1.075 13.97 -5.159 27.94 19.99 13.97 -35.04 -47.07 15.91 -17.2 1.935
0.66 -65.13 -59.11 -9.028 -5.159 -7.093 -22.14 1.935 -2.149 9.888 7.953 0 1.935 -4.084 29.88 18.92 54.81
0.665 -89.2 -87.05 -29.02 -25.15 -37.19 -48.15 -13.11 3.869 -3.009 0.8598 -15.05 35.9 34.82 33.96 47.93 85.98
0.67 -109.2 -113.1 -49.01 -45.14 -63.19 -73.08 -35.04 3.869 -17.2 -13.11 -37.19 59.97 65.99 31.81 63.84 101.9
0.675 -127 -135.2 -69.21 -63.19 -83.19 -93.07 -55.03 0 -27.08 -27.08 -55.03 69.86 79.96 21.92 67.92 99.95
0.68 -141 -151.1 -81.04 -77.17 -97.16 -101 -71.15 -9.028 -37.19 -39.12 -69.21 59.97 73.94 7.953 55.89 89.85
0.685 -151.1 -161.2 -87.05 -89.2 -103.2 -101 -83.19 -29.02 -47.07 -45.14 -79.1 37.83 51.8 0.8598 35.9 67.92
0.69 -147 -157.1 -85.12 -91.14 -101 -91.14 -85.12 -47.07 -55.03 -45.14 -79.1 11.82 21.92 -5.159 15.91 43.85
0.695 -129.2 -141 -71.15 -83.19 -87.05 -73.08 -77.17 -53.09 -57.18 -33.1 -69.21 -2.149 0.8598 -3.009 7.953 23.86
0.7 -99.09 -115.2 -51.16 -63.19 -65.13 -53.09 -59.11 -41.06 -49.01 -17.2 -51.16 0 -13.11 0 9.888 9.888
0.705 -67.06 -83.19 -29.02 -37.19 -39.12 -35.04 -37.19 -17.2 -31.17 -1.075 -29.02 13.97 -17.2 9.888 19.99 1.935
0.71 -41.06 -55.03 -11.18 -13.11 -13.11 -19.13 -17.2 -2.149 -13.11 0 -13.11 21.92 -21.06 13.97 17.84 -3.009
0.715 -27.08 -35.04 -5.159 -3.009 0 -9.028 -7.093 3.869 -1.075 0.8598 -7.093 13.97 -31.17 1.935 1.935 -23.21
0.72 -19.13 -27.08 -5.159 -3.009 7.953 -3.009 -7.093 -1.075 -2.149 -11.18 -9.028 -9.028 -51.16 -15.05 -25.15 -57.18
0.725 -15.05 -23.21 -5.159 -9.028 13.97 -2.149 -7.093 -15.05 0.8598 -19.13 -11.18 -41.06 -71.15 -39.12 -55.03 -93.07
0.73 -7.093 -19.13 -2.149 -5.159 21.92 7.953 -1.075 -21.06 -1.075 -17.2 -5.159 -59.11 -81.04 -53.09 -65.13 -117.1
0.735 0 -9.028 17.84 5.804 33.96 23.86 9.888 -7.093 1.935 -3.009 7.953 -53.09 -75.02 -51.16 -49.01 -121
0.74 9.888 2.794 43.85 31.81 47.93 39.98 35.9 13.97 19.99 13.97 35.9 -25.15 -55.03 -35.04 -15.05 -105.1
0.745 17.84 16.98 65.99 59.97 59.97 53.95 59.97 43.85 43.85 35.9 61.91 5.804 -33.1 -17.2 17.84 -81.04
0.75 13.97 24.93 75.88 73.94 63.84 55.89 71.79 61.91 61.91 49.87 75.88 31.81 -17.2 -3.009 41.91 -61.05
0.755 1.935 16.98 69.86 69.86 57.82 46 65.99 63.84 69.86 51.8 71.79 39.98 -11.18 0 43.85 -51.16
0.76 -11.18 0.8598 46 47.93 37.83 21.92 46 51.8 65.99 46 51.8 33.96 -9.028 3.869 31.81 -41.06
0.765 -33.1 -31.17 13.97 15.91 13.97 -1.075 17.84 33.96 47.93 33.96 19.99 21.92 -5.159 11.82 15.91 -27.08
0.77 -58.04 -61.05 -13.11 -10.1 -10.1 -28.16 -4.084 16.98 23.86 17.84 -5.159 11.82 3.869 21.92 5.804 -1.075
0.775 -82.11 -87.05 -36.11 -36.11 -38.05 -50.08 -30.09 -1.075 -1.075 0.8598 -30.09 9.888 21.92 29.88 5.804 26.87
0.78 -107 -111.1 -53.09 -57.18 -61.05 -65.13 -49.01 -11.18 -19.13 -13.11 -49.01 9.888 41.91 29.88 11.82 57.82
0.785 -122.1 -121 -64.05 -68.14 -76.09 -72.01 -60.19 -24.07 -34.18 -30.09 -60.19 12.9 51.8 19.99 17.84 72.87
0.79 -127 -123.2 -68.14 -76.09 -86.19 -76.09 -70.07 -34.18 -44.06 -40.2 -66.2 10.96 49.87 7.953 18.92 74.8
0.795 -123.2 -117.1 -69.21 -75.02 -89.2 -79.1 -71.15 -41.06 -51.16 -45.14 -69.21 3.869 37.83 -2.149 7.953 61.91
0.8 -107 -101 -62.12 -67.06 -83.19 -69.21 -65.13 -45.14 -52.02 -42.13 -64.05 -2.149 19.99 0 -4.084 48.79
0.805 -85.12 -77.17 -47.07 -57.18 -75.02 -61.05 -53.09 -47.07 -53.09 -35.04 -53.09 -18.06 11.82 7.953 -20.21 43.85
0.81 -63.19 -49.01 -29.02 -37.19 -65.13 -53.09 -35.04 -43.2 -53.09 -33.1 -37.19 -31.17 5.804 11.82 -35.04 39.98
0.815 -39.12 -23.21 -13.11 -20.21 -52.02 -40.2 -16.12 -38.05 -47.07 -31.17 -17.2 -43.2 0 5.804 -42.13 27.94
0.82 -23.21 -3.009 -2.149 -5.159 -39.12 -28.16 -2.149 -37.19 -44.06 -32.03 -4.084 -55.03 -13.11 -5.159 -52.02 0.8598
0.825 -7.093 -1.075 -1.075 -1.075 -29.02 -15.05 0.8598 -43.2 -47.07 -35.04 0.8598 -69.21 -45.14 -27.08 -69.21 -41.06
0.83 7.953 2.794 0.8598 1.935 -11.18 -1.075 1.935 -47.07 -51.16 -31.17 -2.149 -82.11 -90.06 -49.01 -85.12 -95.01
0.835 29.88 14.83 4.944 2.794 3.869 23.86 -2.149 -44.06 -48.15 -16.12 2.794 -85.12 -128.1 -59.11 -86.19 -142.1
0.84 51.8 40.84 25.79 19.99 23.86 49.87 11.82 -23.21 -35.04 0 17.84 -73.08 -141 -57.18 -69.21 -165.1
0.845 70.93 72.87 58.9 46 51.8 70.93 38.91 8.813 -4.084 20.85 42.99 -39.12 -123.2 -46.21 -31.17 -159.1
0.85 81.9 109 82.97 70.93 71.79 81.9 66.85 49.87 25.79 33.96 65.99 -1.075 -88.13 -34.18 1.935 -134.1
0.855 86.84 126.8 84.9 84.9 77.81 78.89 75.88 72.87 48.79 36.97 69 16.98 -53.09 -22.14 13.97 -104
0.86 81.9 116.9 56.96 66.85 71.79 69.86 60.83 61.91 55.89 27.94 53.95 13.97 -30.09 -6.019 -1.075 -80.18
0.865 74.8 80.82 14.83 29.88 55.89 56.96 24.93 20.85 40.84 20.85 14.83 -7.093 -13.11 4.944 -25.15 -51.16
0.87 59.97 40.84 -25.15 -11.18 33.96 46 -15.05 -21.06 23.86 19.99 -21.06 -41.06 0.8598 23.86 -53.09 -13.11
0.875 49.87 8.813 -48.15 -44.06 17.84 33.96 -45.14 -54.17 12.9 24.93 -46.21 -53.09 26.87 47.93 -56.1 32.89
0.88 37.83 -1.075 -55.03 -54.17 3.869 18.92 -54.17 -59.11 5.804 25.79 -57.18 -46.21 64.91 63.84 -41.06 87.91
0.885 29.88 8.813 -47.07 -49.01 -3.009 0 -49.01 -45.14 5.804 23.86 -51.16 -25.15 97.8 71.79 -13.11 129.8
0.89 23.86 26.87 -34.18 -31.17 -13.11 -10.1 -34.18 -27.08 2.794 10.96 -38.05 -1.075 109.8 65.99 2.794 146.8
0.895 23.86 44.92 -25.15 -20.21 -20.21 -14.19 -26.01 -20.21 -7.093 -3.009 -29.02 5.804 99.95 46 12.9 138
0.9 23.86 50.94 -19.13 -17.2 -23.21 -7.093 -23.21 -23.21 -21.06 -15.05 -25.15 5.804 69.86 23.86 15.91 113.9
0.905 35.9 54.81 -11.18 -13.11 -11.18 5.804 -15.05 -25.15 -27.08 -17.2 -13.11 12.9 46 5.804 23 92
0.91 51.8 64.91 -1.075 -5.159 1.935 25.79 -5.159 -13.11 -22.14 -14.19 0 24.93 29.88 -1.075 32.89 74.8
0.915 69.86 84.9 15.91 5.804 19.99 35.9 5.804 0 -7.093 -7.093 11.82 37.83 25.79 -7.093 43.85 59.97
0.92 85.98 109 34.82 26.87 32.89 40.84 24.93 20.85 2.794 -2.149 30.95 44.92 21.92 -13.11 46.86 42.99
0.925 94.79 124.9 46.86 44.92 36.97 38.91 40.84 30.95 8.813 -8.168 46.86 36.97 9.888 -23.21 33.96 16.98
0.93 103.8 138.9 57.82 57.82 37.83 43.85 53.95 27.94 3.869 -13.11 57.82 17.84 -7.093 -33.1 11.82 -11.18
0.935 120.8 144.9 69 69 46.86 58.9 64.91 24.93 4.944 -10.1 69 1.935 -31.17 -43.2 -1.075 -42.13
0.94 140.8 155 84.9 84.9 66.85 82.97 76.95 30.95 11.82 0.8598 77.81 -1.075 -45.14 -47.07 -11.18 -65.13
0.945 161.9 168.9 99.95 97.8 93.93 109.8 87.91 43.85 29.88 19.99 87.91 -1.075 -49.01 -47.07 -15.05 -83.19
0.95 181 186.8 112 112 121.9 127.9 97.8 59.97 57.82 43.85 95.87 -1.075 -47.07 -41.06 -19.13 -99.09
0.955 185.9 198.8 109.8 115.9 138 132 99.95 65.99 81.9 63.84 93.93 -7.093 -45.14 -37.19 -29.02 -115.2
0.96 178 196.9 89.85 106 132 119.9 89.85 53.95 95.87 71.79 81.9 -21.06 -47.07 -33.1 -43.2 -129.2
0.965 158 175 59.97 79.96 112 99.95 65.99 27.94 97.8 71.79 57.82 -37.19 -45.14 -29.02 -55.03 -127
0.97 135.8 144.9 27.94 47.93 85.98 79.96 37.83 1.935 89.85 63.84 31.81 -47.07 -33.1 -19.13 -55.03 -105.1
0.975 117.8 115 5.804 17.84 61.91 65.99 11.82 -11.18 77.81 55.89 7.953 -41.06 -7.093 -3.009 -41.06 -61.05
0.98 103.8 92.86 0.8598 1.935 46 55.89 0.8598 -13.11 67.92 43.85 0.8598 -25.15 23.86 7.953 -17.2 -7.093
0.985 89.85 82.97 0 -2.149 29.88 43.85 -3.009 -3.009 57.82 29.88 -3.009 -3.009 61.91 17.84 1.935 33.96
0.99 73.94 76.95 7.953 3.869 13.97 27.94 -2.149 1.935 49.87 11.82 -2.149 9.888 85.98 19.99 19.99 63.84
0.995 51.8 70.93 11.82 9.888 -5.159 3.869 3.869 7.953 37.83 -1.075 5.804 21.92 95.87 13.97 29.88 77.81
1 25.79 58.9 13.97 11.82 -31.17 -19.13 7.953 7.953 23.86 -17.2 13.97 29.88 92 7.953 33.96 79.96
1.005 1.935 44.92 11.82 9.888 -53.09 -41.06 9.888 5.804 5.804 -27.08 15.91 35.9 79.96 1.935 37.83 79.96
1.01 -7.093 30.95 9.888 3.869 -67.06 -53.09 9.888 5.804 -7.093 -29.02 13.97 41.91 67.92 1.935 39.98 81.9
1.015 -13.11 24.93 9.888 1.935 -69.21 -53.09 11.82 9.888 -23.21 -31.17 11.82 46 55.89 0 43.85 78.89
1.02 -9.028 24.93 13.97 3.869 -59.11 -39.12 15.91 11.82 -37.19 -31.17 11.82 47.93 41.91 -2.149 43.85 69
1.025 0 30.95 19.99 9.888 -41.06 -19.13 21.92 13.97 -45.14 -29.02 13.97 43.85 21.92 -5.159 41.91 43.85
1.03 19.99 40.84 25.79 19.99 -21.06 0.8598 25.79 15.91 -49.01 -27.08 19.99 37.83 0 -16.12 31.81 16.98
1.035 39.98 54.81 33.96 31.81 -3.009 9.888 31.81 17.84 -45.14 -21.06 27.94 27.94 -19.13 -26.01 21.92 -8.168
1.04 57.82 69 41.91 46 5.804 21.92 39.98 23.86 -33.1 -11.18 35.9 17.84 -37.19 -35.04 9.888 -33.1
1.045 69.86 84.9 51.8 57.82 24.93 34.82 49.87 29.88 -15.05 -2.149 43.85 7.953 -43.2 -34.18 0 -53.09
1.05 78.89 98.88 59.97 65.99 42.99 50.94 59.97 35.9 5.804 15.91 49.87 -2.149 -41.06 -32.03 -3.009 -75.02
1.055 85.98 106.8 63.84 67.92 63.84 69.86 63.84 37.83 37.83 33.96 53.95 -9.028 -31.17 -31.17 -15.05 -97.16
1.06 90.92 109 59.97 61.91 86.84 88.99 57.82 32.89 69.86 53.95 49.87 -25.15 -24.07 -25.15 -33.1 -118
1.065 94.79 98.88 46 47.93 103 98.88 41.91 16.98 93.93 67.92 39.98 -45.14 -22.14 -19.13 -57.18 -131.1
1.07 92 80.82 25.79 31.81 106 95.87 23.86 -1.075 99.95 75.88 23.86 -69.21 -31.17 -13.11 -87.05 -131.1
1.075 82.97 56.96 5.804 15.91 93.93 77.81 5.804 -26.01 89.85 73.94 5.804 -97.16 -40.2 0 -111.1 -112.2
1.08 61.91 34.82 -3.009 3.869 63.84 49.87 -2.149 -46.21 64.91 63.84 -1.075 -113.1 -46.21 15.91 -123.2 -72.01
1.085 29.88 14.83 -7.093 0.8598 29.88 21.92 0.8598 -61.05 33.96 47.93 -7.093 -117.1 -45.14 35.9 -113.1 -21.06
1.09 0 4.944 -4.084 1.935 0.8598 -1.075 -2.149 -60.19 6.878 29.88 -3.009 -98.02 -34.18 53.95 -84.04 29.88
1.095 -19.13 -1.075 0.8598 1.935 -24.07 -13.11 0.8598 -46.21 -7.093 13.97 0.8598 -59.11 -15.05 60.83 -40.2 78.89
1.1 -36.11 -13.11 -1.075 -3.009 -43.2 -28.16 0 -28.16 -14.19 -2.149 -1.075 -17.2 0.8598 58.9 0 109
1.105 -45.14 -31.17 -11.18 -12.04 -52.02 -39.12 -12.04 -10.1 -19.13 -13.11 -9.028 19.99 23.86 46.86 36.97 120.8
1.11 -49.01 -47.07 -22.14 -22.14 -59.11 -44.06 -23.21 0 -20.21 -25.15 -17.2 46.86 36.97 27.94 60.83 117.8
1.115 -51.16 -59.11 -29.02 -29.02 -59.11 -49.01 -27.08 0 -27.08 -39.12 -23.21 61.91 43.85 3.869 75.88 107.9
1.12 -49.01 -53.09 -27.08 -29.02 -59.11 -49.01 -25.15 4.944 -36.11 -49.01 -19.13 71.79 44.92 -9.028 89.85 103
1.125 -46.21 -43.2 -19.13 -21.06 -55.03 -45.14 -13.11 16.98 -49.01 -57.18 -9.028 81.9 40.84 -22.14 99.95 100.8
1.13 -39.12 -33.1 -13.11 -13.11 -57.18 -43.2 -5.159 31.81 -59.11 -57.18 -3.009 97.8 41.91 -23.21 109.8 101.9
1.135 -30.09 -27.08 -7.093 -9.028 -58.04 -40.2 -3.009 48.79 -59.11 -47.07 -1.075 107.9 48.79 -9.028 109.8 101.9
1.14 -26.01 -31.17 -9.028 -9.028 -54.17 -34.18 -7.093 58.9 -49.01 -27.08 -5.159 106 56.96 5.804 99.95 88.99
1.145 -27.08 -43.2 -11.18 -11.18 -43.2 -27.08 -13.11 53.95 -25.15 0.8598 -11.18 87.91 57.82 23.86 75.88 59.97
1.15 -30.09 -45.14 -11.18 -11.18 -26.01 -10.1 -15.05 43.85 -2.149 19.99 -13.11 55.89 46 30.95 49.87 19.99
1.155 -27.08 -39.12 -1.075 -5.159 0 4.944 -9.028 33.96 25.79 37.83 -9.028 23.86 21.92 20.85 19.99 -21.06
1.16 -15.05 -15.05 13.97 5.804 21.92 25.79 3.869 27.94 43.85 47.93 0 3.869 -1.075 0 0 -69.21
1.165 3.869 16.98 35.9 29.88 46 46 27.94 29.88 53.95 49.87 19.99 -1.075 -27.08 -12.04 -5.159 -98.02
1.17 29.88 46.86 55.89 51.8 63.84 57.82 47.93 33.96 55.89 51.8 41.91 -3.009 -35.04 -16.12 -9.028 -100.2
1.175 49.87 60.83 59.97 61.91 73.94 61.91 57.82 33.96 57.82 55.89 51.8 -3.009 -21.06 -5.159 -13.11 -75.02
1.18 49.87 48.79 47.93 53.95 71.79 53.95 51.8 21.92 59.97 57.82 47.93 -13.11 0.8598 15.91 -23.21 -30.09
1.185 25.79 14.83 21.92 31.81 53.95 33.96 29.88 0 55.89 51.8 27.94 -31.17 17.84 41.91 -39.12 14.83
1.19 -11.18 -29.02 -3.009 0 21.92 3.869 1.935 -23.21 43.85 33.96 1.935 -51.16 29.88 63.84 -53.09 53.95
1.195 -57.18 -77.17 -27.08 -23.21 -15.05 -25.15 -19.13 -45.14 19.99 9.888 -19.13 -61.05 27.94 73.94 -53.09 83.83
1.2 -95.01 -111.1 -41.06 -41.06 -51.16 -51.16 -35.04 -55.03 -3.009 -7.093 -35.04 -53.09 21.92 75.88 -37.19 99.95
1.205 -113.1 -127 -43.2 -47.07 -73.08 -67.06 -43.2 -49.01 -23.21 -15.05 -39.12 -23.21 23.86 69.86 -3.009 107.9
1.21 -111.1 -125.1 -37.19 -43.2 -79.1 -69.21 -45.14 -29.02 -29.02 -13.11 -37.19 11.82 35.9 57.82 33.96 113.9
1.215 -101 -115.2 -33.1 -37.19 -73.08 -67.06 -41.06 -1.075 -25.15 -5.159 -29.02 55.89 57.82 41.91 71.79 115.9
1.22 -93.07 -103.2 -27.08 -31.17 -65.13 -67.06 -35.04 23.86 -21.06 -5.159 -23.21 89.85 77.81 25.79 97.8 113.9
1.225 -93.07 -97.16 -25.15 -25.15 -65.13 -73.08 -27.08 47.93 -23.21 -19.13 -19.13 112 87.91 7.953 109.8 103.8
1.23 -101 -101 -21.06 -21.06 -73.08 -85.12 -17.2 65.99 -35.04 -39.12 -13.11 119.9 81.9 -3.009 112 87.91
1.235 -115.2 -109.2 -19.13 -17.2 -85.12 -93.07 -11.18 69.86 -53.09 -55.03 -9.028 115.9 65.99 -15.05 107.9 67.92
1.24 -123.2 -119.1 -15.05 -17.2 -91.14 -93.07 -9.028 61.91 -65.13 -61.05 -7.093 106 49.87 -25.15 101.9 53.95
1.245 -124 -125.1 -15.05 -19.13 -85.12 -85.12 -11.18 46 -65.13 -53.09 -7.093 89.85 39.98 -29.02 87.91 41.91
1.25 -116.1 -127 -15.05 -21.06 -72.01 -70.07 -13.11 23.86 -49.01 -33.1 -9.028 69.86 33.96 -31.17 65.99 27.94
1.255 -109.2 -123.2 -15.05 -21.06 -57.18 -57.18 -15.05 3.869 -27.08 -13.11 -11.18 41.91 25.79 -27.08 31.81 5.804
1.26 -100.2 -113.1 -14.19 -18.06 -44.06 -48.15 -12.04 -9.028 -7.093 0.8598 -13.11 5.804 7.953 -25.15 -5.159 -25.15
1.265 -94.15 -103.2 -14.19 -16.12 -38.05 -44.06 -10.1 -25.15 -2.149 -2.149 -12.04 -33.1 -15.05 -27.08 -49.01 -69.21
1.27 -87.05 -91.14 -13.11 -13.11 -35.04 -41.06 -9.028 -35.04 0.8598 0.8598 -13.11 -73.08 -49.01 -31.17 -85.12 -111.1
1.275 -79.1 -79.1 -8.168 -8.168 -28.16 -34.18 -4.084 -43.2 -6.019 -2.149 -8.168 -99.09 -79.1 -37.19 -103.2 -141
1.28 -71.15 -69.21 1.935 0 -17.2 -25.15 1.935 -43.2 -14.19 -2.149 1.935 -105.1 -97.16 -41.06 -97.16 -149.2
1.285 -65.13 -61.05 9.888 3.869 -9.028 -17.2 7.953 -37.19 -17.2 -2.149 7.953 -87.05 -93.07 -39.12 -75.02 -133.1
1.29 -62.12 -53.09 23.86 15.91 -2.149 -11.18 20.85 -25.15 -10.1 4.944 20.85 -58.04 -73.08 -29.02 -45.14 -100.2
1.295 -63.19 -55.03 23.86 17.84 4.944 -6.019 23.86 -8.168 -1.075 12.9 21.92 -28.16 -41.06 -14.19 -19.13 -62.12
1.3 -73.08 -71.15 11.82 9.888 3.869 -9.028 15.91 0 15.91 17.84 11.82 -5.159 -3.009 -2.149 -1.075 -29.02
1.305 -79.1 -89.2 -2.149 0 0 -13.11 0.8598 8.813 35.9 25.79 -3.009 4.944 29.88 18.92 3.869 0.8598
1.31 -88.13 -107 -22.14 -18.06 -9.028 -25.15 -20.21 12.9 47.93 27.94 -20.21 12.9 63.84 36.97 11.82 30.95
1.315 -95.01 -117.1 -33.1 -31.17 -19.13 -35.04 -35.04 15.91 51.8 25.79 -33.1 19.99 92 47.93 19.99 59.97
1.32 -99.09 -115.2 -30.09 -30.09 -30.09 -48.15 -37.19 23 48.79 20.85 -29.02 33.96 112.8 56.96 32.89 89.85
1.325 -108.1 -111.1 -25.15 -25.15 -46.21 -65.13 -29.02 25.79 33.96 5.804 -22.14 43.85 118.9 51.8 44.92 107.9
1.33 -121 -113.1 -25.15 -25.15 -63.19 -79.1 -25.15 23.86 7.953 -9.028 -15.05 51.8 107.9 35.9 55.89 115.9
1.335 -138.2 -123.2 -34.18 -30.09 -77.17 -89.2 -25.15 19.99 -12.04 -26.01 -16.12 54.81 89.85 16.98 59.97 106.8
1.34 -151.1 -145.1 -48.15 -47.07 -93.07 -96.08 -39.12 -1.075 -43.2 -41.06 -30.09 48.79 54.81 0 53.95 86.84
1.345 -159.1 -157.1 -61.05 -62.12 -99.09 -94.15 -54.17 -22.14 -65.13 -45.14 -45.14 30.95 19.99 -13.11 31.81 56.96
1.35 -159.1 -161.2 -66.2 -71.15 -101 -88.13 -63.19 -50.08 -89.2 -43.2 -58.04 6.878 -10.1 -14.19 9.888 24.93
1.355 -154.1 -151.1 -66.2 -72.01 -99.09 -85.12 -65.13 -71.15 -104 -40.2 -62.12 -16.12 -39.12 -6.019 -15.05 -1.075
1.36 -155.2 -145.1 -65.13 -67.06 -101 -91.14 -63.19 -85.12 -119.1 -41.06 -61.05 -43.2 -69.21 -3.009 -43.2 -17.2
1.365 -156.1 -145.1 -67.06 -63.19 -108.1 -97.16 -59.11 -91.14 -125.1 -47.07 -58.04 -67.06 -88.13 -5.159 -66.2 -39.12
1.37 -167 -157.1 -70.07 -66.2 -110.1 -100.2 -61.05 -94.15 -120.2 -48.15 -57.18 -83.19 -104 -18.06 -84.04 -59.11
1.375 -165.1 -165.1 -69.21 -67.06 -105.1 -95.01 -61.05 -95.01 -103.2 -43.2 -59.11 -97.16 -113.1 -33.1 -93.07 -81.04
1.38 -146.2 -155.2 -54.17 -62.12 -85.12 -71.15 -54.17 -82.11 -71.15 -23.21 -52.02 -94.15 -105.1 -38.05 -87.05 -92.21
1.385 -111.1 -127 -34.18 -44.06 -47.07 -37.19 -37.19 -60.19 -23.21 3.869 -37.19 -80.18 -83.19 -30.09 -69.21 -96.08
1.39 -75.02 -91.14 -11.18 -21.06 -11.18 -5.159 -17.2 -25.15 11.82 29.88 -17.2 -59.11 -51.16 -17.2 -45.14 -87.05
1.395 -41.06 -55.03 0 1.935 14.83 12.9 0 4.944 46.86 50.94 1.935 -34.18 -19.13 1.935 -25.15 -68.14
1.4 -26.01 -39.12 1.935 7.953 29.88 19.99 6.878 29.88 60.83 48.79 2.794 -16.12 0.8598 3.869 -15.05 -44.06
1.405 -25.15 -39.12 -3.009 1.935 29.88 11.82 0 35.9 57.82 33.96 0.8598 -9.028 7.953 5.804 -15.05 -21.06
1.41 -29.02 -45.14 -16.12 -6.019 17.84 0 -8.168 25.79 38.91 10.96 -10.1 -13.11 11.82 3.869 -19.13 0
1.415 -35.04 -53.09 -28.16 -22.14 -1.075 -16.12 -24.07 3.869 16.98 -10.1 -22.14 -11.18 21.92 3.869 -13.11 31.81
1.42 -45.14 -59.11 -39.12 -35.04 -25.15 -39.12 -37.19 -9.028 -5.159 -29.02 -33.1 0.8598 37.83 7.953 0 63.84
1.425 -58.04 -63.19 -48.15 -50.08 -56.1 -58.04 -50.08 -23.21 -31.17 -39.12 -42.13 11.82 53.95 15.91 21.92 89.85
1.43 -76.09 -73.08 -62.12 -64.05 -86.19 -76.09 -64.05 -29.02 -53.09 -43.2 -55.03 29.88 65.99 17.84 41.91 103.8
1.435 -87.05 -79.1 -71.15 -77.17 -103.2 -81.04 -73.08 -31.17 -69.21 -41.06 -65.13 39.98 67.92 15.91 53.95 107.9
1.44 -80.18 -69.21 -67.06 -77.17 -98.02 -70.07 -71.15 -31.17 -77.17 -39.12 -65.13 41.91 55.89 9.888 55.89 97.8
1.445 -58.04 -51.16 -51.16 -61.05 -73.08 -47.07 -57.18 -29.02 -71.15 -33.1 -53.09 35.9 39.98 1.935 47.93 79.96
1.45 -31.17 -31.17 -29.02 -37.19 -35.04 -21.06 -35.04 -23.21 -53.09 -25.15 -33.1 29.88 21.92 -1.075 33.96 51.8
1.455 -11.18 -13.11 -13.11 -15.05 -3.009 0.8598 -17.2 -13.11 -29.02 -17.2 -15.05 17.84 3.869 -13.11 15.91 15.91
1.46 -11.18 -11.18 -7.093 -5.159 9.888 3.869 -7.093 -7.093 -9.028 -13.11 -7.093 1.935 -7.093 -31.17 -1.075 -17.2
1.465 -25.15 -23.21 -13.11 -9.028 7.953 -2.149 -7.093 -7.093 -2.149 -11.18 -9.028 -11.18 -25.15 -47.07 -23.21 -53.09
1.47 -43.2 -37.19 -19.13 -17.2 -2.149 -7.093 -13.11 -13.11 0 -17.2 -15.05 -31.17 -43.2 -59.11 -37.19 -81.04
1.475 -47.07 -45.14 -19.13 -19.13 -7.093 -15.05 -17.2 -21.06 -2.149 -23.21 -17.2 -41.06 -55.03 -61.05 -41.06 -93.07
1.48 -37.19 -41.06 -11.18 -13.11 -7.093 -15.05 -11.18 -25.15 0.8598 -29.02 -11.18 -43.2 -63.19 -53.09 -35.04 -93.07
1.485 -19.13 -29.02 -1.075 -5.159 -1.075 -11.18 -5.159 -25.15 -2.149 -29.02 -5.159 -37.19 -63.19 -39.12 -31.17 -85.12
1.49 -5.159 -17.2 0.8598 0.8598 3.869 -5.159 -1.075 -23.21 1.935 -23.21 -5.159 -37.19 -63.19 -29.02 -37.19 -81.04
1.495 0.8598 -9.028 -7.093 -5.159 7.953 -1.075 -9.028 -27.08 5.804 -9.028 -15.05 -49.01 -65.13 -23.21 -57.18 -85.12
1.5 -1.075 -7.093 -19.13 -17.2 5.804 -1.075 -21.06 -35.04 7.953 1.935 -29.02 -69.21 -65.13 -21.06 -79.1 -93.07
1.505 -2.149 -7.093 -29.02 -27.08 0 -2.149 -29.02 -43.2 9.888 13.97 -37.19 -87.05 -63.19 -19.13 -93.07 -99.09
1.51 -2.149 -5.159 -31.17 -27.08 -3.009 -2.149 -31.17 -45.14 9.888 23.86 -33.1 -89.2 -57.18 -15.05 -87.05 -95.01
1.515 -3.009 -5.159 -23.21 -19.13 -13.11 -3.009 -23.21 -37.19 9.888 23.86 -21.06 -71.15 -45.14 -9.028 -65.13 -81.04
1.52 0 0.8598 -12.04 -11.18 -14.19 0 -13.11 -24.07 2.794 17.84 -7.093 -45.14 -37.19 0.8598 -39.12 -55.03
1.525 -1.075 6.878 -4.084 -5.159 -16.12 0 -4.084 -12.04 -6.019 3.869 0 -23.21 -35.04 5.804 -18.06 -25.15
1.53 5.804 18.92 -3.009 -7.093 -15.05 -3.009 -1.075 -9.028 -31.17 -11.18 -1.075 -11.18 -41.06 11.82 -13.11 -2.149
1.535 14.83 28.8 -6.019 -8.168 -14.19 -7.093 -2.149 -14.19 -58.04 -35.04 -6.019 -8.168 -55.03 9.888 -12.04 17.84
1.54 21.92 32.89 -12.04 -12.04 -18.06 -15.05 -8.168 -26.01 -88.13 -57.18 -12.04 -6.019 -65.13 1.935 -6.019 31.81
1.545 23.86 26.87 -21.06 -19.13 -21.06 -21.06 -19.13 -35.04 -111.1 -71.15 -21.06 -3.009 -71.15 -7.093 -2.149 35.9
1.55 23.86 16.98 -29.02 -24.07 -17.2 -16.12 -28.16 -35.04 -113.1 -71.15 -28.16 2.794 -62.12 -15.05 14.83 38.91
1.555 28.8 10.96 -35.04 -30.09 -5.159 0 -36.11 -31.17 -97.16 -59.11 -34.18 12.9 -42.13 -15.05 21.92 38.91
1.56 39.98 18.92 -29.02 -27.08 7.953 17.84 -35.04 -29.02 -63.19 -35.04 -35.04 11.82 -15.05 -3.009 15.91 39.98
1.565 63.84 40.84 -10.1 -13.11 36.97 38.91 -19.13 -26.01 -20.21 -13.11 -23.21 5.804 6.878 9.888 5.804 44.92
1.57 89.85 76.95 7.953 0 58.9 55.89 -1.075 -19.13 15.91 -2.149 -4.084 -1.075 24.93 19.99 0 42.99
1.575 106 106.8 27.94 21.92 69.86 57.82 21.92 -13.11 39.98 5.804 11.82 -3.009 31.81 19.99 -1.075 33.96
1.58 115.9 124.9 41.91 36.97 76.95 59.97 39.98 0.8598 49.87 8.813 31.81 2.794 36.97 14.83 5.804 20.85
1.585 116.9 135 41.91 46 74.8 63.84 46 24.93 53.95 9.888 37.83 21.92 34.82 7.953 24.93 4.944
1.59 119.9 136.9 46 47.93 79.96 71.79 47.93 53.95 59.97 15.91 40.84 41.91 36.97 7.953 39.98 -5.159
1.595 130.9 138.9 46 51.8 80.82 75.88 49.87 74.8 65.99 25.79 46 53.95 40.84 19.99 44.92 -16.12
1.6 146 146.8 53.95 58.9 80.82 77.81 53.95 85.98 77.81 36.97 53.95 54.81 42.99 32.89 41.91 -22.14
1.605 153.9 156.9 63.84 61.91 75.88 75.88 59.97 79.96 85.98 43.85 57.82 47.93 33.96 39.98 31.81 -27.08
1.61 159.9 162.9 67.92 65.99 66.85 69.86 62.98 69.86 87.91 47.93 58.9 33.96 18.92 35.9 23 -32.03
1.615 155.8 158.8 60.83 61.91 56.96 60.83 53.95 56.96 76.95 39.98 51.8 25.79 -2.149 19.99 9.888 -44.06
1.62 147.9 149 49.87 47.93 47.93 53.95 43.85 47.93 53.95 29.88 41.91 15.91 -25.15 0 3.869 -53.09
1.625 140.8 142.9 43.85 42.99 46 52.88 38.91 46 25.79 11.82 36.97 18.92 -40.2 -11.18 5.804 -54.17
1.63 132 136.9 41.91 40.84 43.85 46.86 38.91 39.98 0.8598 -1.075 38.91 24.93 -46.21 -25.15 12.9 -42.13
1.635 123.8 132.8 37.83 35.9 31.81 37.83 37.83 29.88 -27.08 -19.13 39.98 33.96 -45.14 -33.1 23.86 -19.13
1.64 109.8 118.9 30.95 32.89 16.98 23.86 36.97 14.83 -52.02 -31.17 36.97 38.91 -37.19 -35.04 34.82 5.804
1.645 86.84 96.94 16.98 16.98 -2.149 7.953 23 1.935 -76.09 -39.12 24.93 38.91 -27.08 -33.1 40.84 27.94
1.65 63.84 70.93 -2.149 -2.149 -21.06 -3.009 1.935 -13.11 -91.14 -37.19 3.869 35.9 -13.11 -23.21 41.91 47.93
1.655 46.86 52.88 -10.1 -13.11 -30.09 -4.084 -8.168 -14.19 -88.13 -27.08 -10.1 35.9 1.935 -7.093 44.92 59.97
1.66 40.84 44.92 -16.12 -19.13 -22.14 -1.075 -17.2 -8.168 -68.14 -13.11 -21.06 39.98 25.79 7.953 41.91 65.99
1.665 43.85 48.79 -15.05 -17.2 -3.009 13.97 -17.2 0 -35.04 0 -21.06 47.93 47.93 25.79 43.85 67.92
1.67 62.98 58.9 -9.028 -9.028 17.84 36.97 -13.11 15.91 0 13.97 -13.11 53.95 61.91 33.96 49.87 61.91
1.675 84.9 66.85 0.8598 -1.075 41.91 58.9 -5.159 29.88 37.83 23.86 -3.009 55.89 67.92 29.88 55.89 47.93
1.68 103.8 72.87 7.953 3.869 61.91 71.79 -2.149 43.85 63.84 27.94 1.935 59.97 67.92 17.84 63.84 31.81
1.685 115.9 78.89 21.92 17.84 73.94 75.88 9.888 57.82 77.81 23.86 13.97 63.84 65.99 5.804 69.86 15.91
1.69 113.9 84.9 31.81 29.88 77.81 71.79 21.92 69.86 81.9 19.99 23.86 71.79 65.99 -2.149 71.79 7.953
1.695 101.9 84.9 35.9 35.9 71.79 59.97 31.81 73.94 77.81 19.99 31.81 71.79 67.92 1.935 65.99 7.953
1.7 83.83 76.95 29.88 31.81 57.82 49.87 33.96 63.84 71.79 21.92 29.88 61.91 65.99 9.888 46 9.888
1.705 67.92 64.91 17.84 19.99 43.85 41.91 23.86 39.98 59.97 27.94 19.99 35.9 53.95 21.92 17.84 9.888
1.71 59.97 50.94 1.935 3.869 29.88 37.83 7.953 9.888 47.93 33.96 5.804 3.869 35.9 31.81 -7.093 3.869
1.715 55.89 44.92 -5.159 -3.009 17.84 33.96 -3.009 -9.028 33.96 31.81 -3.009 -23.21 11.82 33.96 -33.1 -1.075
1.72 49.87 44.92 -15.05 -11.18 5.804 21.92 -15.05 -29.02 13.97 19.99 -17.2 -49.01 -9.028 27.94 -51.16 -9.028
1.725 35.9 44.92 -23.21 -19.13 -5.159 1.935 -25.15 -45.14 -7.093 0.8598 -27.08 -65.13 -33.1 11.82 -67.06 -13.11
1.73 13.97 36.97 -29.02 -27.08 -23.21 -15.05 -35.04 -61.05 -39.12 -23.21 -35.04 -79.1 -51.16 0.8598 -79.1 -15.05
1.735 -3.009 24.93 -33.1 -31.17 -39.12 -33.1 -39.12 -77.17 -69.21 -43.2 -37.19 -85.12 -67.06 -15.05 -85.12 -15.05
1.74 -15.05 10.96 -29.02 -29.02 -49.01 -39.12 -35.04 -85.12 -91.14 -53.09 -31.17 -83.19 -75.02 -23.21 -77.17 -17.2
1.745 -19.13 2.794 -15.05 -17.2 -49.01 -39.12 -23.21 -77.17 -97.16 -53.09 -17.2 -65.13 -79.1 -25.15 -53.09 -19.13
1.75 -19.13 -1.075 0.8598 -3.009 -47.07 -39.12 -7.093 -53.09 -89.2 -49.01 -1.075 -35.04 -71.15 -25.15 -17.2 -21.06
1.755 -27.08 -5.159 3.869 2.794 -49.01 -49.01 0 -25.15 -73.08 -45.14 3.869 0.8598 -55.03 -23.21 15.91 -16.12
1.76 -47.07 -23.21 0.8598 -2.149 -59.11 -65.13 0 0.8598 -61.05 -47.07 1.935 27.94 -31.17 -25.15 41.91 -5.159
1.765 -75.02 -49.01 -18.06 -14.19 -71.15 -79.1 -8.168 9.888 -53.09 -47.07 -8.168 47.93 0 -23.21 57.82 10.96
1.77 -93.07 -77.17 -38.05 -34.18 -81.04 -85.12 -28.16 13.97 -47.07 -43.2 -26.01 57.82 18.92 -15.05 61.91 36.97
1.775 -97.16 -93.07 -47.07 -45.14 -75.02 -75.02 -41.06 19.99 -37.19 -33.1 -37.19 59.97 39.98 0.8598 61.91 57.82
1.78 -87.05 -93.07 -42.13 -44.06 -58.04 -53.09 -44.06 23.86 -19.13 -16.12 -38.05 60.83 52.88 11.82 61.91 72.87
1.785 -67.06 -77.17 -22.14 -28.16 -34.18 -29.02 -32.03 35.9 -2.149 -2.149 -26.01 60.83 56.96 21.92 60.83 72.87
1.79 -49.01 -57.18 -5.159 -11.18 -13.11 -11.18 -17.2 43.85 17.84 0 -13.11 57.82 57.82 21.92 59.97 57.82
1.795 -37.19 -37.19 5.804 1.935 0.8598 0 1.935 49.87 32.89 2.794 0 54.81 53.95 11.82 56.96 37.83
1.8 -31.17 -23.21 13.97 9.888 12.9 1.935 9.888 47.93 38.91 -1.075 9.888 44.92 37.83 0 42.99 11.82
1.805 -31.17 -21.06 9.888 11.82 15.91 -1.075 13.97 29.88 37.83 0.8598 13.97 21.92 9.888 -7.093 15.91 -9.028
1.81 -36.11 -21.06 6.878 7.953 11.82 -8.168 10.96 3.869 32.89 -3.009 8.813 -1.075 -20.21 -16.12 -12.04 -33.1
1.815 -48.15 -27.08 3.869 0.8598 -1.075 -18.06 3.869 -21.06 20.85 -11.18 1.935 -45.14 -51.16 -26.01 -49.01 -60.19
1.82 -59.11 -35.04 1.935 -2.149 -9.028 -23.21 -2.149 -45.14 5.804 -11.18 0 -75.02 -75.02 -35.04 -81.04 -83.19
1.825 -59.11 -29.02 10.96 7.953 -12.04 -18.06 3.869 -51.16 0 -6.019 5.804 -88.13 -82.11 -34.18 -85.12 -96.08
1.83 -45.14 -19.13 24.93 24.93 -2.149 -5.159 21.92 -35.04 -4.084 0 23 -76.09 -80.18 -26.01 -72.01 -98.02
1.835 -29.02 -5.159 33.96 38.91 12.9 -1.075 37.83 -7.093 -1.075 7.953 33.96 -52.02 -77.17 -13.11 -46.21 -96.08
1.84 -13.11 -3.009 30.95 40.84 23 1.935 39.98 9.888 -1.075 7.953 34.82 -30.09 -90.06 -6.019 -28.16 -88.13
1.845 -23.21 -23.21 12.9 23.86 12.9 -10.1 21.92 15.91 0 0 13.97 -22.14 -110.1 -8.168 -23.21 -76.09
1.85 -57.18 -61.05 -15.05 -9.028 -17.2 -43.2 -5.159 0 -19.13 -23.21 -11.18 -23.21 -121 -17.2 -25.15 -57.18
1.855 -104 -103.2 -39.12 -40.2 -58.04 -78.03 -33.1 -13.11 -44.06 -41.06 -39.12 -17.2 -101 -22.14 -11.18 -24.07
1.86 -144 -135.2 -52.02 -57.18 -97.16 -102.1 -48.15 -13.11 -62.12 -51.16 -50.08 3.869 -52.02 -22.14 14.83 15.91
1.865 -165.1 -147 -45.14 -57.18 -111.1 -113.1 -43.2 3.869 -59.11 -51.16 -43.2 49.87 19.99 -7.093 67.92 69.86
1.87 -169.2 -141 -25.15 -41.06 -106.2 -106.2 -27.08 46 -38.05 -38.05 -23.21 109 97.8 11.82 124.9 119.9
1.875 -157.1 -127 -9.028 -21.06 -92.21 -94.15 -9.028 81.9 -4.084 -26.01 -3.009 152.8 152 33.96 161 153.9
1.88 -145.1 -119.1 -7.093 -15.05 -79.1 -89.2 -5.159 99.95 15.91 -23.21 0.8598 165.9 165.9 43.85 167.9 152
1.885 -137.1 -113.1 -14.19 -16.12 -70.07 -81.04 -10.1 93.93 25.79 -18.06 -8.168 152.8 152.8 37.83 146.8 126.8
1.89 -133.1 -113.1 -20.21 -22.14 -64.05 -75.02 -20.21 71.79 21.92 -14.19 -20.21 116.9 118.9 23.86 112 88.99
1.895 -125.1 -103.2 -27.08 -27.08 -53.09 -61.05 -25.15 49.87 11.82 -7.093 -27.08 81.9 81.9 7.953 77.81 49.87
1.9 -113.1 -93.07 -24.07 -24.07 -37.19 -43.2 -26.01 33.96 7.953 -2.149 -26.01 55.89 58.9 0 47.93 28.8
1.905 -95.01 -79.1 -20.21 -22.14 -17.2 -21.06 -24.07 19.99 11.82 11.82 -22.14 33.96 44.92 0 21.92 23
1.91 -71.15 -67.06 -21.06 -21.06 0.8598 -3.009 -25.15 5.804 21.92 21.92 -21.06 15.91 37.83 7.953 -2.149 23.86
1.915 -51.16 -59.11 -27.08 -24.07 9.888 3.869 -31.17 -9.028 31.81 29.88 -25.15 -5.159 33.96 17.84 -23.21 18.92
1.92 -33.1 -57.18 -35.04 -31.17 19.99 9.888 -39.12 -31.17 37.83 35.9 -33.1 -35.04 21.92 21.92 -51.16 1.935
1.925 -23.21 -57.18 -39.12 -37.19 27.94 13.97 -41.06 -51.16 41.91 39.98 -39.12 -65.13 3.869 19.99 -73.08 -21.06
1.93 -21.06 -57.18 -39.12 -37.19 35.9 13.97 -37.19 -63.19 46 39.98 -39.12 -89.2 -15.05 9.888 -91.14 -53.09
1.935 -27.08 -61.05 -31.17 -31.17 35.9 9.888 -25.15 -61.05 47.93 37.83 -31.17 -99.09 -41.06 -2.149 -97.16 -81.04
1.94 -41.06 -71.15 -21.06 -21.06 23.86 -1.075 -15.05 -49.01 43.85 25.79 -19.13 -95.01 -65.13 -11.18 -91.14 -99.09
1.945 -65.13 -85.12 -15.05 -15.05 -2.149 -23.21 -11.18 -33.1 27.94 7.953 -11.18 -77.17 -81.04 -23.21 -75.02 -101
1.95 -95.01 -105.1 -15.05 -13.11 -33.1 -49.01 -13.11 -17.2 1.935 -9.028 -11.18 -55.03 -85.12 -33.1 -51.16 -89.2
1.955 -119.1 -121 -19.13 -17.2 -61.05 -65.13 -21.06 0.8598 -17.2 -27.08 -15.05 -29.02 -75.02 -39.12 -21.06 -65.13
1.96 -131.1 -125.1 -23.21 -19.13 -71.15 -67.06 -25.15 11.82 -29.02 -33.1 -21.06 -3.009 -53.09 -39.12 5.804 -33.1
1.965 -123.2 -115.2 -23.21 -19.13 -59.11 -53.09 -25.15 27.94 -25.15 -29.02 -21.06 19.99 -21.06 -27.08 31.81 -2.149
1.97 -99.09 -93.07 -19.13 -13.11 -31.17 -29.02 -19.13 41.91 -7.093 -15.05 -17.2 43.85 5.804 -9.028 51.8 27.94
1.975 -69.21 -67.06 -13.11 -5.159 -5.159 -11.18 -9.028 53.95 11.82 -1.075 -9.028 61.91 29.88 1.935 61.91 47.93
1.98 -45.14 -49.01 -7.093 0.8598 3.869 -5.159 -1.075 53.95 25.79 0 -1.075 65.99 37.83 9.888 59.97 51.8
1.985 -35.04 -39.12 -5.159 -1.075 -2.149 -11.18 -1.075 39.98 21.92 -2.149 0.8598 53.95 31.81 5.804 46 41.91
1.99 -35.04 -37.19 -9.028 -11.18 -17.2 -21.06 -7.093 13.97 1.935 -9.028 -5.159 29.88 9.888 -1.075 25.79 25.79
1.995 -32.03 -29.02 -17.2 -23.21 -37.19 -23.21 -17.2 -15.05 -25.15 -21.06 -13.11 1.935 -11.18 -11.18 1.935 9.888
2 -16.12 -9.028 -21.06 -29.02 -41.06 -11.18 -23.21 -47.07 -59.11 -27.08 -21.06 -17.2 -33.1 -13.11 -17.2 5.804
2.005 11.82 18.92 -17.2 -27.08 -25.15 5.804 -23.21 -71.15 -83.19 -23.21 -21.06 -33.1 -43.2 -3.009 -33.1 13.97
2.01 60.83 58.9 -11.18 -17.2 3.869 39.98 -15.05 -81.04 -91.14 -11.18 -15.05 -41.06 -41.06 5.804 -45.14 27.94
2.015 104.9 96.94 -3.009 -5.159 39.98 63.84 -7.093 -83.19 -83.19 0 -7.093 -47.07 -27.08 19.99 -53.09 39.98
2.02 132 118.9 -2.149 0 63.84 79.96 0.8598 -85.12 -65.13 13.97 -1.075 -57.18 -15.05 19.99 -61.05 35.9
2.025 143.8 123 0.8598 1.935 72.87 81.9 0 -84.04 -41.06 21.92 0.8598 -76.09 -11.18 9.888 -74.16 9.888
2.03 143.8 123 1.935 3.869 70.93 84.9 1.935 -84.04 -17.2 23.86 -2.149 -94.15 -13.11 -9.028 -88.13 -19.13
2.035 143.8 126.8 15.91 15.91 67.92 89.85 11.82 -71.15 3.869 27.94 9.888 -101 -15.05 -27.08 -91.14 -49.01
2.04 158.8 149 46 43.85 78.89 104.9 37.83 -36.11 33.96 31.81 36.97 -86.19 -9.028 -30.09 -76.09 -61.05
2.045 181 184.9 85.98 84.9 100.8 120.8 74.8 10.96 65.99 37.83 74.8 -52.02 1.935 -22.14 -44.06 -53.09
2.05 198 216.9 119.9 119.9 117.8 126 109.8 63.84 93.93 41.91 109.8 -13.11 15.91 -7.093 -11.18 -33.1
2.055 201 227 135 136.9 127.9 120.8 129 103.8 110.9 41.91 129 9.888 17.84 -1.075 9.888 -19.13
2.06 184 212.8 123 124.9 112 103.8 123 115 110.9 33.96 120.8 13.97 7.953 -1.075 7.953 -18.06
2.065 149.8 176.9 92 97.8 85.98 81.9 97.8 99.95 92 23.86 95.87 3.869 -11.18 -9.028 -2.149 -27.08
2.07 119.9 136.9 65.99 67.92 61.91 69 69.86 72.87 63.84 14.83 67.92 0 -25.15 -20.21 -2.149 -28.16
2.075 106 112.8 48.79 47.93 48.79 62.98 49.87 50.94 31.81 10.96 48.79 5.804 -17.2 -16.12 10.96 -5.159
2.08 106 103 43.85 42.99 44.92 57.82 40.84 44.92 1.935 8.813 46 37.83 7.953 -1.075 46.86 34.82
2.085 106 104.9 40.84 37.83 38.91 50.94 41.91 48.79 -9.028 6.878 44.92 77.81 47.93 28.8 88.99 85.98
2.09 95.87 103 35.9 31.81 25.79 34.82 35.9 48.79 -25.15 4.944 39.98 110.9 77.81 46.86 118.9 126.8
2.095 77.81 92.86 15.91 15.91 7.953 17.84 23.86 33.96 -43.2 -1.075 27.94 119.9 85.98 47.93 121.9 139.9
2.1 57.82 74.8 -1.075 1.935 -3.009 13.97 6.878 6.878 -52.02 -11.18 8.813 101.9 67.92 26.87 99.95 118.9
2.105 44.92 66.85 -6.019 -12.04 -5.159 20.85 -2.149 -27.08 -60.19 -15.05 -2.149 65.99 31.81 0.8598 61.91 77.81
2.11 51.8 69 -7.093 -17.2 0 35.9 -9.028 -59.11 -61.05 -13.11 -11.18 17.84 -5.159 -17.2 13.97 25.79
2.115 72.87 80.82 -3.009 -12.04 23 56.96 -6.019 -76.09 -53.09 -5.159 -10.1 -20.21 -41.06 -28.16 -20.21 -23.21
2.12 100.8 96.94 1.935 -1.075 48.79 69 0.8598 -82.11 -39.12 0 -2.149 -56.1 -71.15 -30.09 -56.1 -71.15
2.125 117.8 106.8 11.82 7.953 65.99 75.88 5.804 -69.21 -21.06 13.97 3.869 -79.1 -89.2 -29.02 -79.1 -105.1
2.13 132 118.9 25.79 25.79 80.82 82.97 19.99 -46.21 -1.075 27.94 17.84 -84.04 -91.14 -23.21 -86.19 -117.1
2.135 135.8 124.9 47.93 47.93 94.79 93.93 39.98 -16.12 19.99 41.91 35.9 -78.03 -79.1 -17.2 -82.11 -111.1
2.14 135.8 129 69.86 71.79 106 101.9 65.99 11.82 51.8 51.8 57.82 -59.11 -49.01 -5.159 -61.05 -83.19
2.145 135 129 87.91 89.85 109.8 103.8 85.98 46 85.98 57.82 75.88 -33.1 -9.028 1.935 -35.04 -47.07
2.15 126.8 112.8 89.85 93.93 103.8 92 92 73.94 112 55.89 81.9 -7.093 25.79 11.82 -7.093 -13.11
2.155 107.9 84.9 73.94 83.83 79.96 63.84 81.9 92 123.8 47.93 73.94 9.888 57.82 15.91 13.97 5.804
2.16 78.89 48.79 49.87 59.97 43.85 33.96 57.82 97.8 115.9 33.96 53.95 25.79 77.81 17.84 31.81 21.92
2.165 48.79 16.98 25.79 33.96 9.888 9.888 31.81 89.85 93.93 21.92 31.81 37.83 85.98 17.84 43.85 35.9
2.17 19.99 0.8598 9.888 13.97 -7.093 0 13.97 75.88 63.84 11.82 11.82 47.93 92 17.84 51.8 53.95
2.175 3.869 -3.009 1.935 1.935 -13.11 -2.149 5.804 57.82 35.9 5.804 1.935 57.82 97.8 21.92 61.91 71.79
2.18 0.8598 -1.075 0 -2.149 -11.18 -2.149 1.935 43.85 9.888 0 -2.149 67.92 101.9 19.99 71.79 85.98
2.185 -1.075 -1.075 0 0.8598 -9.028 -3.009 1.935 31.81 -9.028 -5.159 -2.149 75.88 97.8 11.82 81.9 85.98
2.19 -3.009 -7.093 0 0.8598 -17.2 -15.05 -2.149 21.92 -35.04 -19.13 -2.149 77.81 79.96 0 81.9 69.86
2.195 -7.093 -17.2 -2.149 -3.009 -29.02 -25.15 -3.009 9.888 -63.19 -33.1 -2.149 69.86 46 -3.009 73.94 46
2.2 -13.11 -31.17 -3.009 -9.028 -39.12 -29.02 -11.18 -5.159 -89.2 -43.2 -3.009 51.8 1.935 -7.093 55.89 23.86
2.205 -23.21 -45.14 -11.18 -17.2 -41.06 -29.02 -17.2 -27.08 -105.1 -45.14 -9.028 31.81 -33.1 -7.093 33.96 5.804
2.21 -31.17 -57.18 -23.21 -25.15 -39.12 -25.15 -23.21 -49.01 -111.1 -39.12 -17.2 11.82 -65.13 -13.11 11.82 -1.075
2.215 -39.12 -69.21 -37.19 -33.1 -31.17 -21.06 -27.08 -63.19 -103.2 -33.1 -27.08 -3.009 -81.04 -23.21 -7.093 -11.18
2.22 -43.2 -75.02 -45.14 -37.19 -21.06 -17.2 -31.17 -71.15 -83.19 -25.15 -35.04 -23.21 -83.19 -33.1 -31.17 -21.06
2.225 -39.12 -73.08 -45.14 -37.19 -9.028 -9.028 -33.1 -69.21 -53.09 -17.2 -37.19 -43.2 -77.17 -33.1 -53.09 -31.17
2.23 -31.17 -61.05 -35.04 -29.02 0 0 -31.17 -61.05 -19.13 -7.093 -33.1 -63.19 -67.06 -19.13 -73.08 -43.2
2.235 -19.13 -47.07 -23.21 -21.06 15.91 13.97 -27.08 -49.01 11.82 1.935 -25.15 -79.1 -55.03 0 -85.12 -57.18
2.24 -11.18 -35.04 -13.11 -13.11 27.94 23.86 -21.06 -35.04 43.85 15.91 -19.13 -87.05 -47.07 17.84 -89.2 -75.02
2.245 -9.028 -35.04 -9.028 -11.18 31.81 23.86 -19.13 -21.06 63.84 25.79 -17.2 -87.05 -45.14 17.84 -87.05 -93.07
2.25 -15.05 -47.07 -13.11 -11.18 23.86 9.888 -19.13 -13.11 69.86 29.88 -19.13 -81.04 -49.01 1.935 -83.19 -105.1
2.255 -26.01 -59.11 -14.19 -15.05 7.953 -5.159 -17.2 -7.093 59.97 23.86 -21.06 -75.02 -50.08 -13.11 -77.17 -99.09
2.26 -42.13 -71.15 -10.1 -13.11 -5.159 -23.21 -11.18 0.8598 43.85 15.91 -15.05 -63.19 -42.13 -23.21 -63.19 -70.07
2.265 -59.11 -79.1 0.8598 -3.009 -21.06 -37.19 -2.149 7.953 29.88 7.953 -1.075 -43.2 -23.21 -13.11 -37.19 -25.15
2.27 -70.07 -77.17 14.83 5.804 -35.04 -43.2 16.98 27.94 20.85 -2.149 14.83 -9.028 8.813 1.935 -2.149 20.85
2.275 -82.11 -77.17 26.87 18.92 -45.14 -50.08 30.95 49.87 14.83 -5.159 30.95 27.94 48.79 19.99 41.91 58.9
2.28 -91.14 -81.04 25.79 21.92 -57.18 -61.05 31.81 63.84 5.804 -19.13 31.81 65.99 79.96 21.92 75.88 75.88
2.285 -93.07 -89.2 15.91 14.83 -71.15 -72.01 20.85 61.91 -4.084 -35.04 26.87 92 92 8.813 92 74.8
2.29 -101 -95.01 1.935 -1.075 -81.04 -80.18 2.794 48.79 -26.01 -49.01 6.878 95.87 81.9 -8.168 92 63.84
2.295 -103.2 -99.09 -15.05 -15.05 -81.04 -79.1 -9.028 25.79 -55.03 -59.11 -3.009 87.91 57.82 -27.08 85.98 49.87
2.3 -92.21 -97.16 -20.21 -22.14 -71.15 -68.14 -17.2 8.813 -71.15 -58.04 -9.028 78.89 32.89 -32.03 80.82 35.9
2.305 -73.08 -87.05 -18.06 -21.06 -51.16 -47.07 -15.05 2.794 -81.04 -50.08 -9.028 69 11.82 -28.16 74.8 24.93
2.31 -53.09 -79.1 -13.11 -15.05 -27.08 -27.08 -7.093 3.869 -79.1 -39.12 -5.159 67.92 -1.075 -23.21 67.92 9.888
2.315 -37.19 -63.19 -6.019 -5.159 -6.019 -9.028 -2.149 9.888 -66.2 -23.21 -6.019 65.99 -16.12 -16.12 57.82 -3.009
2.32 -29.02 -59.11 -12.04 -6.019 1.935 -3.009 -3.009 6.878 -51.16 -13.11 -13.11 50.94 -35.04 -10.1 36.97 -14.19
2.325 -33.1 -63.19 -21.06 -16.12 -1.075 -5.159 -15.05 -1.075 -37.19 -2.149 -24.07 25.79 -53.09 -1.075 13.97 -26.01
2.33 -51.16 -73.08 -34.18 -28.16 -2.149 -15.05 -31.17 -20.21 -23.21 1.935 -35.04 0 -65.13 0.8598 -8.168 -30.09
2.335 -65.13 -87.05 -44.06 -41.06 -8.168 -21.06 -44.06 -39.12 -8.168 11.82 -44.06 -27.08 -62.12 6.878 -24.07 -33.1
2.34 -77.17 -99.09 -51.16 -55.03 -7.093 -23.21 -55.03 -47.07 3.869 19.99 -51.16 -45.14 -53.09 7.953 -39.12 -35.04
2.345 -75.02 -103.2 -52.02 -53.09 -2.149 -15.05 -55.03 -42.13 25.79 30.95 -51.16 -48.15 -33.1 12.9 -48.15 -36.11
2.35 -74.16 -101 -46.21 -50.08 7.953 -6.019 -47.07 -28.16 51.8 36.97 -45.14 -48.15 -16.12 16.98 -52.02 -39.12
2.355 -69.21 -97.16 -35.04 -37.19 15.91 -5.159 -37.19 -11.18 67.92 37.83 -37.19 -43.2 -11.18 23.86 -53.09 -43.2
2.36 -65.13 -85.12 -15.05 -18.06 9.888 -6.019 -18.06 -1.075 74.8 29.88 -18.06 -37.19 -13.11 26.87 -47.07 -39.12
2.365 -65.13 -79.1 0.8598 -2.149 0.8598 -18.06 -2.149 7.953 64.91 13.97 0 -35.04 -23.21 23 -37.19 -40.2
2.37 -71.15 -73.08 5.804 5.804 -21.06 -37.19 7.953 3.869 37.83 -3.009 9.888 -29.02 -41.06 1.935 -23.21 -45.14
2.375 -80.18 -65.13 14.83 10.96 -43.2 -54.17 12.9 0 0.8598 -25.15 18.92 -23.21 -52.02 -19.13 -13.11 -48.15
2.38 -88.13 -65.13 12.9 7.953 -59.11 -67.06 12.9 -1.075 -26.01 -43.2 16.98 -15.05 -60.19 -39.12 -3.009 -54.17
2.385 -91.14 -69.21 5.804 3.869 -63.19 -71.15 5.804 -2.149 -49.01 -51.16 9.888 -1.075 -55.03 -43.2 5.804 -53.09
2.39 -90.06 -71.15 0 0.8598 -61.05 -69.21 -2.149 7.953 -55.03 -53.09 0 11.82 -38.05 -31.17 19.99 -44.06
2.395 -90.06 -81.04 -18.06 -11.18 -59.11 -67.06 -11.18 15.91 -51.16 -51.16 -9.028 27.94 -20.21 -17.2 31.81 -35.04
2.4 -95.01 -93.07 -43.2 -31.17 -63.19 -71.15 -31.17 11.82 -47.07 -47.07 -29.02 35.9 -5.159 -11.18 33.96 -27.08
2.405 -103.2 -101 -69.21 -57.18 -75.02 -79.1 -57.18 -3.009 -51.16 -43.2 -55.03 27.94 -2.149 -13.11 23.86 -21.06
2.41 -105.1 -109.2 -87.05 -85.12 -87.05 -83.19 -79.1 -37.19 -63.19 -35.04 -77.17 11.82 -2.149 -19.13 9.888 -15.05
2.415 -97.16 -109.2 -93.07 -99.09 -89.2 -75.02 -91.14 -67.06 -77.17 -19.13 -89.2 -1.075 -2.149 -15.05 0 -1.075
2.42 -73.08 -93.07 -83.19 -97.16 -75.02 -53.09 -85.12 -81.04 -83.19 -1.075 -83.19 -5.159 1.935 0.8598 0 15.91
2.425 -35.04 -63.19 -59.11 -73.08 -47.07 -19.13 -63.19 -75.02 -77.17 11.82 -59.11 -2.149 9.888 13.97 7.953 31.81
2.43 5.804 -21.06 -29.02 -41.06 -9.028 9.888 -31.17 -53.09 -61.05 17.84 -25.15 9.888 9.888 21.92 15.91 29.88
2.435 49.87 18.92 0.8598 -5.159 21.92 37.83 -1.075 -25.15 -41.06 13.97 0 13.97 0 9.888 11.82 3.869
2.44 87.91 62.98 19.99 17.84 49.87 55.89 17.84 -3.009 -19.13 3.869 19.99 3.869 -19.13 -9.028 -2.149 -33.1
2.445 119.9 98.88 39.98 37.83 73.94 71.79 33.96 13.97 0 0.8598 31.81 -7.093 -43.2 -27.08 -15.05 -75.02
2.45 147.9 129 55.89 53.95 95.87 87.91 49.87 33.96 27.94 1.935 43.85 -19.13 -55.03 -25.15 -23.21 -95.01
2.455 172 152.8 71.79 67.92 115.9 107.9 61.91 51.8 63.84 19.99 55.89 -19.13 -51.16 -3.009 -23.21 -87.05
2.46 187.9 175 79.96 77.81 132 127.9 71.79 65.99 93.93 41.91 67.92 -13.11 -37.19 21.92 -19.13 -59.11
2.465 193.9 184.9 77.81 77.81 135.8 132 73.94 63.84 109.8 53.95 71.79 -11.18 -21.06 46 -19.13 -23.21
2.47 185.9 181 63.84 67.92 119.9 117.8 65.99 46 106 49.87 65.99 -17.2 -9.028 55.89 -27.08 3.869
2.475 167.9 164.9 47.93 51.8 89.85 87.91 53.95 21.92 83.83 31.81 51.8 -29.02 0.8598 53.95 -35.04 31.81
2.48 143.8 144.9 35.9 37.83 55.89 55.89 41.91 1.935 55.89 9.888 37.83 -31.17 13.97 49.87 -33.1 59.97
2.485 129 130.9 30.95 31.81 29.88 35.9 35.9 0.8598 33.96 -2.149 31.81 -15.05 46 53.95 -11.18 89.85
2.49 123 123 30.95 31.81 19.99 31.81 35.9 7.953 23.86 -2.149 30.95 11.82 87.91 57.82 17.84 119.9
2.495 123.8 118.9 27.94 33.96 25.79 39.98 31.81 23.86 25.79 9.888 27.94 46 127.9 57.82 49.87 139.9
2.5 130.9 116.9 24.93 30.95 35.9 52.88 24.93 35.9 29.88 23.86 24.93 67.92 155 46 69.86 143.8
2.505 130.9 110.9 16.98 20.85 43.85 62.98 14.83 35.9 27.94 35.9 14.83 73.94 158.8 29.88 77.81 132
2.51 127.9 100.8 9.888 9.888 47.93 67.92 5.804 29.88 23.86 41.91 7.953 71.79 146 13.97 75.88 113.9
2.515 127.9 100.8 15.91 8.813 46.86 72.87 8.813 25.79 23 43.85 12.9 69.86 135 9.888 77.81 96.94
2.52 132 110.9 27.94 18.92 46.86 76.95 20.85 23.86 24.93 43.85 24.93 71.79 123 13.97 75.88 76.95
2.525 143.8 132.8 37.83 31.81 49.87 77.81 33.96 25.79 31.81 39.98 33.96 69.86 112 17.84 67.92 55.89
2.53 155 161 48.79 51.8 56.96 74.8 49.87 24.93 38.91 27.94 43.85 53.95 93.93 11.82 43.85 26.87
2.535 161 170.9 48.79 57.82 60.83 65.99 47.93 14.83 36.97 9.888 42.99 23.86 59.97 0.8598 9.888 -4.084
2.54 155.8 170.9 43.85 55.89 61.91 53.95 46 3.869 27.94 -1.075 37.83 -5.159 17.84 -19.13 -19.13 -37.19
2.545 146.8 158.8 44.92 52.88 62.98 49.87 44.92 1.935 21.92 -9.028 39.98 -27.08 -10.1 -25.15 -34.18 -49.01
2.55 135.8 144.9 49.87 47.93 65.99 56.96 43.85 2.794 15.91 -7.093 42.99 -29.02 -29.02 -21.06 -26.01 -43.2
2.555 132 136.9 57.82 47.93 61.91 65.99 51.8 19.99 21.92 1.935 51.8 -13.11 -33.1 -5.159 -7.093 -31.17
2.56 135 135 67.92 55.89 63.84 70.93 62.98 34.82 32.89 14.83 61.91 0.8598 -27.08 1.935 0.8598 -21.06
2.565 132 140.8 72.87 56.96 57.82 62.98 65.99 39.98 37.83 21.92 65.99 7.953 -31.17 3.869 0.8598 -17.2
2.57 118.9 142.9 69.86 58.9 46 47.93 63.84 32.89 35.9 15.91 66.85 -2.149 -44.06 0 -8.168 -17.2
2.575 106 138.9 60.83 54.81 35.9 34.82 55.89 19.99 29.88 13.97 55.89 -11.18 -51.16 1.935 -22.14 -13.11
2.58 92.86 123 49.87 47.93 29.88 30.95 46.86 12.9 28.8 12.9 46 -16.12 -43.2 13.97 -22.14 3.869
2.585 83.83 104.9 35.9 35.9 29.88 33.96 35.9 13.97 29.88 19.99 33.96 -7.093 -15.05 33.96 -9.028 35.9
2.59 79.96 84.9 23.86 27.94 31.81 38.91 25.79 16.98 35.9 29.88 24.93 1.935 23.86 47.93 2.794 65.99
2.595 76.95 64.91 10.96 12.9 28.8 33.96 16.98 16.98 35.9 31.81 13.97 13.97 60.83 46 12.9 79.96
2.6 65.99 54.81 -2.149 -2.149 17.84 23.86 7.953 3.869 21.92 27.94 3.869 11.82 79.96 27.94 11.82 73.94
2.605 60.83 54.81 -1.075 0.8598 6.878 11.82 3.869 -4.084 2.794 17.84 6.878 3.869 79.96 0 5.804 62.98
2.61 56.96 64.91 6.878 1.935 0 4.944 11.82 -12.04 -14.19 9.888 11.82 0 69.86 -17.2 7.953 48.79
2.615 63.84 78.89 19.99 13.97 -1.075 7.953 17.84 -9.028 -25.15 7.953 23.86 9.888 59.97 -25.15 19.99 37.83
2.62 73.94 94.79 33.96 28.8 2.794 23 26.87 0 -22.14 13.97 32.89 25.79 54.81 -21.06 35.9 24.93
2.625 79.96 104.9 37.83 36.97 12.9 34.82 30.95 13.97 -12.04 19.99 32.89 35.9 48.79 -17.2 41.91 6.878
2.63 79.96 103 31.81 31.81 25.79 46 25.79 15.91 -3.009 21.92 25.79 29.88 35.9 -15.05 29.88 -11.18
2.635 76.95 94.79 23 20.85 31.81 50.94 16.98 1.935 -2.149 19.99 12.9 7.953 16.98 -21.06 3.869 -33.1
2.64 70.93 80.82 12.9 12.9 35.9 48.79 12.9 -13.11 -2.149 11.82 6.878 -15.05 -4.084 -31.17 -19.13 -53.09
2.645 63.84 72.87 9.888 7.953 33.96 41.91 11.82 -27.08 -2.149 1.935 5.804 -39.12 -29.02 -39.12 -41.06 -65.13
2.65 58.9 72.87 12.9 13.97 27.94 29.88 15.91 -31.17 -2.149 -1.075 12.9 -51.16 -47.07 -41.06 -53.09 -73.08
2.655 54.81 72.87 12.9 21.92 17.84 19.99 21.92 -27.08 -2.149 -5.159 17.84 -57.18 -59.11 -35.04 -57.18 -79.1
2.66 43.85 66.85 7.953 19.99 3.869 9.888 19.99 -25.15 -1.075 -5.159 15.91 -65.13 -69.21 -27.08 -61.05 -81.04
2.665 29.88 48.79 -2.149 7.953 -3.009 3.869 5.804 -33.1 -5.159 -5.159 1.935 -77.17 -79.1 -17.2 -73.08 -77.17
2.67 17.84 24.93 -15.05 -11.18 -11.18 3.869 -9.028 -49.01 -11.18 -1.075 -13.11 -91.14 -87.05 -5.159 -85.12 -61.05
2.675 3.869 0.8598 -31.17 -35.04 -11.18 5.804 -31.17 -67.06 -11.18 -2.149 -33.1 -99.09 -89.2 3.869 -95.01 -31.17
2.68 0.8598 -19.13 -43.2 -49.01 -9.028 5.804 -47.07 -73.08 -7.093 1.935 -45.14 -95.01 -81.04 19.99 -91.14 3.869
2.685 -5.159 -25.15 -43.2 -49.01 -5.159 1.935 -49.01 -67.06 0.8598 3.869 -45.14 -81.04 -63.19 35.9 -77.17 39.98
2.69 -7.093 -17.2 -37.19 -37.19 -3.009 -3.009 -39.12 -51.16 3.869 3.869 -37.19 -61.05 -35.04 47.93 -53.09 67.92
2.695 -9.028 -5.159 -27.08 -25.15 -7.093 -15.05 -29.02 -27.08 9.888 1.935 -29.02 -41.06 -3.009 49.87 -29.02 85.98
2.7 -13.11 -1.075 -21.06 -17.2 -11.18 -25.15 -21.06 -7.093 13.97 0 -23.21 -19.13 27.94 43.85 -5.159 93.93
2.705 -23.21 -3.009 -21.06 -17.2 -13.11 -27.08 -23.21 1.935 17.84 3.869 -23.21 0.8598 63.84 35.9 9.888 99.95
2.71 -31.17 -19.13 -25.15 -23.21 -9.028 -19.13 -29.02 9.888 23.86 11.82 -25.15 17.84 95.87 27.94 25.79 101.9
2.715 -35.04 -35.04 -23.21 -25.15 -1.075 -5.159 -29.02 13.97 33.96 21.92 -23.21 37.83 115.9 23.86 39.98 97.8
2.72 -33.1 -43.2 -11.18 -17.2 5.804 3.869 -19.13 19.99 37.83 27.94 -13.11 51.8 123.8 19.99 51.8 85.98
2.725 -23.21 -39.12 5.804 0.8598 11.82 13.97 -2.149 29.88 35.9 25.79 0 59.97 113.9 11.82 59.97 63.84
2.73 -13.11 -23.21 31.81 17.84 13.97 13.97 25.79 39.98 21.92 17.84 21.92 59.97 89.85 0.8598 63.84 34.82
2.735 -3.009 -5.159 53.95 41.91 9.888 9.888 49.87 53.95 3.869 5.804 41.91 59.97 61.91 -17.2 63.84 4.944
2.74 0.8598 6.878 65.99 55.89 9.888 9.888 61.91 63.84 -5.159 0 55.89 59.97 35.9 -33.1 59.97 -13.11
2.745 1.935 14.83 59.97 59.97 15.91 13.97 59.97 69 -7.093 5.804 53.95 55.89 17.84 -37.19 49.87 -24.07
2.75 7.953 16.98 41.91 49.87 25.79 25.79 46 60.83 0.8598 19.99 39.98 43.85 7.953 -29.02 33.96 -28.16
2.755 11.82 8.813 17.84 29.88 37.83 39.98 19.99 39.98 15.91 37.83 17.84 21.92 1.935 -15.05 11.82 -31.17
2.76 13.97 0.8598 0 4.944 47.93 47.93 1.935 16.98 35.9 49.87 0 1.935 -2.149 0 -7.093 -30.09
2.765 14.83 -1.075 -12.04 -10.1 53.95 55.89 -14.19 1.935 53.95 53.95 -14.19 -20.21 -2.149 4.944 -25.15 -33.1
2.77 11.82 -7.093 -19.13 -21.06 59.97 59.97 -23.21 -7.093 65.99 51.8 -23.21 -31.17 -2.149 7.953 -35.04 -37.19
2.775 12.9 -3.009 -14.19 -20.21 63.84 59.97 -20.21 -5.159 76.95 46 -18.06 -36.11 3.869 10.96 -38.05 -35.04
2.78 18.92 0.8598 -10.1 -14.19 66.85 57.82 -16.12 -3.009 82.97 40.84 -10.1 -36.11 9.888 10.96 -40.2 -28.16
2.785 19.99 6.878 -9.028 -9.028 63.84 47.93 -13.11 -5.159 81.9 33.96 -7.093 -41.06 9.888 11.82 -45.14 -19.13
2.79 18.92 6.878 -13.11 -11.18 50.94 29.88 -13.11 -12.04 74.8 24.93 -9.028 -51.16 1.935 15.91 -54.17 -11.18
2.795 7.953 2.794 -18.06 -18.06 30.95 10.96 -23.21 -31.17 58.9 14.83 -21.06 -71.15 -9.028 16.98 -68.14 -3.009
2.8 -7.093 -15.05 -31.17 -33.1 5.804 -1.075 -35.04 -53.09 39.98 3.869 -37.19 -85.12 -29.02 11.82 -79.1 0.8598
2.805 -26.01 -33.1 -44.06 -44.06 -11.18 -14.19 -49.01 -70.07 18.92 -2.149 -52.02 -84.04 -39.12 12.9 -79.1 7.953
2.81 -44.06 -49.01 -58.04 -58.04 -28.16 -25.15 -58.04 -80.18 1.935 -1.075 -63.19 -74.16 -36.11 8.813 -66.2 26.87
2.815 -59.11 -61.05 -68.14 -68.14 -45.14 -36.11 -65.13 -73.08 -12.04 -6.019 -67.06 -50.08 -22.14 6.878 -39.12 49.87
2.82 -74.16 -73.08 -68.14 -70.07 -64.05 -53.09 -64.05 -64.05 -25.15 -17.2 -63.19 -18.06 1.935 2.794 -10.1 66.85
2.825 -90.06 -79.1 -56.1 -66.2 -81.04 -72.01 -57.18 -44.06 -36.11 -31.17 -54.17 4.944 15.91 1.935 11.82 71.79
2.83 -99.09 -83.19 -37.19 -49.01 -91.14 -83.19 -37.19 -25.15 -47.07 -45.14 -33.1 29.88 25.79 -11.18 33.96 57.82
2.835 -97.16 -75.02 -8.168 -22.14 -88.13 -80.18 -11.18 -1.075 -50.08 -52.02 -7.093 43.85 23.86 -26.01 46.86 33.96
2.84 -86.19 -57.18 15.91 3.869 -74.16 -69.21 13.97 8.813 -52.02 -50.08 17.84 55.89 13.97 -35.04 48.79 1.935
2.845 -65.13 -29.02 39.98 35.9 -49.01 -45.14 37.83 27.94 -51.16 -37.19 39.98 53.95 1.935 -39.12 43.85 -11.18
2.85 -40.2 -1.075 60.83 60.83 -16.12 -17.2 56.96 41.91 -44.06 -14.19 58.9 48.79 -1.075 -36.11 38.91 -22.14
2.855 -14.19 28.8 69 70.93 5.804 3.869 69 53.95 -32.03 0 69 42.99 -11.18 -28.16 28.8 -37.19
2.86 3.869 46.86 69.86 71.79 27.94 25.79 67.92 57.82 -19.13 13.97 67.92 31.81 -29.02 -27.08 19.99 -63.19
2.865 28.8 52.88 64.91 69 46 41.91 64.91 58.9 -3.009 17.84 62.98 23 -63.19 -32.03 9.888 -105.1
2.87 43.85 48.79 56.96 56.96 55.89 53.95 54.81 52.88 5.804 13.97 54.81 8.813 -107 -46.21 -2.149 -160.1
2.875 51.8 36.97 46 43.85 59.97 57.82 41.91 43.85 13.97 7.953 43.85 0.8598 -151.1 -63.19 -13.11 -199
2.88 51.8 24.93 37.83 35.9 63.84 53.95 33.96 34.82 13.97 3.869 35.9 -11.18 -175.2 -71.15 -29.02 -200.1
2.885 43.85 12.9 27.94 25.79 59.97 46 25.79 26.87 13.97 7.953 25.79 -23.21 -165.1 -63.19 -43.2 -158.2
2.89 35.9 8.813 17.84 15.91 53.95 37.83 15.91 15.91 15.91 15.91 15.91 -31.17 -121 -35.04 -49.01 -79.1
2.895 29.88 4.944 7.953 7.953 46 31.81 7.953 0 23.86 25.79 5.804 -33.1 -53.09 0 -43.2 4.944
2.9 17.84 -1.075 -2.149 0.8598 33.96 21.92 0.8598 -7.093 33.96 27.94 0.8598 -27.08 11.82 37.83 -29.02 72.87
2.905 -2.149 -9.028 -11.18 -11.18 13.97 7.953 -11.18 -13.11 39.98 21.92 -11.18 -15.05 65.99 63.84 -7.093 109.8
2.91 -27.08 -31.17 -27.08 -27.08 -7.093 -11.18 -25.15 -13.11 33.96 5.804 -25.15 -2.149 97.8 69.86 11.82 121.9
2.915 -63.19 -57.18 -43.2 -45.14 -39.12 -39.12 -41.06 -9.028 15.91 -9.028 -37.19 19.99 109.8 55.89 31.81 115.9
2.92 -89.2 -83.19 -55.03 -59.11 -67.06 -65.13 -53.09 -1.075 -1.075 -27.08 -49.01 39.98 112 31.81 47.93 109.8
2.925 -99.09 -101 -63.19 -67.06 -83.19 -75.02 -61.05 0 -17.2 -37.19 -57.18 53.95 112 11.82 55.89 106
2.93 -91.14 -105.1 -61.05 -67.06 -83.19 -73.08 -61.05 0 -27.08 -37.19 -61.05 59.97 107.9 1.935 53.95 103.8
2.935 -73.08 -93.07 -53.09 -59.11 -69.21 -59.11 -55.03 -1.075 -25.15 -31.17 -57.18 51.8 99.95 3.869 43.85 95.87
2.94 -53.09 -75.02 -43.2 -45.14 -47.07 -43.2 -47.07 -13.11 -21.06 -19.13 -49.01 35.9 83.83 9.888 23.86 83.83
2.945 -43.2 -55.03 -37.19 -33.1 -29.02 -33.1 -37.19 -25.15 -21.06 -7.093 -41.06 13.97 61.91 11.82 1.935 65.99
2.95 -43.2 -43.2 -31.17 -27.08 -17.2 -27.08 -29.02 -33.1 -25.15 0.8598 -35.04 -1.075 37.83 9.888 -9.028 41.91
2.955 -43.2 -37.19 -25.15 -21.06 -13.11 -21.06 -23.21 -35.04 -29.02 0 -25.15 -11.18 13.97 3.869 -15.05 15.91
2.96 -39.12 -33.1 -9.028 -11.18 -9.028 -15.05 -11.18 -23.21 -29.02 0 -9.028 -9.028 -3.009 0.8598 -9.028 -11.18
2.965 -29.02 -29.02 9.888 1.935 -3.009 -5.159 1.935 -3.009 -25.15 -2.149 7.953 0 -27.08 -11.18 0 -43.2
2.97 -19.13 -21.06 35.9 23.86 0 0.8598 25.79 19.99 -17.2 -3.009 33.96 15.91 -53.09 -25.15 15.91 -69.21
2.975 -18.06 -17.2 51.8 41.91 3.869 -1.075 43.85 41.91 -13.11 -11.18 51.8 27.94 -75.02 -39.12 25.79 -83.19
2.98 -30.09 -19.13 47.93 47.93 1.935 -12.04 47.93 51.8 -11.18 -19.13 53.95 33.96 -87.05 -43.2 29.88 -77.17
2.985 -51.16 -37.19 25.79 33.96 -5.159 -29.02 33.96 47.93 -13.11 -19.13 37.83 31.81 -79.1 -31.17 31.81 -53.09
2.99 -74.16 -61.05 -1.075 7.953 -18.06 -40.2 5.804 35.9 -11.18 -13.11 9.888 31.81 -53.09 -9.028 37.83 -13.11
2.995 -88.13 -89.2 -29.02 -19.13 -30.09 -46.21 -19.13 23.86 -1.075 -3.009 -17.2 37.83 -15.05 15.91 49.87 25.79
3 -99.09 -119.1 -49.01 -45.14 -41.06 -51.16 -43.2 15.91 5.804 3.869 -41.06 49.87 19.99 43.85 61.91 63.84
3.005 -106.2 -133.1 -60.19 -61.05 -46.21 -48.15 -59.11 13.97 20.85 9.888 -57.18 59.97 59.97 61.91 69.86 92
3.01 -111.1 -143.2 -64.05 -69.21 -54.17 -53.09 -67.06 11.82 28.8 9.888 -62.12 63.84 92 71.79 65.99 112
3.015 -125.1 -149.2 -67.06 -71.15 -63.19 -63.19 -69.21 9.888 23.86 3.869 -65.13 57.82 113.9 77.81 53.95 123.8
3.02 -133.1 -143.2 -60.19 -67.06 -67.06 -71.15 -63.19 5.804 16.98 -1.075 -60.19 47.93 126 83.83 37.83 126.8
3.025 -130 -131.1 -48.15 -55.03 -65.13 -68.14 -48.15 3.869 8.813 0 -50.08 37.83 127.9 84.9 25.79 120.8
3.03 -117.1 -109.2 -29.02 -35.04 -53.09 -61.05 -31.17 3.869 5.804 -5.159 -33.1 29.88 119.9 71.79 23.86 106
3.035 -97.16 -81.04 -7.093 -14.19 -36.11 -45.14 -12.04 14.83 11.82 -2.149 -14.19 27.94 103.8 54.81 26.87 86.84
3.04 -76.09 -59.11 3.869 1.935 -27.08 -36.11 1.935 23 13.97 -4.084 1.935 25.79 85.98 30.95 30.95 65.99
3.045 -67.06 -51.16 3.869 3.869 -29.02 -39.12 0 23.86 11.82 -7.093 1.935 25.79 67.92 7.953 29.88 43.85
3.05 -70.07 -51.16 -2.149 0 -42.13 -46.21 -1.075 21.92 1.935 -10.1 0 21.92 43.85 -2.149 23.86 24.93
3.055 -84.04 -57.18 -5.159 -2.149 -57.18 -58.04 -8.168 4.944 -21.06 -11.18 -6.019 11.82 17.84 -5.159 11.82 -1.075
3.06 -91.14 -61.05 -5.159 -5.159 -63.19 -59.11 -11.18 -1.075 -40.2 -14.19 -11.18 0.8598 -7.093 -14.19 -5.159 -23.21
3.065 -86.19 -53.09 -3.009 -2.149 -53.09 -48.15 -6.019 -14.19 -49.01 -11.18 -6.019 -17.2 -37.19 -27.08 -21.06 -56.1
3.07 -64.05 -33.1 5.804 3.869 -26.01 -26.01 -2.149 -13.11 -42.13 -8.168 -1.075 -29.02 -55.03 -43.2 -33.1 -76.09
3.075 -29.02 -11.18 15.91 13.97 1.935 -2.149 7.953 -7.093 -19.13 -2.149 9.888 -35.04 -61.05 -51.16 -41.06 -85.12
3.08 0.8598 4.944 21.92 18.92 29.88 24.93 16.98 1.935 1.935 6.878 17.84 -39.12 -59.11 -42.13 -42.13 -73.08
3.085 19.99 12.9 11.82 12.9 46.86 35.9 10.96 0 21.92 12.9 10.96 -39.12 -57.18 -22.14 -42.13 -56.1
3.09 19.99 0.8598 -5.159 -2.149 41.91 27.94 -1.075 -13.11 21.92 13.97 0.8598 -39.12 -61.05 1.935 -47.07 -35.04
3.095 2.794 -19.13 -30.09 -21.06 25.79 14.83 -22.14 -33.1 8.813 12.9 -24.07 -45.14 -67.06 28.8 -55.03 -10.1
3.1 -19.13 -41.06 -58.04 -47.07 5.804 -2.149 -49.01 -55.03 -8.168 6.878 -48.15 -57.18 -65.13 41.91 -61.05 12.9
3.105 -37.19 -61.05 -77.17 -69.21 -11.18 -7.093 -69.21 -71.15 -23.21 5.804 -69.21 -65.13 -47.07 53.95 -61.05 43.85
3.11 -41.06 -65.13 -82.11 -79.1 -22.14 -11.18 -77.17 -75.02 -24.07 7.953 -77.17 -67.06 -9.028 61.91 -51.16 81.9
3.115 -40.2 -63.19 -76.09 -79.1 -26.01 -12.04 -73.08 -65.13 -14.19 13.97 -73.08 -53.09 35.9 69.86 -31.17 119.9
3.12 -37.19 -61.05 -67.06 -69.21 -29.02 -13.11 -63.19 -43.2 -2.149 15.91 -61.05 -27.08 83.83 77.81 -5.159 141.9
3.125 -32.03 -55.03 -57.18 -57.18 -24.07 -14.19 -51.16 -15.05 9.888 13.97 -49.01 0 117.8 77.81 13.97 146
3.13 -32.03 -55.03 -51.16 -47.07 -24.07 -18.06 -45.14 3.869 15.91 5.804 -41.06 27.94 129.8 65.99 27.94 127.9
3.135 -35.04 -59.11 -49.01 -43.2 -23.21 -23.21 -45.14 15.91 11.82 0.8598 -41.06 41.91 123.8 43.85 31.81 99.95
3.14 -38.05 -57.18 -49.01 -45.14 -27.08 -26.01 -47.07 15.91 3.869 -9.028 -43.2 39.98 101.9 17.84 29.88 65.99
3.145 -42.13 -57.18 -47.07 -47.07 -37.19 -31.17 -49.01 1.935 -3.009 -19.13 -41.06 25.79 69.86 -1.075 21.92 35.9
3.15 -51.16 -57.18 -39.12 -45.14 -47.07 -35.04 -45.14 -15.05 -19.13 -27.08 -35.04 9.888 35.9 -17.2 9.888 9.888
3.155 -59.11 -55.03 -25.15 -39.12 -55.03 -37.19 -33.1 -33.1 -39.12 -31.17 -23.21 -1.075 0 -27.08 0.8598 -7.093
3.16 -59.11 -53.09 -11.18 -25.15 -55.03 -33.1 -15.05 -45.14 -57.18 -35.04 -9.028 -13.11 -27.08 -37.19 -17.2 -31.17
3.165 -51.16 -45.14 0 -7.093 -41.06 -21.06 0.8598 -47.07 -69.21 -35.04 0 -23.21 -55.03 -49.01 -33.1 -59.11
3.17 -35.04 -31.17 9.888 5.804 -19.13 -7.093 9.888 -43.2 -73.08 -31.17 9.888 -37.19 -77.17 -63.19 -49.01 -89.2
3.175 -15.05 -15.05 19.99 19.99 -2.149 3.869 19.99 -33.1 -67.06 -27.08 17.84 -49.01 -89.2 -73.08 -61.05 -111.1
3.18 0 0.8598 29.88 31.81 17.84 19.99 29.88 -21.06 -51.16 -19.13 25.79 -55.03 -91.14 -73.08 -61.05 -123.2
3.185 15.91 12.9 43.85 46 31.81 33.96 39.98 -1.075 -29.02 -9.028 37.83 -51.16 -85.12 -65.13 -51.16 -123.2
3.19 29.88 28.8 55.89 57.82 43.85 46 51.8 17.84 -3.009 1.935 49.87 -33.1 -75.02 -49.01 -31.17 -111.1
3.195 39.98 40.84 63.84 65.99 55.89 57.82 59.97 41.91 19.99 19.99 57.82 -11.18 -65.13 -35.04 -11.18 -97.16
3.2 41.91 40.84 59.97 63.84 65.99 61.91 57.82 57.82 47.93 37.83 55.89 -2.149 -57.18 -27.08 0.8598 -87.05
3.205 31.81 24.93 39.98 47.93 65.99 55.89 43.85 57.82 65.99 53.95 41.91 0 -55.03 -19.13 -1.075 -83.19
3.21 9.888 -1.075 11.82 23.86 55.89 39.98 21.92 41.91 73.94 59.97 19.99 -5.159 -49.01 -11.18 -13.11 -79.1
3.215 -11.18 -37.19 -11.18 0.8598 35.9 21.92 -1.075 19.99 69.86 57.82 -1.075 -17.2 -37.19 -2.149 -23.21 -67.06
3.22 -35.04 -71.15 -33.1 -27.08 11.82 7.953 -27.08 -2.149 59.97 47.93 -25.15 -23.21 -13.11 15.91 -23.21 -43.2
3.225 -51.16 -93.07 -49.01 -49.01 -3.009 0.8598 -47.07 -11.18 46 33.96 -45.14 -19.13 9.888 31.81 -15.05 -11.18
3.23 -61.05 -101 -59.11 -63.19 -19.13 -11.18 -59.11 -19.13 27.94 17.84 -59.11 -9.028 33.96 37.83 -3.009 9.888
3.235 -73.08 -107 -63.19 -69.21 -35.04 -29.02 -63.19 -21.06 9.888 -2.149 -67.06 -1.075 44.92 27.94 0 19.99
3.24 -95.01 -113.1 -65.13 -69.21 -57.18 -55.03 -63.19 -23.21 -9.028 -19.13 -65.13 0.8598 34.82 5.804 -2.149 15.91
3.245 -123.2 -123.2 -61.05 -65.13 -83.19 -83.19 -57.18 -29.02 -35.04 -41.06 -59.11 -3.009 11.82 -11.18 -5.159 1.935
3.25 -149.2 -137.1 -59.11 -61.05 -107 -109.2 -53.09 -37.19 -61.05 -57.18 -53.09 -10.1 -12.04 -29.02 -12.04 -8.168
3.255 -165.1 -145.1 -59.11 -61.05 -125.1 -121 -51.16 -49.01 -83.19 -69.21 -53.09 -18.06 -36.11 -37.19 -16.12 -20.21
3.26 -165.1 -145.1 -65.13 -67.06 -131.1 -121 -55.03 -63.19 -95.01 -73.08 -59.11 -25.15 -53.09 -43.2 -21.06 -29.02
3.265 -145.1 -129.2 -66.2 -69.21 -118 -103.2 -59.11 -81.04 -99.09 -70.07 -64.05 -34.18 -59.11 -48.15 -28.16 -38.05
3.27 -112.2 -101 -58.04 -63.19 -90.06 -73.08 -52.02 -91.14 -95.01 -64.05 -60.19 -46.21 -65.13 -56.1 -40.2 -50.08
3.275 -75.02 -61.05 -37.19 -45.14 -55.03 -41.06 -37.19 -89.2 -83.19 -55.03 -45.14 -59.11 -73.08 -69.21 -53.09 -65.13
3.28 -38.05 -15.05 -4.084 -13.11 -14.19 -7.093 -8.168 -71.15 -62.12 -40.2 -12.04 -63.19 -80.18 -72.01 -57.18 -73.08
3.285 -4.084 20.85 23 13.97 17.84 17.84 16.98 -41.06 -36.11 -28.16 14.83 -65.13 -79.1 -68.14 -57.18 -76.09
3.29 19.99 46.86 41.91 37.83 43.85 37.83 35.9 -11.18 -13.11 -17.2 35.9 -55.03 -77.17 -59.11 -45.14 -71.15
3.295 41.91 56.96 40.84 48.79 58.9 44.92 39.98 4.944 3.869 -4.084 42.99 -38.05 -66.2 -36.11 -34.18 -56.1
3.3 49.87 50.94 23.86 39.98 57.82 46 31.81 15.91 15.91 0 28.8 -21.06 -50.08 -15.05 -22.14 -34.18
3.305 48.79 32.89 2.794 15.91 47.93 33.96 14.83 9.888 14.83 4.944 7.953 -9.028 -33.1 2.794 -14.19 -10.1
3.31 29.88 16.98 -13.11 -1.075 27.94 15.91 -1.075 0 9.888 7.953 -8.168 -1.075 -12.04 15.91 -8.168 8.813
3.315 9.888 2.794 -22.14 -18.06 4.944 2.794 -15.05 -2.149 1.935 4.944 -22.14 1.935 4.944 20.85 -2.149 28.8
3.32 -1.075 0.8598 -23.21 -27.08 -9.028 -5.159 -21.06 -3.009 -1.075 0 -29.02 3.869 25.79 19.99 1.935 41.91
3.325 -12.04 -5.159 -20.21 -27.08 -19.13 -13.11 -22.14 0 -6.019 1.935 -28.16 11.82 51.8 18.92 11.82 56.96
3.33 -16.12 -9.028 -20.21 -25.15 -24.07 -19.13 -18.06 7.953 -10.1 -2.149 -24.07 23.86 70.93 23 23.86 69.86
3.335 -19.13 -17.2 -25.15 -25.15 -33.1 -27.08 -21.06 9.888 -13.11 -3.009 -23.21 29.88 85.98 29.88 27.94 79.96
3.34 -22.14 -25.15 -30.09 -29.02 -44.06 -41.06 -24.07 3.869 -17.2 -8.168 -26.01 36.97 89.85 38.91 32.89 84.9
3.345 -37.19 -31.17 -36.11 -37.19 -62.12 -57.18 -31.17 -1.075 -27.08 -16.12 -26.01 34.82 79.96 32.89 30.95 74.8
3.35 -51.16 -35.04 -35.04 -43.2 -75.02 -65.13 -35.04 -17.2 -37.19 -29.02 -29.02 25.79 53.95 11.82 23.86 49.87
3.355 -61.05 -37.19 -25.15 -39.12 -81.04 -63.19 -31.17 -25.15 -47.07 -35.04 -25.15 16.98 24.93 -11.18 16.98 20.85
3.36 -57.18 -31.17 -9.028 -25.15 -65.13 -47.07 -17.2 -27.08 -49.01 -29.02 -11.18 6.878 1.935 -33.1 8.813 -4.084
3.365 -39.12 -19.13 1.935 -5.159 -35.04 -19.13 -1.075 -21.06 -41.06 -13.11 0 -2.149 -19.13 -37.19 1.935 -27.08
3.37 -13.11 -3.009 17.84 9.888 -3.009 3.869 9.888 -13.11 -23.21 1.935 15.91 -1.075 -32.03 -29.02 -1.075 -41.06
3.375 3.869 10.96 21.92 25.79 17.84 21.92 19.99 -7.093 -7.093 15.91 23.86 -7.093 -44.06 -21.06 -9.028 -55.03
3.38 17.84 23 19.99 27.94 27.94 23.86 17.84 -7.093 0.8598 13.97 21.92 -13.11 -65.13 -23.21 -21.06 -73.08
3.385 15.91 26.87 11.82 23.86 25.79 13.97 13.97 -9.028 -3.009 -2.149 13.97 -23.21 -89.2 -35.04 -33.1 -91.14
3.39 7.953 20.85 9.888 17.84 15.91 3.869 9.888 -9.028 -13.11 -15.05 7.953 -33.1 -111.1 -45.14 -39.12 -99.09
3.395 -2.149 14.83 13.97 15.91 13.97 0 13.97 -3.009 -21.06 -23.21 7.953 -35.04 -119.1 -41.06 -39.12 -87.05
3.4 -2.149 10.96 21.92 19.99 17.84 3.869 19.99 3.869 -17.2 -21.06 13.97 -31.17 -105.1 -19.13 -33.1 -59.11
3.405 1.935 8.813 23.86 21.92 25.79 9.888 23.86 15.91 0.8598 -9.028 17.84 -25.15 -71.15 3.869 -29.02 -27.08
3.41 3.869 6.878 17.84 19.99 29.88 11.82 17.84 21.92 17.84 1.935 13.97 -25.15 -31.17 21.92 -29.02 -3.009
3.415 1.935 -1.075 0 5.804 25.79 7.953 1.935 15.91 35.9 11.82 0 -31.17 0.8598 23.86 -37.19 0
3.42 -7.093 -15.05 -19.13 -9.028 13.97 0.8598 -15.05 3.869 41.91 15.91 -17.2 -43.2 15.91 13.97 -47.07 0.8598
3.425 -31.17 -41.06 -41.06 -33.1 -1.075 -13.11 -37.19 -7.093 37.83 15.91 -41.06 -51.16 29.88 3.869 -51.16 0
3.43 -57.18 -65.13 -57.18 -51.16 -19.13 -31.17 -55.03 -21.06 27.94 11.82 -57.18 -49.01 47.93 7.953 -43.2 19.99
3.435 -77.17 -83.19 -63.19 -63.19 -37.19 -43.2 -63.19 -29.02 17.84 7.953 -63.19 -33.1 71.79 25.79 -25.15 59.97
3.44 -85.12 -89.2 -61.05 -63.19 -47.07 -51.16 -61.05 -29.02 11.82 1.935 -59.11 -9.028 99.95 47.93 0.8598 103.8
3.445 -81.04 -85.12 -51.16 -57.18 -49.01 -51.16 -55.03 -23.21 7.953 -1.075 -49.01 11.82 121.9 59.97 21.92 133.9
3.45 -69.21 -75.02 -37.19 -45.14 -45.14 -45.14 -43.2 -15.05 7.953 -11.18 -35.04 33.96 129 57.82 39.98 141.9
3.455 -53.09 -67.06 -25.15 -31.17 -37.19 -37.19 -29.02 -5.159 1.935 -21.06 -21.06 46 112.8 41.91 47.93 121.9
3.46 -43.2 -67.06 -15.05 -21.06 -31.17 -29.02 -19.13 0.8598 -5.159 -29.02 -13.11 47.93 79.96 15.91 46 83.83
3.465 -38.05 -73.08 -11.18 -15.05 -27.08 -23.21 -11.18 1.935 -21.06 -37.19 -11.18 46.86 42.99 -7.093 40.84 40.84
3.47 -34.18 -81.04 -7.093 -9.028 -19.13 -16.12 -7.093 7.953 -35.04 -39.12 -7.093 40.84 4.944 -31.17 34.82 0
3.475 -27.08 -81.04 0.8598 -1.075 -9.028 -5.159 0.8598 15.91 -41.06 -37.19 -1.075 33.96 -25.15 -49.01 29.88 -43.2
3.48 -12.04 -63.19 9.888 9.888 2.794 4.944 7.953 25.79 -39.12 -27.08 5.804 30.95 -51.16 -61.05 28.8 -78.03
3.485 1.935 -39.12 27.94 28.8 16.98 18.92 26.87 33.96 -29.02 -11.18 23 23 -75.02 -67.06 23 -106.2
3.49 0 -21.06 39.98 41.91 21.92 23.86 39.98 35.9 -17.2 0 35.9 13.97 -101 -65.13 13.97 -131.1
3.495 -1.075 -15.05 42.99 46.86 16.98 18.92 44.92 30.95 -9.028 10.96 40.84 3.869 -122.1 -62.12 1.935 -137.1
3.5 -17.2 -23.21 34.82 38.91 6.878 6.878 38.91 18.92 -5.159 12.9 32.89 -11.18 -136.1 -56.1 -19.13 -135.2
3.505 -31.17 -37.19 21.92 25.79 0 0.8598 23.86 5.804 -1.075 9.888 21.92 -29.02 -133.1 -41.06 -33.1 -109.2
3.51 -32.03 -39.12 14.83 18.92 3.869 0.8598 14.83 2.794 5.804 8.813 14.83 -34.18 -107 -14.19 -32.03 -60.19
3.515 -26.01 -39.12 16.98 16.98 11.82 3.869 16.98 10.96 25.79 14.83 19.99 -26.01 -58.04 12.9 -18.06 -1.075
3.52 -23.21 -39.12 19.99 19.99 15.91 5.804 21.92 23.86 47.93 15.91 25.79 -7.093 -2.149 46 1.935 57.82
3.525 -36.11 -43.2 21.92 17.84 8.813 0.8598 25.79 41.91 62.98 13.97 25.79 23 59.97 67.92 36.97 113.9
3.53 -61.05 -63.19 7.953 6.878 -13.11 -26.01 18.92 49.87 60.83 6.878 14.83 58.9 112 73.94 66.85 149
3.535 -89.2 -89.2 -7.093 -9.028 -43.2 -55.03 -2.149 49.87 47.93 -1.075 -1.075 87.91 141.9 65.99 87.91 161.9
3.54 -104 -103.2 -23.21 -25.15 -62.12 -69.21 -13.11 48.79 31.81 -14.19 -21.06 107.9 161 56.96 103.8 162.9
3.545 -96.08 -101 -28.16 -33.1 -63.19 -69.21 -25.15 47.93 19.99 -20.21 -32.03 113.9 165.9 43.85 109.8 150.9
3.55 -74.16 -79.1 -23.21 -26.01 -45.14 -51.16 -27.08 49.87 16.98 -18.06 -27.08 113.9 162.9 38.91 112 138.9
3.555 -46.21 -51.16 -6.019 -9.028 -23.21 -33.1 -15.05 57.82 23.86 -12.04 -16.12 106 158 29.88 107.9 124.9
3.56 -28.16 -29.02 5.804 5.804 -10.1 -17.2 1.935 62.98 29.88 -2.149 -1.075 101.9 144.9 20.85 103.8 112.8
3.565 -21.06 -17.2 13.97 15.91 -5.159 -9.028 3.869 59.97 23.86 0 5.804 93.93 132 11.82 93.93 95.87
3.57 -19.13 -11.18 11.82 16.98 -7.093 -2.149 8.813 49.87 18.92 12.9 8.813 86.84 119.9 9.888 86.84 80.82
3.575 -14.19 -15.05 3.869 5.804 -6.019 0 3.869 35.9 6.878 21.92 3.869 74.8 97.8 11.82 72.87 61.91
3.58 -5.159 -21.06 -5.159 -3.009 -3.009 5.804 -2.149 11.82 -1.075 25.79 0.8598 53.95 67.92 7.953 47.93 29.88
3.585 2.794 -17.2 -10.1 -12.04 1.935 17.84 -2.149 -4.084 -11.18 24.93 -3.009 26.87 30.95 1.935 20.85 -1.075
3.59 18.92 -5.159 -2.149 -8.168 17.84 29.88 0 -22.14 -19.13 14.83 -2.149 0.8598 -13.11 -24.07 -2.149 -46.21
3.595 35.9 14.83 13.97 5.804 31.81 43.85 5.804 -27.08 -21.06 1.935 7.953 -17.2 -59.11 -55.03 -21.06 -85.12
3.6 63.84 48.79 42.99 36.97 50.94 62.98 30.95 -16.12 -17.2 0.8598 34.82 -25.15 -88.13 -74.16 -29.02 -109.2
3.605 93.93 88.99 69 64.91 69 84.9 54.81 -1.075 -1.075 8.813 58.9 -25.15 -94.15 -74.16 -27.08 -115.2
3.61 123.8 118.9 85.98 83.83 89.85 103.8 73.94 19.99 19.99 29.88 75.88 -23.21 -79.1 -55.03 -29.02 -109.2
3.615 155 140.8 89.85 92.86 116.9 120.8 84.9 41.91 53.95 53.95 82.97 -22.14 -45.14 -31.17 -32.03 -96.08
3.62 172.8 150.9 83.83 87.91 136.9 130.9 81.9 55.89 87.91 69.86 75.88 -26.01 -13.11 -17.2 -42.13 -90.06
3.625 175.8 156.9 75.88 81.9 149.8 133.9 73.94 61.91 113.9 73.94 67.92 -35.04 0 -15.05 -51.16 -93.07
3.63 172.8 155 67.92 75.88 153.9 132.8 63.84 63.84 127.9 67.92 61.91 -34.18 12.9 -19.13 -48.15 -94.15
3.635 164.9 152.8 57.82 69.86 147.9 129.8 55.89 59.97 133.9 59.97 55.89 -28.16 18.92 -19.13 -36.11 -92.21
3.64 159.9 144.9 43.85 57.82 135.8 123.8 46 51.8 127.9 57.82 46 -19.13 23.86 -7.093 -21.06 -75.02
3.645 155.8 129 23.86 37.83 117.8 115.9 29.88 39.98 117.8 61.91 31.81 -5.159 36.97 11.82 -5.159 -45.14
3.65 149.8 106.8 5.804 15.91 97.8 101.9 11.82 25.79 101.9 65.99 13.97 0 48.79 33.96 -2.149 -15.05
3.655 139.9 86.84 -3.009 -2.149 77.81 83.83 0.8598 7.953 77.81 63.84 -2.149 3.869 53.95 47.93 -2.149 0
3.66 123.8 74.8 -11.18 -9.028 55.89 63.84 -11.18 -1.075 49.87 51.8 -7.093 5.804 47.93 43.85 -2.149 3.869
3.665 107.9 70.93 -11.18 -11.18 35.9 49.87 -15.05 -13.11 19.99 31.81 -9.028 5.804 31.81 27.94 0 -1.075
3.67 101.9 76.95 -7.093 -9.028 23.86 43.85 -13.11 -17.2 -3.009 9.888 -7.093 9.888 13.97 9.888 7.953 -11.18
3.675 106 88.99 0.8598 -5.159 21.92 46 -7.093 -15.05 -23.21 0.8598 -1.075 13.97 1.935 -2.149 17.84 -11.18
3.68 121.9 104.9 7.953 1.935 31.81 57.82 1.935 -7.093 -31.17 -3.009 3.869 19.99 -2.149 0.8598 21.92 -1.075
3.685 141.9 126.8 25.79 19.99 49.87 73.94 19.99 -2.149 -29.02 -2.149 19.99 21.92 1.935 1.935 21.92 7.953
3.69 161.9 150.9 47.93 43.85 71.79 87.91 41.91 11.82 -21.06 7.953 39.98 21.92 1.935 11.82 19.99 15.91
3.695 176.9 175 67.92 67.92 87.91 95.87 63.84 21.92 -9.028 17.84 61.91 21.92 -3.009 15.91 15.91 9.888
3.7 188.9 196.9 81.9 85.98 95.87 99.95 77.81 29.88 -1.075 23.86 75.88 19.99 -25.15 13.97 15.91 -9.028
3.705 195.8 212.8 89.85 93.93 99.95 101.9 85.98 29.88 3.869 25.79 81.9 15.91 -55.03 1.935 15.91 -43.2
3.71 202.9 230.9 96.94 97.8 106 106 90.92 27.94 15.91 25.79 83.83 9.888 -83.19 -5.159 9.888 -75.02
3.715 212.8 247 103 100.8 115.9 115 92.86 27.94 31.81 25.79 86.84 -2.149 -97.16 -15.05 -2.149 -97.16
3.72 221.8 262.9 113.9 107.9 132 123.8 95.87 31.81 53.95 27.94 93.93 -7.093 -87.05 -17.2 -11.18 -99.09
3.725 237.9 280.9 126.8 123 150.9 138.9 106.8 43.85 84.9 37.83 104.9 -15.05 -58.04 -9.028 -23.21 -81.04
3.73 247.8 284.8 132.8 132.8 162.9 149 116.9 61.91 115 49.87 115 -17.2 -16.12 3.869 -25.15 -47.07
3.735 250 278.8 127.9 135.8 167.9 149.8 119.9 77.81 135.8 61.91 115.9 -11.18 19.99 21.92 -21.06 -13.11
3.74 244.8 262.9 112.8 126.8 161 142.9 115 81.9 144.9 65.99 109 -5.159 54.81 31.81 -15.05 9.888
3.745 221 236.9 92 107.9 140.8 123 97.8 71.79 138.9 57.82 89.85 -1.075 70.93 31.81 -11.18 21.92
3.75 187.9 201 65.99 75.88 109.8 89.85 71.79 49.87 113.9 41.91 63.84 -2.149 71.79 23.86 -5.159 21.92
3.755 147.9 168.9 46 51.8 77.81 53.95 47.93 27.94 85.98 17.84 43.85 6.878 67.92 13.97 1.935 25.79
3.76 112.8 140.8 36.97 36.97 41.91 23.86 36.97 16.98 55.89 1.935 36.97 23 61.91 10.96 26.87 44.92
3.765 87.91 118.9 35.9 31.81 9.888 5.804 33.96 19.99 31.81 -3.009 35.9 49.87 63.84 17.84 57.82 75.88
3.77 75.88 110.9 39.98 35.9 1.935 5.804 39.98 36.97 18.92 -3.009 43.85 80.82 74.8 30.95 88.99 106.8
3.775 75.88 116.9 46 44.92 0 16.98 47.93 50.94 7.953 0 50.94 98.88 73.94 38.91 103 118.9
3.78 85.98 124.9 47.93 49.87 11.82 33.96 53.95 53.95 0.8598 1.935 51.8 99.95 61.91 33.96 93.93 97.8
3.785 104.9 138.9 52.88 52.88 27.94 49.87 54.81 41.91 -15.05 2.794 52.88 76.95 24.93 15.91 65.99 49.87
3.79 118.9 149 54.81 53.95 37.83 53.95 56.96 23.86 -31.17 0.8598 51.8 42.99 -21.06 0.8598 36.97 0.8598
3.795 126 152.8 59.97 53.95 35.9 46 61.91 6.878 -46.21 -9.028 53.95 13.97 -72.01 -14.19 15.91 -32.03
3.8 112.8 144.9 58.9 57.82 19.99 29.88 60.83 -2.149 -51.16 -15.05 59.97 1.935 -105.1 -15.05 8.813 -41.06
3.805 84.9 130.9 54.81 52.88 0 11.82 56.96 0.8598 -53.09 -20.21 56.96 1.935 -110.1 -5.159 7.953 -25.15
3.81 53.95 100.8 41.91 39.98 -15.05 0.8598 43.85 -1.075 -51.16 -23.21 46 -2.149 -91.14 0 3.869 -3.009
3.815 25.79 76.95 25.79 24.93 -25.15 -8.168 27.94 -6.019 -47.07 -21.06 28.8 -2.149 -57.18 12.9 -2.149 12.9
3.82 11.82 58.9 9.888 9.888 -28.16 -13.11 9.888 -14.19 -42.13 -19.13 9.888 -14.19 -16.12 18.92 -16.12 26.87
3.825 7.953 50.94 0 1.935 -23.21 -15.05 -2.149 -19.13 -29.02 -13.11 -2.149 -25.15 15.91 25.79 -25.15 47.93
3.83 10.96 56.96 0.8598 6.878 -9.028 -11.18 -1.075 -10.1 -5.159 0.8598 -1.075 -22.14 57.82 42.99 -16.12 82.97
3.835 15.91 54.81 3.869 9.888 0.8598 -5.159 0 5.804 19.99 9.888 1.935 -4.084 103.8 61.91 1.935 121.9
3.84 9.888 44.92 7.953 13.97 1.935 -1.075 3.869 29.88 46 17.84 5.804 17.84 139.9 77.81 25.79 152
3.845 0 24.93 5.804 9.888 2.794 -6.019 3.869 46 62.98 15.91 3.869 43.85 164.9 83.83 43.85 161.9
3.85 -20.21 2.794 -1.075 -1.075 0 -18.06 1.935 49.87 60.83 3.869 0 53.95 168.9 77.81 47.93 149.8
3.855 -41.06 -21.06 -7.093 -9.028 -17.2 -37.19 -9.028 41.91 41.91 -3.009 -11.18 53.95 152 65.99 43.85 127.9
3.86 -57.18 -33.1 -14.19 -14.19 -34.18 -50.08 -12.04 29.88 20.85 -11.18 -14.19 46 129 57.82 35.9 112
3.865 -67.06 -35.04 -20.21 -16.12 -46.21 -56.1 -14.19 17.84 -1.075 -11.18 -14.19 35.9 106.8 53.95 31.81 106
3.87 -71.15 -41.06 -29.02 -23.21 -55.03 -57.18 -19.13 5.804 -11.18 -7.093 -17.2 27.94 83.83 53.95 25.79 103.8
3.875 -74.16 -47.07 -38.05 -32.03 -61.05 -56.1 -28.16 -5.159 -23.21 -9.028 -24.07 17.84 63.84 49.87 13.97 92
3.88 -74.16 -59.11 -50.08 -47.07 -67.06 -61.05 -42.13 -27.08 -33.1 -19.13 -41.06 -2.149 29.88 33.96 -3.009 65.99
3.885 -81.04 -71.15 -59.11 -59.11 -75.02 -69.21 -55.03 -51.16 -51.16 -33.1 -55.03 -21.06 -7.093 11.82 -27.08 27.94
3.89 -82.11 -71.15 -61.05 -63.19 -79.1 -73.08 -61.05 -71.15 -75.02 -45.14 -61.05 -45.14 -55.03 -7.093 -47.07 -3.009
3.895 -82.11 -63.19 -53.09 -57.18 -73.08 -69.21 -57.18 -79.1 -95.01 -43.2 -55.03 -59.11 -99.09 -21.06 -53.09 -27.08
3.9 -77.17 -53.09 -41.06 -45.14 -61.05 -55.03 -45.14 -77.17 -105.1 -33.1 -43.2 -57.18 -123.2 -21.06 -45.14 -33.1
3.905 -67.06 -43.2 -29.02 -33.1 -43.2 -37.19 -33.1 -63.19 -97.16 -15.05 -29.02 -45.14 -123.2 -13.11 -31.17 -31.17
3.91 -53.09 -41.06 -21.06 -25.15 -25.15 -21.06 -23.21 -47.07 -75.02 0.8598 -21.06 -35.04 -105.1 -5.159 -27.08 -27.08
3.915 -41.06 -43.2 -17.2 -19.13 -13.11 -13.11 -19.13 -35.04 -43.2 1.935 -17.2 -37.19 -79.1 -7.093 -35.04 -27.08
3.92 -35.04 -45.14 -13.11 -15.05 -7.093 -13.11 -15.05 -23.21 -13.11 1.935 -17.2 -47.07 -49.01 -17.2 -51.16 -29.02
3.925 -37.19 -47.07 -9.028 -9.028 -9.028 -21.06 -11.18 -15.05 3.869 0.8598 -13.11 -57.18 -19.13 -23.21 -63.19 -21.06
3.93 -49.01 -55.03 -3.009 -3.009 -15.05 -31.17 -5.159 -3.009 13.97 -3.009 -7.093 -59.11 5.804 -19.13 -59.11 -1.075
3.935 -67.06 -67.06 -2.149 0.8598 -23.21 -39.12 -2.149 5.804 15.91 -5.159 0.8598 -43.2 37.83 0.8598 -37.19 23.86
3.94 -85.12 -81.04 -2.149 0.8598 -33.1 -45.14 1.935 21.92 15.91 -1.075 1.935 -11.18 67.92 25.79 -3.009 55.89
3.945 -100.2 -89.2 -1.075 0.8598 -43.2 -53.09 1.935 37.83 15.91 -2.149 1.935 15.91 92 47.93 23.86 79.96
3.95 -113.1 -95.01 -9.028 -3.009 -53.09 -63.19 0.8598 46 17.84 0.8598 -2.149 41.91 99.95 51.8 43.85 85.98
3.955 -124 -97.16 -23.21 -13.11 -69.21 -80.18 -11.18 41.91 13.97 -13.11 -7.093 51.8 87.91 37.83 47.93 73.94
3.96 -138.2 -109.2 -39.12 -27.08 -88.13 -102.1 -29.02 23.86 0 -33.1 -23.21 46 55.89 9.888 37.83 47.93
3.965 -153 -129.2 -57.18 -49.01 -113.1 -123.2 -49.01 -1.075 -23.21 -53.09 -41.06 27.94 13.97 -9.028 19.99 15.91
3.97 -164 -153 -73.08 -71.15 -130 -130 -67.06 -33.1 -55.03 -63.19 -59.11 7.953 -23.21 -23.21 0 -8.168
3.975 -165.1 -165.1 -77.17 -83.19 -132.2 -122.1 -75.02 -57.18 -79.1 -57.18 -67.06 -1.075 -53.09 -27.08 -7.093 -30.09
3.98 -155.2 -161.2 -71.15 -77.17 -117.1 -99.09 -71.15 -65.13 -85.12 -35.04 -65.13 -7.093 -69.21 -23.21 -11.18 -45.14
3.985 -129.2 -135.2 -52.02 -57.18 -76.09 -62.12 -55.03 -55.03 -69.21 -9.028 -51.16 -3.009 -73.08 -21.06 -1.075 -48.15
3.99 -94.15 -97.16 -34.18 -32.03 -27.08 -27.08 -36.11 -35.04 -40.2 5.804 -34.18 0 -72.01 -17.2 5.804 -44.06
3.995 -67.06 -75.02 -23.21 -15.05 1.935 -9.028 -23.21 -13.11 -13.11 11.82 -23.21 7.953 -75.02 -15.05 13.97 -39.12
4 -57.18 -73.08 -26.01 -20.21 11.82 -11.18 -28.16 -7.093 0 4.944 -26.01 7.953 -82.11 -13.11 11.82 -29.02
4.005 -70.07 -95.01 -44.06 -38.05 -6.019 -36.11 -42.13 -15.05 -6.019 -8.168 -40.2 0.8598 -90.06 -6.019 0 -19.13
4.01 -103.2 -127 -63.19 -63.19 -51.16 -73.08 -61.05 -35.04 -29.02 -33.1 -59.11 -15.05 -93.07 -3.009 -11.18 -1.075
4.015 -138.2 -153 -69.21 -78.03 -91.14 -105.1 -70.07 -52.02 -56.1 -50.08 -66.2 -30.09 -84.04 1.935 -25.15 12.9
4.02 -168.1 -169.2 -63.19 -71.15 -122.1 -123.2 -61.05 -56.1 -77.17 -58.04 -57.18 -36.11 -61.05 2.794 -28.16 31.81
4.025 -185.1 -167 -47.07 -57.18 -125.1 -125.1 -47.07 -49.01 -83.19 -57.18 -43.2 -35.04 -39.12 3.869 -27.08 39.98
4.03 -184.2 -153 -28.16 -35.04 -113.1 -114.1 -30.09 -35.04 -71.15 -45.14 -27.08 -28.16 -13.11 7.953 -22.14 43.85
4.035 -175.2 -141 -23.21 -25.15 -94.15 -100.2 -24.07 -23.21 -54.17 -32.03 -21.06 -26.01 -1.075 10.96 -23.21 37.83
4.04 -160.1 -135.2 -28.16 -28.16 -82.11 -89.2 -31.17 -22.14 -36.11 -25.15 -28.16 -24.07 10.96 9.888 -22.14 33.96
4.045 -153 -135.2 -45.14 -37.19 -80.18 -86.19 -42.13 -25.15 -28.16 -26.01 -37.19 -20.21 16.98 0.8598 -23.21 27.94
4.05 -146.2 -141 -56.1 -51.16 -85.12 -88.13 -50.08 -31.17 -27.08 -37.19 -47.07 -16.12 17.84 -1.075 -14.19 25.79
4.055 -145.1 -147 -61.05 -61.05 -87.05 -89.2 -55.03 -37.19 -37.19 -47.07 -53.09 -5.159 15.91 -7.093 0.8598 25.79
4.06 -140.1 -149.2 -57.18 -59.11 -82.11 -83.19 -49.01 -34.18 -45.14 -52.02 -49.01 6.878 13.97 -8.168 12.9 25.79
4.065 -132.2 -141 -45.14 -56.1 -71.15 -73.08 -44.06 -30.09 -56.1 -50.08 -46.21 18.92 6.878 -8.168 23.86 14.83
4.07 -123.2 -129.2 -43.2 -49.01 -61.05 -61.05 -43.2 -27.08 -59.11 -45.14 -43.2 23.86 -2.149 -13.11 27.94 -2.149
4.075 -108.1 -115.2 -42.13 -44.06 -50.08 -52.02 -44.06 -25.15 -58.04 -36.11 -40.2 23.86 -10.1 -16.12 23.86 -15.05
4.08 -95.01 -95.01 -44.06 -44.06 -45.14 -47.07 -48.15 -31.17 -60.19 -32.03 -42.13 15.91 -32.03 -27.08 13.97 -33.1
4.085 -83.19 -79.1 -45.14 -45.14 -39.12 -39.12 -49.01 -37.19 -63.19 -33.1 -43.2 3.869 -55.03 -33.1 3.869 -51.16
4.09 -66.2 -53.09 -38.05 -40.2 -31.17 -27.08 -42.13 -43.2 -66.2 -29.02 -38.05 -3.009 -74.16 -35.04 -1.075 -60.19
4.095 -43.2 -29.02 -24.07 -29.02 -16.12 -12.04 -29.02 -45.14 -67.06 -19.13 -31.17 -13.11 -89.2 -29.02 -9.028 -64.05
4.1 -13.11 -1.075 -11.18 -13.11 -2.149 3.869 -13.11 -41.06 -59.11 -3.009 -19.13 -23.21 -97.16 -21.06 -17.2 -69.21
4.105 11.82 16.98 -1.075 -1.075 16.98 20.85 -3.009 -35.04 -45.14 7.953 -9.028 -31.17 -97.16 -17.2 -31.17 -74.16
4.11 32.89 26.87 -1.075 0 24.93 26.87 0.8598 -35.04 -29.02 17.84 -5.159 -45.14 -95.01 -17.2 -49.01 -80.18
4.115 43.85 30.95 -5.159 0.8598 23.86 23.86 -5.159 -43.2 -19.13 15.91 -5.159 -61.05 -93.07 -19.13 -69.21 -83.19
4.12 44.92 30.95 -9.028 -5.159 18.92 20.85 -11.18 -59.11 -17.2 5.804 -9.028 -81.04 -91.14 -17.2 -87.05 -75.02
4.125 40.84 38.91 -9.028 -9.028 11.82 23 -13.11 -73.08 -19.13 0.8598 -7.093 -97.16 -83.19 -7.093 -97.16 -55.03
4.13 43.85 52.88 -3.009 -9.028 11.82 27.94 -9.028 -77.17 -17.2 -1.075 -3.009 -101 -65.13 7.953 -95.01 -25.15
4.135 54.81 64.91 -2.149 -1.075 15.91 37.83 -1.075 -67.06 -11.18 1.935 -2.149 -93.07 -39.12 25.79 -81.04 -2.149
4.14 63.84 70.93 5.804 1.935 21.92 39.98 1.935 -45.14 -2.149 11.82 1.935 -71.15 -9.028 35.9 -59.11 19.99
4.145 71.79 66.85 9.888 7.953 21.92 31.81 9.888 -17.2 9.888 17.84 5.804 -41.06 15.91 33.96 -31.17 31.81
4.15 69.86 62.98 15.91 15.91 17.84 17.84 17.84 3.869 17.84 15.91 13.97 -7.093 39.98 21.92 -3.009 37.83
4.155 67.92 64.91 23.86 25.79 9.888 7.953 27.94 25.79 19.99 5.804 23.86 19.99 59.97 9.888 21.92 41.91
4.16 65.99 76.95 33.96 35.9 9.888 9.888 37.83 43.85 21.92 -2.149 33.96 51.8 77.81 1.935 51.8 47.93
4.165 73.94 92.86 39.98 43.85 17.84 23.86 46 55.89 25.79 0.8598 41.91 77.81 93.93 0 77.81 49.87
4.17 89.85 104.9 41.91 46 31.81 43.85 46 65.99 35.9 3.869 41.91 93.93 99.95 0.8598 95.87 43.85
4.175 106 109 39.98 41.91 43.85 59.97 39.98 67.92 41.91 11.82 37.83 99.95 93.93 -5.159 101.9 25.79
4.18 115.9 109 37.83 37.83 51.8 67.92 33.96 63.84 43.85 15.91 35.9 92 73.94 -15.05 95.87 1.935
4.185 119.9 109 39.98 37.83 53.95 67.92 33.96 51.8 35.9 15.91 39.98 75.88 46 -25.15 79.96 -15.05
4.19 119.9 118.9 47.93 41.91 53.95 65.99 41.91 35.9 23.86 9.888 49.87 57.82 19.99 -31.17 59.97 -33.1
4.195 121.9 130.9 51.8 46 51.8 63.84 51.8 19.99 9.888 3.869 55.89 39.98 -2.149 -33.1 37.83 -45.14
4.2 119.9 138.9 49.87 46 46 59.97 53.95 1.935 0.8598 -2.149 51.8 21.92 -16.12 -31.17 17.84 -57.18
4.205 113.9 136.9 37.83 37.83 35.9 49.87 46 -9.028 -11.18 -1.075 37.83 5.804 -40.2 -33.1 0.8598 -75.02
4.21 97.8 124.9 23.86 25.79 21.92 33.96 29.88 -23.21 -25.15 -5.159 21.92 -9.028 -69.21 -37.19 -17.2 -93.07
4.215 80.82 110.9 13.97 17.84 7.953 17.84 17.84 -31.17 -33.1 -7.093 11.82 -30.09 -96.08 -37.19 -34.18 -102.1
4.22 64.91 100.8 13.97 15.91 6.878 11.82 11.82 -33.1 -35.04 -5.159 11.82 -52.02 -108.1 -29.02 -50.08 -96.08
4.225 59.97 96.94 15.91 19.99 13.97 21.92 11.82 -33.1 -25.15 3.869 15.91 -71.15 -97.16 -9.028 -67.06 -73.08
4.23 70.93 98.88 18.92 20.85 36.97 44.92 14.83 -33.1 -5.159 23.86 15.91 -84.04 -70.07 11.82 -78.03 -40.2
4.235 88.99 98.88 12.9 16.98 58.9 66.85 12.9 -32.03 11.82 46 8.813 -94.15 -37.19 33.96 -88.13 -16.12
4.24 103.8 94.79 5.804 9.888 75.88 79.96 7.953 -35.04 27.94 55.89 -2.149 -95.01 -15.05 41.91 -89.2 -7.093
4.245 112 88.99 8.813 10.96 84.9 80.82 8.813 -26.01 38.91 52.88 -1.075 -77.17 -3.009 35.9 -67.06 -11.18
4.25 106 80.82 23 20.85 83.83 72.87 18.92 -4.084 42.99 38.91 12.9 -43.2 2.794 23.86 -33.1 -17.2
4.255 87.91 72.87 41.91 37.83 73.94 59.97 37.83 23.86 47.93 25.79 35.9 -2.149 17.84 15.91 9.888 -7.093
4.26 66.85 62.98 61.91 56.96 61.91 49.87 59.97 62.98 60.83 16.98 60.83 46.86 47.93 13.97 54.81 10.96
4.265 46.86 50.94 65.99 63.84 44.92 35.9 65.99 92 69 16.98 69.86 81.9 83.83 17.84 77.81 41.91
4.27 25.79 24.93 47.93 49.87 23.86 21.92 53.95 95.87 67.92 17.84 53.95 92 107.9 21.92 85.98 71.79
4.275 6.878 0.8598 21.92 27.94 1.935 5.804 29.88 83.83 58.9 17.84 29.88 89.85 116.9 25.79 78.89 87.91
4.28 -6.019 -15.05 -2.149 3.869 -8.168 0 3.869 61.91 40.84 12.9 2.794 81.9 115 26.87 73.94 90.92
4.285 -21.06 -29.02 -7.093 -7.093 -18.06 -12.04 -7.093 41.91 23 7.953 -10.1 74.8 103.8 26.87 70.93 84.9
4.29 -32.03 -31.17 -13.11 -13.11 -16.12 -16.12 -17.2 27.94 14.83 -1.075 -16.12 71.79 90.92 26.87 67.92 70.93
4.295 -38.05 -25.15 -15.05 -15.05 -13.11 -15.05 -15.05 21.92 16.98 -1.075 -15.05 63.84 80.82 21.92 56.96 49.87
4.3 -37.19 -23.21 -13.11 -15.05 -7.093 -9.028 -13.11 9.888 19.99 -1.075 -17.2 43.85 61.91 11.82 37.83 23.86
4.305 -28.16 -19.13 -11.18 -9.028 -1.075 -1.075 -7.093 1.935 23 1.935 -13.11 23.86 37.83 -1.075 13.97 -3.009
4.31 -18.06 -17.2 -7.093 -6.019 9.888 5.804 -5.159 -6.019 20.85 2.794 -10.1 -1.075 1.935 -17.2 0 -28.16
4.315 -7.093 -19.13 -5.159 -1.075 23.86 15.91 -1.075 -15.05 17.84 9.888 -7.093 -13.11 -23.21 -25.15 -11.18 -49.01
4.32 1.935 -17.2 0 -1.075 33.96 20.85 1.935 -18.06 14.83 16.98 0 -17.2 -42.13 -21.06 -15.05 -57.18
4.325 -1.075 -25.15 -6.019 1.935 28.8 14.83 -2.149 -24.07 10.96 14.83 -4.084 -21.06 -51.16 -9.028 -15.05 -53.09
4.33 -17.2 -45.14 -19.13 -13.11 5.804 0.8598 -13.11 -33.1 0 3.869 -17.2 -33.1 -51.16 0.8598 -25.15 -49.01
4.335 -42.13 -61.05 -36.11 -30.09 -16.12 -22.14 -28.16 -46.21 -13.11 -5.159 -32.03 -42.13 -45.14 0.8598 -34.18 -50.08
4.34 -64.05 -81.04 -48.15 -47.07 -44.06 -38.05 -42.13 -53.09 -31.17 -17.2 -45.14 -48.15 -42.13 -7.093 -44.06 -52.02
4.345 -75.02 -85.12 -43.2 -45.14 -51.16 -41.06 -41.06 -41.06 -37.19 -19.13 -41.06 -43.2 -33.1 -15.05 -43.2 -49.01
4.35 -66.2 -69.21 -21.06 -27.08 -34.18 -27.08 -23.21 -11.18 -25.15 -7.093 -19.13 -22.14 -12.04 -17.2 -24.07 -36.11
4.355 -46.21 -47.07 3.869 0.8598 -9.028 -9.028 0 23.86 -2.149 3.869 3.869 0.8598 8.813 -7.093 0 -18.06
4.36 -29.02 -27.08 29.88 21.92 9.888 0.8598 23.86 55.89 31.81 15.91 27.94 21.92 31.81 -2.149 13.97 0
4.365 -21.06 -15.05 41.91 37.83 15.91 -1.075 35.9 71.79 55.89 17.84 37.83 29.88 52.88 3.869 21.92 21.92
4.37 -27.08 -15.05 37.83 39.98 5.804 -13.11 33.96 69.86 61.91 13.97 33.96 23.86 56.96 3.869 19.99 37.83
4.375 -39.12 -23.21 25.79 31.81 -3.009 -21.06 21.92 55.89 49.87 3.869 21.92 15.91 53.95 1.935 13.97 49.87
4.38 -51.16 -31.17 9.888 17.84 -13.11 -23.21 7.953 41.91 33.96 -2.149 9.888 11.82 53.95 3.869 11.82 61.91
4.385 -55.03 -37.19 -2.149 5.804 -13.11 -15.05 0 33.96 19.99 -1.075 1.935 19.99 57.82 7.953 21.92 73.94
4.39 -51.16 -41.06 -5.159 0.8598 -9.028 -9.028 -1.075 35.9 11.82 -3.009 -2.149 37.83 63.84 13.97 37.83 83.83
4.395 -45.14 -45.14 -11.18 -7.093 -7.093 -9.028 -5.159 37.83 5.804 -7.093 -3.009 55.89 67.92 17.84 57.82 83.83
4.4 -43.2 -53.09 -17.2 -15.05 -13.11 -19.13 -11.18 37.83 0 -11.18 -9.028 67.92 63.84 15.91 69.86 75.88
4.405 -43.2 -61.05 -23.21 -23.21 -23.21 -29.02 -17.2 27.94 -7.093 -11.18 -17.2 69.86 55.89 13.97 71.79 61.91
4.41 -47.07 -65.13 -23.21 -27.08 -33.1 -35.04 -25.15 13.97 -15.05 -9.028 -21.06 57.82 41.91 13.97 59.97 43.85
4.415 -45.14 -57.18 -21.06 -25.15 -37.19 -31.17 -25.15 0.8598 -19.13 -3.009 -19.13 37.83 25.79 15.91 39.98 25.79
4.42 -41.06 -41.06 -13.11 -21.06 -31.17 -19.13 -21.06 -15.05 -17.2 1.935 -13.11 15.91 11.82 17.84 13.97 11.82
4.425 -31.17 -19.13 -5.159 -13.11 -19.13 -5.159 -15.05 -27.08 -13.11 9.888 -7.093 -1.075 -2.149 17.84 -5.159 -2.149
4.43 -19.13 0.8598 -1.075 -7.093 -5.159 1.935 -9.028 -35.04 -11.18 15.91 -3.009 -19.13 -15.05 15.91 -25.15 -9.028
4.435 -5.159 6.878 0.8598 -3.009 1.935 9.888 -7.093 -43.2 -13.11 19.99 -5.159 -37.19 -35.04 13.97 -41.06 -23.21
4.44 3.869 12.9 0.8598 -1.075 13.97 17.84 -7.093 -47.07 -11.18 19.99 -7.093 -53.09 -57.18 9.888 -55.03 -39.12
4.445 19.99 18.92 -2.149 0.8598 23.86 25.79 -5.159 -51.16 -5.159 17.84 -7.093 -71.15 -75.02 5.804 -67.06 -55.03
4.45 35.9 30.95 3.869 1.935 35.9 35.9 0.8598 -47.07 3.869 17.84 -1.075 -85.12 -85.12 -2.149 -79.1 -69.21
4.455 49.87 46.86 15.91 13.97 51.8 49.87 9.888 -35.04 23.86 19.99 7.953 -89.2 -81.04 -1.075 -83.19 -73.08
4.46 70.93 70.93 35.9 33.96 67.92 63.84 27.94 -11.18 46 25.79 25.79 -83.19 -65.13 0.8598 -79.1 -65.13
4.465 88.99 96.94 57.82 57.82 83.83 79.96 49.87 9.888 62.98 33.96 47.93 -65.13 -40.2 3.869 -63.19 -45.14
4.47 107.9 118.9 81.9 79.96 93.93 89.85 71.79 35.9 69.86 39.98 71.79 -39.12 -19.13 13.97 -37.19 -25.15
4.475 118.9 135 99.95 95.87 95.87 89.85 87.91 54.81 70.93 36.97 89.85 -13.11 -2.149 13.97 -9.028 -13.11
4.48 115 146.8 103.8 99.95 85.98 79.96 93.93 60.83 64.91 23 95.87 7.953 1.935 0.8598 11.82 -15.05
4.485 99.95 144.9 93.93 93.93 65.99 59.97 89.85 59.97 49.87 0 92 27.94 -2.149 -25.15 31.81 -19.13
4.49 87.91 136.9 73.94 79.96 47.93 40.84 79.96 54.81 36.97 -12.04 77.81 46 6.878 -44.06 47.93 -17.2
4.495 75.88 123 49.87 61.91 31.81 26.87 61.91 50.94 20.85 -20.21 57.82 63.84 25.79 -38.05 63.84 -2.149
4.5 75.88 104.9 29.88 39.98 21.92 19.99 41.91 47.93 7.953 -15.05 35.9 79.96 46 -15.05 77.81 25.79
4.505 82.97 94.79 17.84 23.86 17.84 24.93 25.79 46 -2.149 -5.159 19.99 89.85 61.91 8.813 85.98 52.88
4.51 92 92.86 17.84 15.91 20.85 31.81 15.91 39.98 -6.019 -3.009 12.9 87.91 60.83 24.93 82.97 62.98
4.515 93.93 98.88 21.92 17.84 21.92 33.96 15.91 29.88 -17.2 -3.009 13.97 73.94 37.83 19.99 67.92 55.89
4.52 92 109 25.79 25.79 26.87 36.97 21.92 16.98 -25.15 -7.093 20.85 52.88 5.804 2.794 48.79 39.98
4.525 87.91 109 23.86 27.94 27.94 37.83 25.79 0 -29.02 -10.1 21.92 28.8 -14.19 -8.168 27.94 18.92
4.53 87.91 98.88 15.91 19.99 28.8 37.83 19.99 -13.11 -29.02 -3.009 16.98 11.82 -28.16 -9.028 12.9 3.869
4.535 81.9 72.87 -2.149 1.935 21.92 33.96 3.869 -29.02 -19.13 0.8598 1.935 -1.075 -22.14 1.935 3.869 0
4.54 73.94 42.99 -17.2 -19.13 12.9 30.95 -13.11 -40.2 -7.093 9.888 -12.04 0 -7.093 12.9 0.8598 -5.159
4.545 59.97 16.98 -33.1 -39.12 -2.149 21.92 -33.1 -43.2 -5.159 11.82 -31.17 -5.159 0 17.84 -3.009 -11.18
4.55 43.85 4.944 -41.06 -49.01 -6.019 13.97 -43.2 -45.14 -10.1 9.888 -36.11 -11.18 2.794 16.98 -14.19 -14.19
4.555 28.8 4.944 -35.04 -41.06 -11.18 4.944 -37.19 -43.2 -25.15 5.804 -31.17 -21.06 -2.149 8.813 -27.08 -16.12
4.56 25.79 18.92 -19.13 -23.21 -11.18 1.935 -23.21 -45.14 -41.06 0 -19.13 -39.12 -9.028 1.935 -45.14 -19.13
4.565 35.9 40.84 0.8598 -3.009 -7.093 6.878 -3.009 -44.06 -48.15 2.794 -3.009 -55.03 -17.2 -1.075 -57.18 -21.06
4.57 57.82 62.98 13.97 11.82 3.869 20.85 11.82 -36.11 -40.2 2.794 7.953 -65.13 -26.01 -1.075 -63.19 -27.08
4.575 83.83 86.84 31.81 23.86 23.86 39.98 25.79 -29.02 -19.13 5.804 19.99 -69.21 -27.08 -1.075 -63.19 -37.19
4.58 110.9 109 46 37.83 49.87 55.89 39.98 -14.19 8.813 10.96 33.96 -61.05 -22.14 -7.093 -55.03 -41.06
4.585 124.9 130.9 57.82 51.8 71.79 65.99 51.8 0.8598 42.99 10.96 47.93 -43.2 -14.19 -17.2 -39.12 -41.06
4.59 132 149 67.92 65.99 83.83 65.99 61.91 15.91 63.84 9.888 57.82 -19.13 -3.009 -27.08 -19.13 -33.1
4.595 126.8 156.9 69.86 71.79 77.81 55.89 65.99 27.94 69 5.804 61.91 0.8598 0.8598 -35.04 -1.075 -21.06
4.6 115 155 61.91 67.92 59.97 39.98 59.97 29.88 49.87 0.8598 55.89 5.804 3.869 -39.12 1.935 -15.05
4.605 99.95 136.9 46 51.8 33.96 25.79 46 21.92 15.91 -15.05 39.98 3.869 -2.149 -43.2 0 -13.11
4.61 87.91 116.9 27.94 33.96 11.82 17.84 29.88 7.953 -19.13 -29.02 23.86 -1.075 -7.093 -43.2 -7.093 -17.2
4.615 77.81 94.79 15.91 19.99 1.935 17.84 17.84 -3.009 -49.01 -35.04 13.97 -13.11 -17.2 -35.04 -17.2 -15.05
4.62 71.79 84.9 11.82 15.91 5.804 19.99 13.97 -17.2 -61.05 -31.17 11.82 -23.21 -23.21 -23.21 -23.21 -5.159
4.625 65.99 78.89 11.82 15.91 11.82 21.92 13.97 -25.15 -51.16 -15.05 11.82 -25.15 -17.2 -3.009 -23.21 5.804
4.63 59.97 74.8 7.953 11.82 17.84 19.99 7.953 -31.17 -27.08 -2.149 7.953 -25.15 -3.009 13.97 -23.21 23.86
4.635 49.87 64.91 -1.075 -2.149 13.97 13.97 -2.149 -39.12 -1.075 13.97 0.8598 -29.02 9.888 27.94 -31.17 29.88
4.64 41.91 54.81 -17.2 -13.11 5.804 3.869 -13.11 -49.01 11.82 19.99 -17.2 -43.2 17.84 31.81 -49.01 19.99
4.645 35.9 46.86 -25.15 -23.21 -2.149 0 -25.15 -57.18 17.84 13.97 -29.02 -63.19 15.91 23.86 -69.21 0.8598
4.65 35.9 48.79 -15.05 -17.2 0 1.935 -21.06 -57.18 17.84 5.804 -23.21 -77.17 0 7.953 -79.1 -23.21
4.655 43.85 64.91 9.888 1.935 15.91 17.84 -1.075 -39.12 21.92 3.869 -2.149 -73.08 -11.18 0.8598 -69.21 -33.1
4.66 59.97 86.84 49.87 39.98 43.85 46 29.88 -1.075 31.81 9.888 35.9 -47.07 -19.13 -3.009 -37.19 -25.15
4.665 79.96 109 83.83 75.88 75.88 73.94 65.99 43.85 51.8 25.79 71.79 -1.075 -15.05 0 3.869 -7.093
4.67 97.8 123 101.9 95.87 95.87 92 87.91 89.85 67.92 41.91 93.93 41.91 -5.159 9.888 47.93 1.935
4.675 106 120.8 95.87 95.87 97.8 87.91 92 117.8 73.94 43.85 93.93 77.81 0 11.82 75.88 3.869
4.68 95.87 104.9 73.94 79.96 73.94 59.97 77.81 119.9 59.97 29.88 77.81 93.93 0 1.935 83.83 -1.075
4.685 69.86 78.89 47.93 53.95 37.83 23.86 55.89 103.8 33.96 3.869 53.95 92 -1.075 -11.18 79.96 -11.18
4.69 39.98 54.81 27.94 29.88 5.804 0.8598 33.96 77.81 7.953 -17.2 33.96 81.9 -2.149 -25.15 71.79 -7.093
4.695 21.92 36.97 17.84 15.91 -5.159 -7.093 19.99 55.89 -2.149 -29.02 19.99 71.79 2.794 -27.08 67.92 7.953
4.7 17.84 30.95 17.84 11.82 -1.075 1.935 15.91 41.91 -3.009 -23.21 13.97 65.99 29.88 -15.05 63.84 33.96
4.705 29.88 32.89 17.84 11.82 9.888 21.92 13.97 30.95 4.944 -5.159 11.82 58.9 58.9 -1.075 53.95 51.8
4.71 47.93 38.91 9.888 7.953 25.79 35.9 7.953 16.98 14.83 5.804 7.953 42.99 72.87 0 33.96 47.93
4.715 55.89 40.84 0.8598 -2.149 31.81 37.83 -2.149 -3.009 13.97 13.97 0.8598 9.888 63.84 -5.159 3.869 23.86
4.72 58.9 40.84 -15.05 -9.028 29.88 31.81 -11.18 -28.16 8.813 13.97 -15.05 -14.19 43.85 -21.06 -20.21 0.8598
4.725 54.81 42.99 -23.21 -17.2 30.95 31.81 -21.06 -46.21 3.869 11.82 -25.15 -38.05 15.91 -33.1 -36.11 -17.2
4.73 55.89 52.88 -15.05 -13.11 41.91 41.91 -17.2 -47.07 7.953 13.97 -21.06 -43.2 3.869 -31.17 -35.04 -23.21
4.735 66.85 62.98 0.8598 0.8598 58.9 55.89 -3.009 -30.09 23.86 19.99 -9.028 -27.08 8.813 -17.2 -16.12 -18.06
4.74 76.95 72.87 15.91 11.82 70.93 62.98 9.888 -5.159 44.92 27.94 7.953 -9.028 21.92 -2.149 -1.075 -16.12
4.745 73.94 70.93 27.94 23.86 69.86 55.89 23.86 7.953 55.89 31.81 23.86 0 27.94 13.97 5.804 -19.13
4.75 61.91 58.9 25.79 27.94 50.94 32.89 27.94 16.98 53.95 28.8 29.88 1.935 21.92 23 0.8598 -20.21
4.755 31.81 40.84 15.91 21.92 21.92 4.944 23.86 2.794 30.95 16.98 23.86 -15.05 -2.149 23 -25.15 -23.21
4.76 0 23 0 7.953 -5.159 -17.2 7.953 -15.05 0.8598 0 7.953 -41.06 -41.06 15.91 -53.09 -25.15
4.765 -19.13 8.813 -7.093 0.8598 -25.15 -31.17 -3.009 -38.05 -30.09 -9.028 -2.149 -60.19 -80.18 9.888 -69.21 -18.06
4.77 -28.16 -1.075 -16.12 -13.11 -36.11 -35.04 -14.19 -57.18 -55.03 -19.13 -13.11 -68.14 -109.2 4.944 -65.13 -9.028
4.775 -28.16 -3.009 -22.14 -23.21 -38.05 -34.18 -24.07 -60.19 -67.06 -26.01 -19.13 -61.05 -120.2 3.869 -45.14 0
4.78 -22.14 -11.18 -28.16 -29.02 -36.11 -31.17 -28.16 -53.09 -69.21 -25.15 -23.21 -38.05 -117.1 4.944 -21.06 13.97
4.785 -23.21 -27.08 -37.19 -33.1 -33.1 -27.08 -33.1 -38.05 -66.2 -21.06 -30.09 -14.19 -98.02 11.82 -2.149 26.87
4.79 -31.17 -43.2 -41.06 -37.19 -35.04 -29.02 -37.19 -25.15 -65.13 -21.06 -35.04 1.935 -75.02 15.91 9.888 29.88
4.795 -47.07 -59.11 -41.06 -39.12 -35.04 -30.09 -41.06 -12.04 -64.05 -16.12 -41.06 13.97 -46.21 16.98 19.99 31.81
4.8 -57.18 -67.06 -35.04 -37.19 -40.2 -32.03 -39.12 -6.019 -61.05 -10.1 -37.19 20.85 -13.11 18.92 23.86 28.8
4.805 -63.19 -67.06 -21.06 -29.02 -37.19 -29.02 -27.08 -3.009 -51.16 -1.075 -25.15 27.94 19.99 17.84 27.94 33.96
4.81 -54.17 -53.09 -3.009 -13.11 -26.01 -20.21 -9.028 3.869 -24.07 9.888 -7.093 39.98 63.84 21.92 40.84 46.86
4.815 -38.05 -27.08 5.804 -2.149 -16.12 -15.05 3.869 14.83 3.869 23.86 5.804 49.87 100.8 27.94 48.79 64.91
4.82 -25.15 -9.028 11.82 9.888 -7.093 -13.11 15.91 27.94 33.96 27.94 17.84 53.95 119.9 25.79 46 67.92
4.825 -24.07 -1.075 5.804 7.953 -6.019 -21.06 9.888 32.89 53.95 15.91 11.82 48.79 115.9 11.82 32.89 46
4.83 -34.18 0.8598 -1.075 -2.149 -15.05 -33.1 0.8598 24.93 50.94 -5.159 0.8598 26.87 85.98 -13.11 8.813 1.935
4.835 -45.14 -11.18 -15.05 -13.11 -25.15 -39.12 -15.05 3.869 31.81 -29.02 -17.2 -1.075 39.98 -47.07 -13.11 -47.07
4.84 -45.14 -17.2 -19.13 -21.06 -29.02 -35.04 -25.15 -10.1 10.96 -41.06 -27.08 -28.16 0 -75.02 -39.12 -93.07
4.845 -33.1 -9.028 -11.18 -17.2 -23.21 -19.13 -19.13 -22.14 1.935 -37.19 -21.06 -54.17 -42.13 -89.2 -63.19 -125.1
4.85 -13.11 4.944 0 -1.075 -7.093 -1.075 -3.009 -33.1 -9.028 -23.21 -7.093 -73.08 -83.19 -93.07 -85.12 -145.1
4.855 -1.075 18.92 9.888 7.953 3.869 5.804 5.804 -43.2 -16.12 -11.18 0 -95.01 -124 -89.2 -113.1 -163.1
4.86 -7.093 16.98 3.869 9.888 5.804 1.935 7.953 -61.05 -25.15 -5.159 1.935 -123.2 -172.2 -79.1 -143.2 -177.1
4.865 -31.17 -3.009 -9.028 -1.075 -3.009 -13.11 -1.075 -87.05 -41.06 -9.028 -5.159 -155.2 -213 -65.13 -167 -181.2
4.87 -61.05 -35.04 -33.1 -27.08 -29.02 -37.19 -25.15 -113.1 -59.11 -13.11 -27.08 -175.2 -231.1 -43.2 -173 -161.2
4.875 -83.19 -65.13 -51.16 -51.16 -53.09 -53.09 -45.14 -123.2 -67.06 -13.11 -43.2 -171.1 -209.1 -13.11 -151.1 -109.2
4.88 -89.2 -81.04 -55.03 -61.05 -67.06 -55.03 -51.16 -105.1 -63.19 -9.028 -49.01 -131.1 -147 15.91 -101 -33.1
4.885 -81.04 -79.1 -47.07 -57.18 -63.19 -47.07 -47.07 -59.11 -45.14 -3.009 -41.06 -61.05 -59.11 46 -31.17 43.85
4.89 -61.05 -67.06 -31.17 -43.2 -49.01 -35.04 -33.1 -3.009 -23.21 0.8598 -25.15 13.97 25.79 63.84 35.9 109.8
4.895 -43.2 -55.03 -21.06 -27.08 -33.1 -29.02 -21.06 39.98 -3.009 -1.075 -13.11 81.9 97.8 65.99 93.93 153.9
4.9 -35.04 -45.14 -21.06 -21.06 -27.08 -35.04 -21.06 65.99 1.935 -11.18 -13.11 123.8 139.9 57.82 126 173.9
4.905 -37.19 -45.14 -33.1 -25.15 -33.1 -49.01 -29.02 67.92 3.869 -23.21 -25.15 135.8 155.8 41.91 133.9 175.8
4.91 -51.16 -47.07 -45.14 -37.19 -47.07 -63.19 -41.06 55.89 1.935 -35.04 -43.2 129.8 155.8 23.86 126 165.9
4.915 -63.19 -47.07 -47.07 -43.2 -59.11 -71.15 -47.07 46 0 -37.19 -51.16 117.8 149.8 11.82 117.8 152
4.92 -67.06 -37.19 -33.1 -35.04 -59.11 -65.13 -37.19 51.8 5.804 -33.1 -41.06 115.9 146 3.869 115.9 135.8
4.925 -55.03 -15.05 -3.009 -9.028 -45.14 -45.14 -11.18 71.79 17.84 -23.21 -11.18 117.8 143.8 0 117.8 113.9
4.93 -33.1 6.878 25.79 19.99 -21.06 -23.21 17.84 95.87 33.96 -9.028 21.92 121.9 135.8 -2.149 117.8 85.98
4.935 -7.093 26.87 53.95 47.93 0.8598 -3.009 46 109.8 46 0.8598 53.95 113.9 117.8 -5.159 106 47.93
4.94 3.869 32.89 62.98 60.83 11.82 5.804 59.97 101.9 51.8 1.935 67.92 89.85 85.98 -19.13 81.9 4.944
4.945 11.82 28.8 59.97 53.95 21.92 13.97 57.82 77.81 51.8 7.953 65.99 57.82 47.93 -35.04 47.93 -35.04
4.95 15.91 20.85 50.94 44.92 31.81 21.92 48.79 52.88 47.93 15.91 56.96 29.88 11.82 -42.13 17.84 -66.2
4.955 25.79 23 46.86 40.84 46 35.9 44.92 34.82 47.93 27.94 48.79 11.82 -8.168 -36.11 0 -78.03
4.96 43.85 36.97 47.93 43.85 63.84 51.8 43.85 27.94 46 41.91 43.85 1.935 -23.21 -15.05 -3.009 -75.02
4.965 65.99 60.83 52.88 54.81 73.94 67.92 50.94 30.95 41.91 52.88 46.86 -1.075 -30.09 6.878 -7.093 -62.12
4.97 81.9 78.89 51.8 58.9 77.81 73.94 52.88 34.82 31.81 52.88 46.86 -2.149 -40.2 23 -10.1 -55.03
4.975 83.83 84.9 43.85 55.89 71.79 71.79 46 31.81 19.99 41.91 39.98 -9.028 -53.09 25.79 -11.18 -55.03
4.98 76.95 78.89 35.9 49.87 61.91 59.97 39.98 31.81 15.91 30.95 35.9 -12.04 -62.12 14.83 -10.1 -55.03
4.985 62.98 66.85 34.82 41.91 57.82 51.8 31.81 37.83 28.8 23 29.88 -8.168 -58.04 5.804 -2.149 -50.08
4.99 49.87 60.83 37.83 39.98 59.97 49.87 33.96 47.93 51.8 19.99 31.81 0 -37.19 3.869 3.869 -33.1
4.995 46.86 54.81 41.91 43.85 63.84 49.87 38.91 58.9 74.8 25.79 34.82 9.888 -9.028 18.92 6.878 -7.093
5 42.99 46.86 30.95 38.91 62.98 49.87 35.9 55.89 86.84 29.88 29.88 7.953 14.83 36.97 0 14.83
5.005 33.96 20.85 5.804 19.99 49.87 41.91 17.84 31.81 69.86 29.88 13.97 -3.009 31.81 46 -17.2 29.88
5.01 16.98 -11.18 -24.07 -7.093 26.87 23.86 -4.084 1.935 39.98 28.8 -10.1 -24.07 35.9 44.92 -37.19 38.91
5.015 -5.159 -57.18 -60.19 -44.06 -2.149 1.935 -40.2 -37.19 7.953 23 -42.13 -41.06 33.96 39.98 -49.01 47.93
5.02 -38.05 -97.16 -85.12 -78.03 -24.07 -15.05 -68.14 -64.05 -10.1 12.9 -72.01 -43.2 34.82 36.97 -44.06 53.95
5.025 -67.06 -123.2 -96.08 -96.08 -47.07 -31.17 -86.19 -73.08 -23.21 0.8598 -86.19 -31.17 39.98 35.9 -27.08 65.99
5.03 -82.11 -129.2 -90.06 -97.16 -56.1 -39.12 -86.19 -71.15 -25.15 -4.084 -86.19 -10.1 49.87 36.97 -7.093 69
5.035 -87.05 -117.1 -75.02 -87.05 -61.05 -37.19 -77.17 -61.05 -29.02 -17.2 -75.02 0 46 25.79 3.869 57.82
5.04 -74.16 -89.2 -52.02 -66.2 -54.17 -33.1 -59.11 -47.07 -36.11 -25.15 -57.18 5.804 30.95 2.794 9.888 40.84
5.045 -54.17 -61.05 -29.02 -41.06 -43.2 -23.21 -38.05 -32.03 -46.21 -25.15 -36.11 3.869 11.82 -22.14 4.944 13.97
5.05 -31.17 -31.17 -9.028 -19.13 -25.15 -9.028 -19.13 -19.13 -47.07 -23.21 -21.06 -3.009 -2.149 -49.01 0.8598 -1.075
5.055 -4.084 0.8598 2.794 -2.149 -1.075 0 -1.075 -1.075 -36.11 -12.04 -5.159 -6.019 0 -57.18 -4.084 -12.04
5.06 16.98 18.92 13.97 17.84 17.84 13.97 13.97 9.888 -13.11 -2.149 5.804 -6.019 1.935 -52.02 -8.168 -23.21
5.065 33.96 36.97 21.92 27.94 41.91 27.94 23.86 13.97 9.888 1.935 15.91 -9.028 0.8598 -41.06 -19.13 -43.2
5.07 53.95 46.86 27.94 32.89 61.91 43.85 28.8 8.813 35.9 12.9 24.93 -24.07 -10.1 -34.18 -38.05 -77.17
5.075 65.99 46.86 24.93 32.89 75.88 63.84 28.8 -2.149 53.95 26.87 28.8 -58.04 -36.11 -36.11 -75.02 -118
5.08 75.88 44.92 23.86 25.79 92 83.83 23.86 -23.21 69.86 43.85 25.79 -101 -69.21 -41.06 -111.1 -157.1
5.085 83.83 48.79 24.93 23 101.9 97.8 23 -40.2 77.81 61.91 23 -135.2 -90.06 -38.05 -133.1 -170
5.09 87.91 56.96 26.87 23 101.9 101.9 24.93 -42.13 85.98 71.79 23 -141 -91.14 -28.16 -129.2 -150
5.095 85.98 58.9 29.88 25.79 93.93 92 27.94 -29.02 83.83 69.86 23.86 -113.1 -67.06 -11.18 -95.01 -103.2
5.1 73.94 52.88 30.95 28.8 73.94 67.92 29.88 -5.159 73.94 51.8 25.79 -61.05 -25.15 3.869 -39.12 -38.05
5.105 53.95 32.89 23.86 23.86 46 37.83 25.79 17.84 55.89 27.94 23.86 0.8598 15.91 23.86 11.82 19.99
5.11 27.94 2.794 7.953 11.82 15.91 9.888 13.97 37.83 29.88 7.953 15.91 46 55.89 37.83 55.89 69.86
5.115 0 -25.15 -5.159 -1.075 -5.159 -3.009 0.8598 43.85 5.804 0.8598 0 75.88 83.83 43.85 77.81 97.8
5.12 -17.2 -49.01 -21.06 -19.13 -25.15 -15.05 -15.05 37.83 -9.028 -3.009 -11.18 85.98 97.8 39.98 83.83 106
5.125 -33.1 -59.11 -33.1 -31.17 -39.12 -23.21 -29.02 25.79 -23.21 -3.009 -23.21 83.83 99.95 27.94 79.96 97.8
5.13 -43.2 -57.18 -39.12 -35.04 -47.07 -29.02 -37.19 11.82 -31.17 -9.028 -31.17 75.88 92 11.82 73.94 81.9
5.135 -49.01 -53.09 -43.2 -39.12 -53.09 -35.04 -41.06 0 -39.12 -17.2 -35.04 63.84 79.96 0.8598 61.91 65.99
5.14 -55.03 -51.16 -47.07 -41.06 -57.18 -41.06 -45.14 -7.093 -49.01 -25.15 -41.06 49.87 63.84 -7.093 47.93 55.89
5.145 -61.05 -55.03 -51.16 -47.07 -61.05 -43.2 -49.01 -21.06 -63.19 -31.17 -47.07 31.81 46 -9.028 29.88 49.87
5.15 -67.06 -61.05 -53.09 -51.16 -61.05 -43.2 -51.16 -37.19 -77.17 -35.04 -51.16 11.82 23.86 -9.028 9.888 37.83
5.155 -71.15 -65.13 -49.01 -51.16 -59.11 -39.12 -49.01 -49.01 -87.05 -37.19 -51.16 -5.159 0.8598 -11.18 -7.093 15.91
5.16 -71.15 -63.19 -37.19 -45.14 -51.16 -35.04 -41.06 -57.18 -91.14 -37.19 -43.2 -23.21 -33.1 -15.05 -25.15 -11.18
5.165 -61.05 -51.16 -23.21 -31.17 -39.12 -27.08 -27.08 -59.11 -87.05 -39.12 -25.15 -37.19 -67.06 -21.06 -39.12 -47.07
5.17 -44.06 -29.02 -3.009 -11.18 -21.06 -15.05 -11.18 -55.03 -77.17 -37.19 -5.159 -49.01 -97.16 -27.08 -51.16 -77.17
5.175 -25.15 -3.009 13.97 5.804 -1.075 -1.075 3.869 -45.14 -61.05 -31.17 9.888 -55.03 -113.1 -33.1 -57.18 -97.16
5.18 -2.149 23 33.96 27.94 14.83 10.96 23.86 -33.1 -39.12 -19.13 27.94 -59.11 -113.1 -39.12 -61.05 -107
5.185 10.96 48.79 51.8 47.93 32.89 26.87 43.85 -17.2 -11.18 -2.149 46 -63.19 -101 -45.14 -63.19 -115.2
5.19 25.79 64.91 65.99 65.99 47.93 39.98 61.91 0.8598 15.91 7.953 59.97 -63.19 -85.12 -47.07 -61.05 -125.1
5.195 33.96 69 73.94 75.88 60.83 46.86 73.94 11.82 48.79 20.85 69.86 -59.11 -73.08 -41.06 -59.11 -139.1
5.2 33.96 58.9 71.79 77.81 62.98 46 77.81 25.79 70.93 24.93 71.79 -51.16 -65.13 -31.17 -49.01 -143.2
5.205 17.84 32.89 57.82 65.99 49.87 29.88 67.92 31.81 73.94 17.84 63.84 -31.17 -57.18 -19.13 -29.02 -129.2
5.21 0 0.8598 34.82 44.92 29.88 7.953 46.86 31.81 64.91 8.813 43.85 -3.009 -45.14 -6.019 0.8598 -91.14
5.215 -32.03 -27.08 4.944 16.98 -2.149 -11.18 16.98 30.95 42.99 1.935 16.98 27.94 -25.15 1.935 33.96 -41.06
5.22 -65.13 -65.13 -21.06 -11.18 -27.08 -37.19 -9.028 25.79 15.91 -7.093 -9.028 61.91 -1.075 1.935 65.99 3.869
5.225 -99.09 -97.16 -44.06 -38.05 -54.17 -58.04 -34.18 24.93 -1.075 -19.13 -34.18 84.9 17.84 4.944 88.99 39.98
5.23 -126.2 -127 -62.12 -60.19 -79.1 -81.04 -52.02 18.92 -25.15 -31.17 -48.15 88.99 27.94 8.813 90.92 56.96
5.235 -153 -159.1 -71.15 -75.02 -103.2 -103.2 -63.19 7.953 -51.16 -47.07 -61.05 79.96 27.94 3.869 77.81 53.95
5.24 -173 -177.1 -73.08 -81.04 -121 -119.1 -67.06 1.935 -74.16 -63.19 -66.2 60.83 15.91 -1.075 58.9 48.79
5.245 -187 -185.1 -69.21 -77.17 -136.1 -129.2 -67.06 -7.093 -93.07 -76.09 -61.05 48.79 6.878 -21.06 44.92 40.84
5.25 -191.1 -177.1 -55.03 -69.21 -137.1 -131.1 -57.18 -15.05 -101 -83.19 -53.09 37.83 3.869 -33.1 33.96 39.98
5.255 -179.1 -155.2 -38.05 -51.16 -126.2 -118 -43.2 -14.19 -96.08 -77.17 -38.05 34.82 6.878 -35.04 30.95 41.91
5.26 -160.1 -133.1 -29.02 -33.1 -107 -105.1 -30.09 -14.19 -85.12 -67.06 -22.14 28.8 3.869 -24.07 25.79 42.99
5.265 -137.1 -113.1 -24.07 -21.06 -85.12 -92.21 -20.21 -19.13 -77.17 -55.03 -17.2 15.91 -2.149 -4.084 16.98 41.91
5.27 -116.1 -101 -25.15 -19.13 -67.06 -77.17 -18.06 -24.07 -73.08 -47.07 -16.12 -1.075 -25.15 2.794 7.953 26.87
5.275 -101 -91.14 -20.21 -21.06 -54.17 -62.12 -17.2 -24.07 -72.01 -41.06 -16.12 -8.168 -48.15 1.935 0 -2.149
5.28 -81.04 -79.1 -11.18 -11.18 -39.12 -47.07 -9.028 -17.2 -67.06 -35.04 -11.18 -15.05 -73.08 -9.028 -9.028 -39.12
5.285 -55.03 -57.18 3.869 0 -16.12 -25.15 1.935 1.935 -43.2 -24.07 0 -18.06 -90.06 -33.1 -22.14 -94.15
5.29 -31.17 -33.1 21.92 21.92 5.804 -3.009 21.92 10.96 -8.168 -7.093 14.83 -28.16 -101 -53.09 -44.06 -148.1
5.295 -19.13 -19.13 27.94 33.96 25.79 9.888 31.81 9.888 17.84 0 25.79 -51.16 -109.2 -61.05 -75.02 -181.2
5.3 -12.04 -19.13 20.85 30.95 39.98 17.84 28.8 -2.149 37.83 9.888 23 -76.09 -113.1 -52.02 -96.08 -178.2
5.305 -23.21 -39.12 0.8598 12.9 32.89 12.9 10.96 -28.16 43.85 11.82 6.878 -94.15 -105.1 -32.03 -102.1 -135.2
5.31 -41.06 -67.06 -17.2 -7.093 15.91 -1.075 -5.159 -43.2 29.88 3.869 -9.028 -89.2 -77.17 -7.093 -81.04 -67.06
5.315 -64.05 -85.12 -28.16 -22.14 -3.009 -29.02 -18.06 -38.05 18.92 0 -20.21 -55.03 -27.08 12.9 -35.04 5.804
5.32 -80.18 -97.16 -28.16 -26.01 -25.15 -57.18 -20.21 -15.05 14.83 -8.168 -21.06 -5.159 27.94 30.95 7.953 73.94
5.325 -91.14 -97.16 -23.21 -23.21 -49.01 -77.17 -17.2 9.888 9.888 -15.05 -17.2 37.83 85.98 41.91 47.93 121.9
5.33 -97.16 -95.01 -23.21 -19.13 -62.12 -88.13 -15.05 29.88 8.813 -16.12 -13.11 67.92 123.8 47.93 67.92 147.9
5.335 -101 -99.09 -31.17 -23.21 -72.01 -94.15 -21.06 33.96 1.935 -16.12 -21.06 79.96 135.8 47.93 73.94 152
5.34 -107 -113.1 -45.14 -37.19 -77.17 -93.07 -35.04 27.94 -13.11 -17.2 -35.04 73.94 129.8 43.85 69.86 143.8
5.345 -108.1 -117.1 -55.03 -49.01 -72.01 -86.19 -49.01 17.84 -23.21 -12.04 -49.01 63.84 115.9 35.9 63.84 127.9
5.35 -96.08 -107 -53.09 -53.09 -60.19 -72.01 -53.09 15.91 -19.13 -1.075 -51.16 57.82 101.9 29.88 61.91 107.9
5.355 -71.15 -83.19 -35.04 -41.06 -41.06 -55.03 -41.06 21.92 0.8598 9.888 -37.19 55.89 95.87 31.81 59.97 92
5.36 -36.11 -43.2 -11.18 -17.2 -17.2 -35.04 -17.2 29.88 21.92 27.94 -13.11 55.89 93.93 39.98 57.82 81.9
5.365 -1.075 -9.028 3.869 0 -2.149 -19.13 1.935 29.88 39.98 37.83 3.869 51.8 85.98 46 49.87 71.79
5.37 13.97 4.944 11.82 9.888 5.804 -13.11 13.97 17.84 39.98 33.96 17.84 39.98 67.92 47.93 37.83 57.82
5.375 13.97 6.878 5.804 7.953 1.935 -19.13 9.888 0.8598 17.84 17.84 13.97 17.84 35.9 37.83 17.84 33.96
5.38 3.869 0.8598 -1.075 0.8598 -7.093 -27.08 0.8598 -25.15 -5.159 0.8598 1.935 -5.159 1.935 23.86 -1.075 5.804
5.385 0.8598 -1.075 -9.028 -9.028 -19.13 -29.02 -11.18 -41.06 -29.02 -9.028 -5.159 -31.17 -19.13 13.97 -25.15 -13.11
5.39 3.869 10.96 -5.159 -9.028 -17.2 -15.05 -13.11 -45.14 -33.1 -5.159 -11.18 -49.01 -27.08 11.82 -41.06 -25.15
5.395 29.88 34.82 1.935 0.8598 0.8598 3.869 -5.159 -33.1 -13.11 9.888 -5.159 -49.01 -17.2 17.84 -43.2 -27.08
5.4 61.91 58.9 15.91 11.82 23.86 29.88 3.869 -9.028 13.97 33.96 0 -35.04 3.869 27.94 -33.1 -19.13
5.405 83.83 74.8 25.79 25.79 47.93 43.85 19.99 13.97 46 51.8 13.97 -11.18 31.81 35.9 -13.11 -11.18
5.41 87.91 76.95 33.96 37.83 57.82 43.85 29.88 37.83 71.79 57.82 27.94 7.953 55.89 37.83 3.869 -5.159
5.415 79.96 72.87 39.98 46 57.82 33.96 37.83 55.89 83.83 53.95 39.98 23.86 71.79 41.91 21.92 -2.149
5.42 67.92 70.93 47.93 51.8 47.93 23.86 46 67.92 92 46 49.87 35.9 81.9 47.93 31.81 7.953
5.425 60.83 70.93 51.8 55.89 37.83 19.99 51.8 73.94 93.93 43.85 55.89 43.85 85.98 55.89 37.83 17.84
5.43 54.81 64.91 48.79 50.94 29.88 19.99 50.94 73.94 92 43.85 49.87 51.8 87.91 59.97 43.85 27.94
5.435 43.85 44.92 29.88 31.81 15.91 17.84 35.9 67.92 79.96 46 31.81 61.91 83.83 57.82 51.8 37.83
5.44 30.95 20.85 8.813 8.813 6.878 12.9 14.83 57.82 60.83 43.85 12.9 73.94 75.88 51.8 63.84 47.93
5.445 16.98 0.8598 -2.149 -6.019 -2.149 0.8598 1.935 49.87 36.97 35.9 1.935 83.83 69.86 49.87 77.81 63.84
5.45 5.804 -1.075 0.8598 -9.028 -9.028 -1.075 -1.075 43.85 17.84 25.79 -2.149 89.85 67.92 57.82 87.91 79.96
5.455 9.888 10.96 10.96 -1.075 -8.168 -4.084 4.944 44.92 8.813 18.92 8.813 85.98 67.92 67.92 88.99 87.91
5.46 19.99 38.91 28.8 19.99 -2.149 0 23 42.99 6.878 10.96 24.93 73.94 63.84 69.86 72.87 79.96
5.465 35.9 66.85 39.98 35.9 3.869 5.804 35.9 31.81 5.804 7.953 33.96 49.87 46 59.97 41.91 59.97
5.47 52.88 90.92 39.98 39.98 11.82 15.91 37.83 14.83 0.8598 6.878 33.96 16.98 15.91 37.83 6.878 25.79
5.475 67.92 103 31.81 36.97 15.91 23.86 31.81 -6.019 -3.009 4.944 25.79 -14.19 -21.06 14.83 -20.21 -2.149
5.48 79.96 115 29.88 33.96 17.84 21.92 27.94 -33.1 -13.11 0 23.86 -45.14 -59.11 -1.075 -43.2 -19.13
5.485 88.99 130.9 41.91 39.98 20.85 20.85 33.96 -46.21 -15.05 1.935 30.95 -60.19 -83.19 -8.168 -51.16 -33.1
5.49 90.92 146.8 58.9 54.81 25.79 17.84 46.86 -43.2 -4.084 -1.075 47.93 -64.05 -93.07 -6.019 -49.01 -40.2
5.495 89.85 158.8 75.88 69.86 33.96 19.99 63.84 -29.02 9.888 0 67.92 -57.18 -81.04 -3.009 -43.2 -45.14
5.5 89.85 162.9 85.98 84.9 41.91 29.88 81.9 -5.159 30.95 8.813 77.81 -44.06 -55.03 -2.149 -34.18 -42.13
5.505 94.79 156.9 83.83 87.91 54.81 44.92 83.83 11.82 50.94 19.99 78.89 -28.16 -25.15 5.804 -27.08 -29.02
5.51 104.9 138.9 69.86 78.89 61.91 58.9 73.94 23.86 59.97 27.94 67.92 -20.21 -2.149 12.9 -23.21 -6.019
5.515 109 118.9 51.8 65.99 69 64.91 59.97 25.79 62.98 31.81 50.94 -12.04 21.92 15.91 -13.11 13.97
5.52 101.9 98.88 39.98 46.86 63.84 61.91 46 27.94 62.98 30.95 35.9 -2.149 43.85 19.99 -2.149 40.84
5.525 83.83 74.8 29.88 29.88 55.89 49.87 31.81 29.88 61.91 25.79 23.86 5.804 67.92 21.92 11.82 65.99
5.53 69 60.83 30.95 24.93 47.93 39.98 24.93 43.85 69 23.86 19.99 28.8 95.87 28.8 37.83 94.79
5.535 60.83 56.96 35.9 25.79 42.99 32.89 27.94 62.98 73.94 29.88 23 58.9 132 32.89 67.92 121.9
5.54 61.91 58.9 33.96 29.88 41.91 35.9 29.88 79.96 79.96 27.94 23.86 89.85 161.9 37.83 92 147.9
5.545 75.88 64.91 35.9 34.82 46 43.85 31.81 92.86 77.81 28.8 27.94 112.8 178 42.99 112.8 159.9
5.55 82.97 69 29.88 31.81 47.93 46 27.94 92.86 66.85 23 29.88 124.9 175.8 43.85 120.8 153.9
5.555 75.88 62.98 15.91 21.92 41.91 39.98 19.99 77.81 41.91 11.82 19.99 115.9 152 37.83 107.9 129.8
5.56 57.82 44.92 2.794 7.953 26.87 23 8.813 50.94 12.9 2.794 8.813 92 113.9 29.88 86.84 92
5.565 31.81 23 -8.168 -2.149 2.794 2.794 -4.084 18.92 -16.12 -4.084 -2.149 61.91 65.99 15.91 56.96 51.8
5.57 5.804 2.794 -17.2 -15.05 -17.2 -9.028 -17.2 -9.028 -45.14 -9.028 -13.11 33.96 19.99 1.935 29.88 13.97
5.575 -2.149 -3.009 -20.21 -20.21 -30.09 -8.168 -22.14 -33.1 -64.05 -5.159 -16.12 15.91 -13.11 -9.028 11.82 -7.093
5.58 1.935 -1.075 -10.1 -14.19 -26.01 4.944 -14.19 -43.2 -65.13 3.869 -8.168 5.804 -39.12 -17.2 1.935 -27.08
5.585 11.82 4.944 0 -3.009 -5.159 29.88 -1.075 -41.06 -45.14 21.92 1.935 0 -51.16 -17.2 0.8598 -39.12
5.59 34.82 26.87 16.98 10.96 15.91 49.87 8.813 -35.04 -17.2 35.9 13.97 -1.075 -53.09 -11.18 -7.093 -43.2
5.595 50.94 42.99 25.79 23.86 35.9 55.89 19.99 -27.08 5.804 35.9 21.92 -13.11 -51.16 -7.093 -21.06 -45.14
5.6 53.95 48.79 25.79 31.81 41.91 46 23.86 -25.15 19.99 21.92 21.92 -31.17 -47.07 -9.028 -37.19 -39.12
5.605 46 42.99 19.99 29.88 33.96 27.94 19.99 -27.08 17.84 1.935 15.91 -47.07 -43.2 -15.05 -51.16 -29.02
5.61 29.88 24.93 11.82 21.92 19.99 15.91 13.97 -27.08 5.804 -9.028 9.888 -55.03 -31.17 -17.2 -53.09 -7.093
5.615 13.97 0.8598 3.869 11.82 9.888 15.91 5.804 -27.08 -1.075 -13.11 5.804 -53.09 -13.11 -7.093 -43.2 17.84
5.62 1.935 -19.13 0.8598 1.935 5.804 17.84 0 -21.06 -7.093 -7.093 0 -41.06 9.888 9.888 -25.15 51.8
5.625 -3.009 -41.06 -9.028 -3.009 3.869 15.91 -5.159 -15.05 -3.009 -2.149 -5.159 -29.02 37.83 33.96 -13.11 77.81
5.63 -15.05 -59.11 -23.21 -17.2 -2.149 5.804 -19.13 -13.11 -2.149 5.804 -19.13 -21.06 59.97 43.85 -7.093 89.85
5.635 -25.15 -69.21 -37.19 -29.02 -7.093 -5.159 -33.1 -17.2 1.935 5.804 -33.1 -19.13 69.86 39.98 -9.028 87.91
5.64 -31.17 -73.08 -43.2 -37.19 -17.2 -15.05 -43.2 -17.2 3.869 1.935 -41.06 -19.13 73.94 23.86 -13.11 79.96
5.645 -29.02 -69.21 -37.19 -35.04 -23.21 -15.05 -41.06 -11.18 3.869 0 -35.04 -15.05 71.79 11.82 -9.028 69.86
5.65 -21.06 -57.18 -21.06 -23.21 -21.06 -7.093 -25.15 0 5.804 -2.149 -17.2 -1.075 67.92 5.804 -2.149 57.82
5.655 -15.05 -47.07 0.8598 -5.159 -15.05 0.8598 -1.075 15.91 3.869 -1.075 1.935 9.888 57.82 3.869 11.82 41.91
5.66 -17.2 -39.12 11.82 5.804 -13.11 0.8598 13.97 21.92 -1.075 -11.18 17.84 21.92 29.88 -1.075 19.99 11.82
5.665 -27.08 -39.12 15.91 11.82 -17.2 -5.159 21.92 11.82 -25.15 -23.21 23.86 19.99 -7.093 -23.21 15.91 -23.21
5.67 -34.18 -39.12 11.82 9.888 -25.15 -11.18 17.84 -5.159 -55.03 -33.1 19.99 4.944 -55.03 -55.03 -2.149 -65.13
5.675 -32.03 -41.06 7.953 1.935 -23.21 -9.028 7.953 -31.17 -81.04 -37.19 11.82 -14.19 -98.02 -81.04 -20.21 -103.2
5.68 -19.13 -37.19 5.804 0 -11.18 0 1.935 -49.01 -89.2 -29.02 5.804 -41.06 -125.1 -91.14 -43.2 -131.1
5.685 0 -27.08 7.953 3.869 7.953 21.92 0 -58.04 -75.02 -15.05 5.804 -62.12 -134.1 -84.04 -64.05 -146.2
5.69 6.878 -23.21 7.953 3.869 30.95 37.83 0 -62.12 -45.14 -2.149 3.869 -82.11 -134.1 -70.07 -82.11 -152.2
5.695 1.935 -29.02 0.8598 0.8598 39.98 39.98 0.8598 -71.15 -13.11 9.888 -3.009 -97.16 -133.1 -55.03 -99.09 -151.1
5.7 -11.18 -41.06 -18.06 -14.19 34.82 27.94 -15.05 -78.03 2.794 15.91 -20.21 -114.1 -134.1 -40.2 -112.2 -134.1
5.705 -39.12 -67.06 -44.06 -38.05 14.83 4.944 -34.18 -90.06 6.878 11.82 -44.06 -127 -135.2 -26.01 -120.2 -106.2
5.71 -73.08 -97.16 -69.21 -61.05 -11.18 -21.06 -59.11 -95.01 -1.075 0 -67.06 -135.2 -129.2 -7.093 -127 -65.13
5.715 -106.2 -125.1 -80.18 -74.16 -42.13 -52.02 -74.16 -92.21 -24.07 -13.11 -82.11 -133.1 -109.2 6.878 -121 -17.2
5.72 -136.1 -149.2 -80.18 -78.03 -69.21 -76.09 -78.03 -81.04 -42.13 -31.17 -82.11 -122.1 -78.03 19.99 -109.2 15.91
5.725 -155.2 -161.2 -69.21 -73.08 -89.2 -93.07 -69.21 -69.21 -55.03 -41.06 -73.08 -99.09 -39.12 21.92 -85.12 47.93
5.73 -154.1 -155.2 -47.07 -55.03 -93.07 -88.13 -52.02 -46.21 -49.01 -41.06 -49.01 -63.19 0 20.85 -43.2 74.8
5.735 -139.1 -137.1 -27.08 -37.19 -82.11 -71.15 -27.08 -14.19 -37.19 -29.02 -27.08 -14.19 42.99 23 2.794 95.87
5.74 -111.1 -117.1 -13.11 -21.06 -65.13 -55.03 -13.11 17.84 -15.05 -15.05 -9.028 33.96 79.96 27.94 53.95 107.9
5.745 -88.13 -99.09 -13.11 -12.04 -51.16 -39.12 -5.159 50.94 0 -9.028 -8.168 80.82 101.9 32.89 92 106.8
5.75 -81.04 -97.16 -26.01 -20.21 -44.06 -40.2 -15.05 65.99 0.8598 -10.1 -19.13 103 104.9 24.93 96.94 82.97
5.755 -92.21 -109.2 -48.15 -42.13 -54.17 -50.08 -36.11 54.81 -13.11 -16.12 -43.2 94.79 82.97 5.804 76.95 40.84
5.76 -103.2 -123.2 -72.01 -66.2 -66.2 -60.19 -57.18 19.99 -35.04 -22.14 -63.19 64.91 46.86 -10.1 42.99 1.935
5.765 -106.2 -131.1 -83.19 -80.18 -73.08 -57.18 -71.15 -12.04 -52.02 -17.2 -74.16 28.8 11.82 -28.16 13.97 -32.03
5.77 -93.07 -125.1 -79.1 -81.04 -65.13 -43.2 -73.08 -39.12 -57.18 -1.075 -69.21 0 -9.028 -31.17 -1.075 -49.01
5.775 -65.13 -103.2 -63.19 -63.19 -42.13 -19.13 -59.11 -44.06 -47.07 13.97 -53.09 -4.084 -22.14 -28.16 0 -55.03
5.78 -36.11 -77.17 -41.06 -39.12 -15.05 -1.075 -42.13 -40.2 -25.15 23.86 -33.1 -5.159 -25.15 -24.07 1.935 -62.12
5.785 -19.13 -55.03 -25.15 -19.13 0 11.82 -23.21 -29.02 -11.18 25.79 -17.2 -1.075 -37.19 -33.1 -2.149 -85.12
5.79 -10.1 -35.04 -12.04 -8.168 15.91 23 -10.1 -19.13 0 17.84 -8.168 -4.084 -50.08 -45.14 -5.159 -117.1
5.795 -10.1 -25.15 -10.1 -4.084 18.92 28.8 -6.019 -20.21 1.935 9.888 -8.168 -19.13 -71.15 -58.04 -23.21 -145.1
5.8 -17.2 -27.08 -17.2 -9.028 17.84 25.79 -11.18 -29.02 0 5.804 -15.05 -43.2 -91.14 -59.11 -49.01 -159.1
5.805 -19.13 -39.12 -30.09 -20.21 18.92 26.87 -22.14 -46.21 -1.075 3.869 -28.16 -69.21 -109.2 -52.02 -78.03 -156.1
5.81 -29.02 -55.03 -56.1 -42.13 8.813 11.82 -47.07 -72.01 -2.149 0 -50.08 -96.08 -134.1 -48.15 -104 -144
5.815 -47.07 -87.05 -79.1 -65.13 0.8598 -3.009 -73.08 -97.16 -21.06 -7.093 -75.02 -117.1 -157.1 -51.16 -123.2 -131.1
5.82 -68.14 -113.1 -97.16 -85.12 -20.21 -29.02 -91.14 -110.1 -47.07 -27.08 -93.07 -120.2 -170 -58.04 -120.2 -114.1
5.825 -86.19 -131.1 -97.16 -95.01 -41.06 -51.16 -97.16 -106.2 -73.08 -45.14 -97.16 -104 -166.2 -62.12 -96.08 -86.19
5.83 -103.2 -137.1 -81.04 -87.05 -57.18 -63.19 -87.05 -79.1 -83.19 -53.09 -85.12 -67.06 -137.1 -53.09 -51.16 -45.14
5.835 -106.2 -125.1 -57.18 -67.06 -61.05 -61.05 -65.13 -27.08 -71.15 -47.07 -59.11 -10.1 -76.09 -27.08 2.794 1.935
5.84 -100.2 -111.1 -31.17 -43.2 -55.03 -51.16 -39.12 19.99 -43.2 -29.02 -33.1 42.99 -5.159 0 55.89 53.95
5.845 -87.05 -95.01 -13.11 -19.13 -47.07 -41.06 -17.2 63.84 -9.028 -11.18 -11.18 89.85 53.95 23.86 93.93 93.93
5.85 -75.02 -83.19 -3.009 -5.159 -35.04 -33.1 -5.159 92 7.953 -1.075 -2.149 121.9 97.8 33.96 117.8 109.8
5.855 -61.05 -71.15 0.8598 -2.149 -27.08 -25.15 -2.149 101.9 11.82 -1.075 3.869 133.9 113.9 29.88 126 107.9
5.86 -49.01 -59.11 -1.075 0 -17.2 -19.13 0 93.93 1.935 -3.009 1.935 132 106 19.99 121.9 92
5.865 -39.12 -49.01 -7.093 -1.075 -5.159 -7.093 0.8598 73.94 -9.028 -3.009 -1.075 113.9 83.83 11.82 106 69.86
5.87 -29.02 -43.2 -19.13 -15.05 -2.149 0 -9.028 41.91 -21.06 0 -15.05 85.98 53.95 5.804 77.81 43.85
5.875 -25.15 -43.2 -29.02 -29.02 5.804 9.888 -23.21 7.953 -25.15 9.888 -29.02 51.8 23.86 0 41.91 15.91
5.88 -25.15 -49.01 -35.04 -39.12 7.953 19.99 -33.1 -15.05 -23.21 19.99 -39.12 17.84 -2.149 -5.159 9.888 -13.11
5.885 -27.08 -49.01 -27.08 -37.19 11.82 25.79 -31.17 -27.08 -15.05 23.86 -33.1 0.8598 -17.2 -15.05 -7.093 -47.07
5.89 -23.21 -41.06 -5.159 -17.2 17.84 29.88 -13.11 -17.2 0.8598 25.79 -13.11 -7.093 -25.15 -23.21 -11.18 -79.1
5.895 -13.11 -23.21 13.97 3.869 27.94 35.9 7.953 0 15.91 27.94 7.953 -3.009 -25.15 -29.02 -7.093 -103.2
5.9 -1.075 -7.093 27.94 25.79 39.98 39.98 27.94 17.84 41.91 31.81 23.86 -3.009 -25.15 -33.1 -9.028 -119.1
5.905 1.935 0.8598 23.86 27.94 49.87 39.98 29.88 15.91 57.82 31.81 21.92 -17.2 -37.19 -35.04 -27.08 -127
5.91 -2.149 -7.093 1.935 11.82 47.93 33.96 9.888 -3.009 57.82 25.79 3.869 -45.14 -65.13 -35.04 -63.19 -125.1
5.915 -17.2 -27.08 -21.06 -11.18 31.81 21.92 -13.11 -43.2 35.9 7.953 -17.2 -83.19 -101 -29.02 -103.2 -109.2
5.92 -43.2 -53.09 -41.06 -35.04 7.953 7.953 -37.19 -81.04 0.8598 -7.093 -39.12 -117.1 -129.2 -19.13 -131.1 -79.1
5.925 -65.13 -73.08 -47.07 -47.07 -11.18 -1.075 -47.07 -103.2 -39.12 -25.15 -45.14 -131.1 -137.1 -3.009 -135.2 -37.19
5.93 -77.17 -81.04 -39.12 -45.14 -31.17 -11.18 -43.2 -102.1 -65.13 -33.1 -39.12 -123.2 -113.1 6.878 -113.1 6.878
5.935 -81.04 -83.19 -25.15 -35.04 -42.13 -16.12 -31.17 -84.04 -69.21 -30.09 -27.08 -93.07 -69.21 18.92 -73.08 50.94
5.94 -79.1 -81.04 -15.05 -25.15 -45.14 -23.21 -19.13 -55.03 -57.18 -27.08 -17.2 -55.03 -13.11 21.92 -27.08 81.9
5.945 -80.18 -79.1 -9.028 -17.2 -44.06 -24.07 -11.18 -18.06 -37.19 -22.14 -9.028 -12.04 29.88 20.85 3.869 94.79
5.95 -82.11 -71.15 -9.028 -11.18 -38.05 -26.01 -7.093 4.944 -20.21 -22.14 -5.159 14.83 65.99 14.83 27.94 90.92
5.955 -85.12 -63.19 -9.028 -5.159 -35.04 -29.02 -3.009 21.92 -9.028 -21.06 -5.159 33.96 83.83 9.888 35.9 77.81
5.96 -76.09 -49.01 -5.159 1.935 -24.07 -26.01 1.935 33.96 -2.149 -16.12 -3.009 44.92 87.91 9.888 38.91 65.99
5.965 -62.12 -35.04 -3.009 2.794 -10.1 -17.2 0.8598 31.81 -1.075 -6.019 1.935 46.86 84.9 11.82 38.91 51.8
5.97 -49.01 -29.02 -1.075 3.869 0.8598 -7.093 0 21.92 5.804 -2.149 0.8598 43.85 73.94 11.82 35.9 39.98
5.975 -31.17 -25.15 -1.075 0.8598 3.869 0 1.935 14.83 12.9 3.869 1.935 41.91 60.83 10.96 32.89 24.93
5.98 -25.15 -27.08 -5.159 0 10.96 12.9 -2.149 7.953 13.97 4.944 0 33.96 40.84 3.869 29.88 3.869
5.985 -15.05 -27.08 -7.093 -3.009 9.888 21.92 -3.009 7.953 3.869 1.935 -3.009 25.79 17.84 -7.093 19.99 -13.11
5.99 -4.084 -15.05 0 0 15.91 27.94 1.935 14.83 1.935 7.953 0 25.79 1.935 -20.21 20.85 -32.03
5.995 0.8598 0.8598 7.953 6.878 23.86 35.9 9.888 26.87 0 13.97 10.96 28.8 0 -26.01 27.94 -46.21
6 0 6.878 17.84 16.98 29.88 40.84 18.92 39.98 4.944 28.8 23.86 37.83 0 -25.15 39.98 -54.17
6.005 0 6.878 21.92 18.92 41.91 41.91 21.92 44.92 24.93 39.98 26.87 40.84 6.878 -22.14 35.9 -64.05
6.01 1.935 0.8598 12.9 12.9 39.98 43.85 16.98 36.97 41.91 46 19.99 29.88 11.82 -16.12 20.85 -76.09
6.015 -1.075 -15.05 0.8598 1.935 35.9 39.98 3.869 19.99 46 37.83 7.953 3.869 3.869 -13.11 -5.159 -93.07
6.02 -1.075 -25.15 -9.028 -2.149 30.95 36.97 1.935 3.869 41.91 26.87 1.935 -25.15 -10.1 -11.18 -41.06 -107
6.025 -3.009 -27.08 -11.18 -4.084 25.79 25.79 -2.149 -6.019 26.87 11.82 -4.084 -55.03 -42.13 -12.04 -68.14 -112.2
6.03 -15.05 -29.02 -11.18 -5.159 11.82 9.888 -7.093 -13.11 7.953 0.8598 -5.159 -77.17 -71.15 -9.028 -81.04 -101
6.035 -38.05 -35.04 -11.18 -8.168 -6.019 -11.18 -10.1 -15.05 -4.084 -14.19 -6.019 -80.18 -90.06 -1.075 -76.09 -75.02
6.04 -72.01 -53.09 -21.06 -20.21 -40.2 -44.06 -20.21 -19.13 -24.07 -28.16 -13.11 -70.07 -97.16 3.869 -64.05 -39.12
6.045 -105.1 -79.1 -35.04 -39.12 -77.17 -71.15 -35.04 -23.21 -47.07 -41.06 -27.08 -51.16 -87.05 11.82 -43.2 -3.009
6.05 -120.2 -91.14 -43.2 -47.07 -98.02 -80.18 -43.2 -22.14 -60.19 -40.2 -35.04 -22.14 -57.18 23 -13.11 32.89
6.055 -114.1 -91.14 -37.19 -45.14 -94.15 -66.2 -39.12 -12.04 -65.13 -32.03 -33.1 6.878 -15.05 32.89 19.99 69
6.06 -93.07 -71.15 -25.15 -31.17 -71.15 -43.2 -25.15 3.869 -51.16 -19.13 -23.21 46 27.94 41.91 61.91 97.8
6.065 -61.05 -51.16 -13.11 -15.05 -38.05 -18.06 -11.18 28.8 -27.08 -10.1 -9.028 79.96 67.92 48.79 95.87 116.9
6.07 -31.17 -31.17 -5.159 -7.093 -15.05 -5.159 -1.075 48.79 -1.075 -7.093 -1.075 101.9 93.93 46.86 107.9 120.8
6.075 -7.093 -15.05 -5.159 -7.093 -7.093 -3.009 -2.149 53.95 5.804 -7.093 -1.075 103.8 97.8 35.9 101.9 106
6.08 9.888 0.8598 -5.159 -7.093 -7.093 -3.009 0.8598 47.93 5.804 -9.028 -1.075 92 87.91 21.92 81.9 80.82
6.085 37.83 32.89 -2.149 -3.009 -3.009 3.869 0 39.98 0 -7.093 -2.149 71.79 69.86 9.888 63.84 53.95
6.09 73.94 76.95 13.97 9.888 7.953 29.88 11.82 33.96 -2.149 0.8598 11.82 55.89 51.8 3.869 53.95 27.94
6.095 115.9 120.8 31.81 29.88 35.9 63.84 29.88 31.81 5.804 7.953 27.94 43.85 37.83 5.804 43.85 7.953
6.1 155.8 156.9 43.85 46 63.84 89.85 41.91 27.94 19.99 21.92 39.98 29.88 23.86 7.953 27.94 -7.093
6.105 181.8 175 43.85 49.87 81.9 101.9 43.85 15.91 31.81 33.96 39.98 7.953 7.953 9.888 0 -25.15
6.11 189.8 182.9 39.98 46 87.91 103.8 39.98 0.8598 33.96 41.91 31.81 -19.13 -7.093 5.804 -31.17 -45.14
6.115 187.9 188.9 39.98 41.91 89.85 103.8 35.9 -21.06 27.94 43.85 29.88 -51.16 -31.17 -2.149 -63.19 -61.05
6.12 185.9 201 49.87 46 93.93 109.8 41.91 -31.17 21.92 43.85 37.83 -71.15 -51.16 -3.009 -77.17 -71.15
6.125 193.9 216.9 63.84 59.97 107.9 123.8 53.95 -29.02 25.79 41.91 51.8 -77.17 -63.19 -5.159 -77.17 -69.21
6.13 209.8 224.8 75.88 71.79 119.9 135.8 67.92 -15.05 35.9 39.98 65.99 -73.08 -61.05 0.8598 -67.06 -55.03
6.135 221.8 218.8 73.94 75.88 126 138 71.79 -1.075 47.93 33.96 67.92 -61.05 -47.07 5.804 -57.18 -31.17
6.14 218 198.8 59.97 65.99 115.9 123.8 63.84 1.935 53.95 27.94 55.89 -51.16 -21.06 15.91 -53.09 0.8598
6.145 193.9 168.9 37.83 47.93 92 95.87 46 1.935 46 17.84 39.98 -41.06 5.804 23.86 -45.14 32.89
6.15 158 142.9 23.86 31.81 65.99 69.86 29.88 0 29.88 5.804 27.94 -25.15 39.98 29.88 -25.15 66.85
6.155 127.9 129 23.86 27.94 46 51.8 27.94 5.804 15.91 -2.149 27.94 -1.075 71.79 33.96 0 97.8
6.16 115 126.8 39.98 37.83 40.84 46 37.83 23.86 12.9 0.8598 39.98 28.8 103.8 39.98 40.84 124.9
6.165 115 132.8 61.91 56.96 42.99 47.93 55.89 46 18.92 -2.149 55.89 62.98 127.9 47.93 74.8 140.8
6.17 117.8 132.8 73.94 67.92 43.85 47.93 67.92 65.99 31.81 5.804 65.99 89.85 146 53.95 97.8 141.9
6.175 116.9 126.8 69 66.85 38.91 44.92 66.85 75.88 40.84 11.82 62.98 109 152.8 54.81 110.9 132
6.18 106.8 115 50.94 52.88 28.8 38.91 52.88 71.79 42.99 14.83 50.94 112.8 144.9 48.79 110.9 103.8
6.185 93.93 104.9 31.81 33.96 19.99 33.96 35.9 59.97 35.9 15.91 35.9 101.9 119.9 33.96 103.8 69.86
6.19 92 103 23 23 23.86 38.91 24.93 46 26.87 16.98 26.87 92 88.99 18.92 92 38.91
6.195 99.95 109 24.93 23 31.81 42.99 23 33.96 17.84 14.83 26.87 73.94 56.96 2.794 67.92 13.97
6.2 109.8 120.8 35.9 29.88 37.83 39.98 29.88 21.92 9.888 7.953 33.96 46 25.79 -9.028 35.9 -1.075
6.205 115 126.8 47.93 39.98 36.97 33.96 39.98 5.804 1.935 2.794 41.91 13.97 1.935 -17.2 2.794 -12.04
6.21 101.9 126.8 46 39.98 26.87 17.84 41.91 -7.093 -2.149 1.935 41.91 -8.168 -7.093 -25.15 -22.14 -23.21
6.215 77.81 115 39.98 35.9 11.82 9.888 33.96 -23.21 -11.18 -2.149 37.83 -33.1 -13.11 -23.21 -39.12 -31.17
6.22 57.82 104.9 32.89 31.81 8.813 10.96 28.8 -34.18 -13.11 3.869 32.89 -50.08 -12.04 -16.12 -48.15 -44.06
6.225 52.88 100.8 29.88 28.8 17.84 25.79 27.94 -38.05 -1.075 20.85 30.95 -59.11 -13.11 -11.18 -61.05 -69.21
6.23 67.92 106.8 35.9 35.9 41.91 43.85 31.81 -33.1 15.91 35.9 33.96 -71.15 -21.06 -9.028 -73.08 -97.16
6.235 96.94 116.9 52.88 53.95 69.86 65.99 46 -21.06 43.85 53.95 42.99 -77.17 -33.1 -17.2 -84.04 -124
6.24 120.8 129 69.86 66.85 92.86 81.9 59.97 -10.1 69.86 59.97 52.88 -85.12 -43.2 -28.16 -90.06 -145.1
6.245 130.9 135 79.96 80.82 106 93.93 70.93 0 88.99 59.97 65.99 -76.09 -49.01 -39.12 -80.18 -146.2
6.25 129 135 83.83 88.99 104.9 89.85 77.81 16.98 95.87 55.89 72.87 -63.19 -47.07 -40.2 -60.19 -137.1
