    T[sec] Fp1 Fp2  F7  F3  F4  F8  T3  C3  C4  T4  T5  P3  P4  T6  O1  O2
41 245.1 245.1 245.1 245.1 245.1 245.1 245.1 245.1 245.1 245.1 245.1 245.1 245.1 245.1 245.1 245.1
0.625 -11.01 -1.077 -3.112 -13.05 -3.112 -5.027 -5.027 -9.096 -1.077 -5.027 -5.027 -7.062 -3.112 5.984 -11.01 0
0.63 0.9575 -1.077 0 -11.01 1.915 0 -2.035 -1.077 1.915 -2.035 0 -5.027 -4.069 11.97 -10.05 1.915
0.635 14.96 0.9575 0.9575 -3.112 0.9575 0 -3.112 0.9575 2.992 -4.069 -4.069 -9.096 -10.05 8.977 -12.09 -4.069
0.64 15.92 0.9575 -1.077 -2.035 -2.035 -3.112 -3.112 -3.112 -1.077 -9.096 -9.096 -9.096 -15.08 5.984 -9.096 -11.01
0.645 14.96 4.907 -3.112 6.942 -1.077 -4.069 0.9575 -5.027 -7.062 -10.05 -6.104 -3.112 -13.05 2.992 0.9575 -10.05
0.65 3.95 10.89 -3.112 9.934 0 -6.104 3.95 -1.077 -7.062 -10.05 -1.077 1.915 -7.062 0.9575 11.97 -7.062
0.655 -3.112 14.96 -3.112 5.984 -2.035 -7.062 9.934 1.915 -5.027 -9.096 5.984 7.899 -2.035 -2.035 15.92 -5.027
0.66 -11.01 10.89 -3.112 -1.077 0.9575 -7.062 7.899 3.95 1.915 -9.096 9.934 5.984 3.95 1.915 10.89 -9.096
0.665 -15.08 -1.077 -5.027 -2.035 -3.112 -7.062 0 1.915 1.915 -9.096 5.984 -3.112 0 0.9575 1.915 -15.08
0.67 -17.12 -11.01 -5.027 -7.062 -7.062 -7.062 -9.096 -5.027 -1.077 -13.05 -3.112 -23.1 -5.027 -1.077 -21.06 -19.03
0.675 -17.12 -19.03 -5.027 -5.027 -11.01 -11.01 -21.06 -21.06 -10.05 -21.06 -19.03 -41.05 -19.03 -7.062 -40.1 -23.1
0.68 -17.12 -19.03 -7.062 -7.062 -17.12 -15.08 -29.08 -31.12 -18.07 -29.08 -31.12 -53.02 -33.03 -15.08 -56.01 -27.05
0.685 -19.03 -13.05 -15.08 -13.05 -25.01 -19.03 -27.05 -33.03 -29.08 -33.03 -35.07 -59.01 -43.09 -25.01 -65.11 -33.03
0.69 -19.03 -7.062 -23.1 -18.07 -31.12 -19.03 -23.1 -29.08 -35.07 -35.07 -29.08 -57.09 -45 -31.12 -71.09 -41.05
0.695 -17.12 -5.027 -29.08 -24.06 -31.12 -15.08 -17.12 -21.06 -37.1 -31.12 -19.03 -53.02 -41.05 -35.07 -65.11 -45
0.7 -11.01 -7.062 -29.08 -23.1 -29.08 -9.096 -11.01 -13.05 -33.03 -23.1 -9.096 -41.05 -31.12 -33.03 -51.11 -43.09
0.705 -1.077 -7.062 -17.12 -12.09 -21.06 -1.077 -7.062 -5.027 -27.05 -13.05 0.9575 -29.08 -19.03 -29.08 -33.03 -37.1
0.71 5.984 -1.077 -2.035 0 -13.05 0 -3.112 0.9575 -19.03 -7.062 3.95 -17.12 -9.096 -27.05 -13.05 -27.05
0.715 13.88 0.9575 11.97 1.915 -7.062 0 -2.035 0 -15.08 -5.027 5.984 -9.096 -3.112 -27.05 -3.112 -23.1
0.72 15.92 4.907 17.95 1.915 -9.096 -2.035 0 0 -19.03 -11.01 3.95 -9.096 -7.062 -27.05 -3.112 -21.06
0.725 11.97 4.907 13.88 0.9575 -15.08 -1.077 -2.035 -2.035 -29.08 -19.03 1.915 -13.05 -15.08 -25.01 -9.096 -19.03
0.73 7.899 -1.077 5.984 -3.112 -19.03 -3.112 -2.035 -1.077 -41.05 -23.1 1.915 -15.08 -25.01 -15.08 -11.01 -15.08
0.735 5.984 0.9575 1.915 0.9575 -17.12 -3.112 -2.035 -1.077 -47.04 -19.03 3.95 -9.096 -27.05 0.9575 -3.112 -3.112
0.74 13.88 0.9575 5.984 7.899 -7.062 0.9575 1.915 1.915 -43.09 -9.096 9.934 0 -21.06 13.88 5.984 7.899
0.745 21.9 17 15.92 24.89 0 -2.035 7.899 13.88 -27.05 5.984 15.92 17.95 -5.027 27.89 19.99 19.99
0.75 27.89 34.95 23.94 35.91 13.88 -2.035 13.88 23.94 0.9575 23.94 15.92 31.96 9.934 35.91 25.97 23.94
0.755 19.99 46.92 21.9 40.93 21.9 -2.035 15.92 27.89 21.9 37.94 13.88 36.98 29.92 39.98 19.99 23.94
0.76 3.95 48.95 11.97 38.9 24.89 1.915 11.97 22.98 43.93 45.96 5.984 31 43.93 39.98 7.899 19.99
0.765 -7.062 38.9 -2.035 35.91 25.97 5.984 7.899 11.97 55.89 47.99 0 19.99 47.99 37.94 -2.035 15.92
0.77 -11.01 28.96 -3.112 41.89 28.96 11.97 7.899 4.907 55.89 43.93 0 12.93 43.93 29.92 -2.035 13.88
0.775 -2.035 24.89 0 47.99 32.91 13.88 12.93 2.992 48.95 33.99 5.984 6.942 32.91 21.9 1.915 11.97
0.78 21.9 34.95 19.99 55.89 35.91 15.92 21.9 9.934 37.94 23.94 17.95 5.984 15.92 9.934 -2.035 11.97
0.785 45.96 50.99 42.97 56.97 37.94 11.97 34.95 25.97 31 13.88 34.95 5.984 2.992 0 6.942 13.88
0.79 58.89 64.99 56.97 53.98 33.99 7.899 44.88 33.99 26.93 8.977 46.92 5.984 1.915 -2.035 12.93 19.99
0.795 51.94 66.91 55.89 43.93 27.89 5.984 45.96 35.91 27.89 5.984 47.99 13.88 0 1.915 21.9 27.89
0.8 38.9 50.99 44.88 40.93 20.95 3.95 40.93 36.98 32.91 10.89 42.97 26.93 12.93 7.899 35.91 36.98
0.805 20.95 26.93 31 41.89 18.91 5.984 33.99 32.91 38.9 17 31 38.9 25.97 11.97 43.93 38.9
0.81 9.934 2.992 19.99 45.96 17.95 11.97 23.94 27.89 39.98 21.9 17.95 45.96 33.99 9.934 41.89 31.96
0.815 8.977 -7.062 17 46.92 15.92 17 17.95 21.9 39.98 24.89 13.88 44.88 33.99 3.95 34.95 20.95
0.82 8.977 -1.077 19.99 39.98 17 18.91 18.91 20.95 29.92 24.89 13.88 35.91 26.93 -2.035 22.98 10.89
0.825 11.97 10.89 21.9 33.99 17.95 17.95 23.94 17.95 21.9 19.99 17.95 21.9 15.92 0 11.97 3.95
0.83 17.95 31 26.93 35.91 23.94 18.91 31.96 25.97 17.95 17.95 24.89 13.88 11.97 4.907 6.942 7.899
0.835 22.98 48.95 32.91 41.89 31.96 17 36.98 33.99 17 17 27.89 17 17 12.93 5.984 13.88
0.84 27.89 56.97 35.91 55.89 37.94 15.92 39.98 37.94 21.9 13.88 31.96 19.99 21.9 17.95 5.984 21.9
0.845 35.91 54.94 42.97 63.91 46.92 17 39.98 41.89 31.96 15.92 32.91 23.94 26.93 18.91 8.977 26.93
0.85 37.94 52.9 45.96 68.94 48.95 17 40.93 41.89 34.95 15.92 31.96 26.93 27.89 18.91 9.934 25.97
0.855 35.91 44.88 42.97 64.99 47.99 14.96 39.98 38.9 38.9 17.95 35.91 24.89 28.96 20.95 12.93 24.89
0.86 29.92 44.88 33.99 52.9 42.97 12.93 38.9 33.99 38.9 23.94 35.91 24.89 27.89 24.89 19.99 21.9
0.865 23.94 38.9 26.93 41.89 40.93 12.93 37.94 31.96 43.93 33.99 38.9 29.92 32.91 32.91 28.96 28.96
0.87 17.95 34.95 23.94 37.94 35.91 13.88 35.91 29.92 43.93 39.98 39.98 35.91 37.94 37.94 37.94 35.91
0.875 14.96 28.96 31 37.94 35.91 18.91 34.95 29.92 52.9 48.95 41.89 42.97 44.88 42.97 51.94 49.91
0.88 13.88 22.98 38.9 41.89 37.94 22.98 31.96 27.89 57.93 51.94 40.93 43.93 45.96 44.88 60.92 65.95
0.885 21.9 17 41.89 45.96 37.94 21.9 27.89 23.94 53.98 49.91 35.91 43.93 43.93 39.98 63.91 65.95
0.89 31 20.95 37.94 50.99 38.9 18.91 24.89 22.98 47.99 40.93 27.89 45.96 40.93 37.94 62.96 62.96
0.895 34.95 28.96 22.98 50.99 37.94 14.96 19.99 21.9 41.89 24.89 21.9 46.92 35.91 33.99 58.89 52.9
0.9 35.91 32.91 5.984 41.89 35.91 11.97 13.88 21.9 31.96 9.934 9.934 49.91 31.96 29.92 53.98 39.98
0.905 26.93 32.91 1.915 27.89 31 13.88 9.934 22.98 24.89 2.992 6.942 56.97 33.99 23.94 53.98 32.91
0.91 12.93 22.98 0 17 24.89 17.95 8.977 18.91 24.89 4.907 6.942 62.96 34.95 17.95 53.98 31
0.915 0.9575 10.89 -2.035 5.984 19.99 21.9 11.97 17.95 23.94 11.97 11.97 65.95 37.94 15.92 49.91 31.96
0.92 -6.104 4.907 6.942 5.984 21.9 23.94 18.91 21.9 26.93 24.89 18.91 65.95 42.97 15.92 44.88 37.94
0.925 -1.077 4.907 17 6.942 23.94 25.97 28.96 27.89 26.93 31.96 26.93 59.96 42.97 15.92 36.98 37.94
0.93 11.97 17 25.97 13.88 25.97 25.97 33.99 31.96 27.89 35.91 33.99 47.99 37.94 13.88 25.97 33.99
0.935 31.96 32.91 33.99 21.9 31 27.89 38.9 34.95 28.96 33.99 37.94 36.98 32.91 9.934 22.98 23.94
0.94 49.91 46.92 37.94 23.94 34.95 31.96 37.94 32.91 27.89 31.96 37.94 24.89 25.97 3.95 22.98 13.88
0.945 57.93 54.94 37.94 21.9 37.94 31.96 31.96 25.97 27.89 31.96 33.99 15.92 21.9 1.915 23.94 5.984
0.95 55.89 54.94 31.96 17 38.9 29.92 25.97 17 27.89 33.99 25.97 10.89 19.99 3.95 19.99 0
0.955 47.99 46.92 21.9 8.977 35.91 23.94 15.92 9.934 27.89 33.99 13.88 4.907 19.99 9.934 7.899 -2.035
0.96 33.99 34.95 11.97 -2.035 31.96 17.95 5.984 3.95 25.97 27.89 3.95 -2.035 17.95 13.88 -1.077 -2.035
0.965 17.95 20.95 5.984 0 25.97 11.97 -2.035 0 23.94 15.92 0.9575 -1.077 13.88 17.95 -9.096 1.915
0.97 5.984 10.89 5.984 -2.035 21.9 9.934 0.9575 -2.035 19.99 3.95 0.9575 0.9575 9.934 17.95 -3.112 3.95
0.975 1.915 4.907 9.934 5.984 15.92 13.88 0 0 17.95 0.9575 1.915 1.915 7.899 15.92 7.899 5.984
0.98 1.915 -1.077 15.92 19.99 13.88 17.95 5.984 3.95 13.88 -1.077 9.934 9.934 7.899 13.88 29.92 5.984
0.985 7.899 -1.077 15.92 29.92 9.934 19.99 7.899 7.899 9.934 0.9575 15.92 19.99 5.984 9.934 41.89 1.915
0.99 15.92 -5.027 9.934 35.91 7.899 19.99 5.984 9.934 5.984 -2.035 13.88 23.94 1.915 5.984 41.89 -2.035
0.995 21.9 -1.077 1.915 35.91 9.934 17.95 -2.035 5.984 1.915 0 3.95 23.94 -2.035 3.95 31.96 0
1 27.89 4.907 -1.077 32.91 15.92 19.99 -7.062 1.915 3.95 1.915 -1.077 17.95 -2.035 7.899 21.9 7.899
1.005 33.99 18.91 -5.027 26.93 25.97 21.9 -11.01 0.9575 9.934 5.984 -9.096 11.97 7.899 13.88 13.88 23.94
1.01 37.94 26.93 -1.077 23.94 35.91 27.89 -9.096 -1.077 15.92 13.88 -9.096 7.899 19.99 23.94 9.934 37.94
1.015 39.98 24.89 0 24.89 37.94 29.92 -1.077 -1.077 19.99 21.9 -3.112 5.984 31.96 31.96 1.915 45.96
1.02 35.91 12.93 3.95 22.98 33.99 29.92 1.915 -2.035 17.95 23.94 -2.035 9.934 35.91 33.99 -5.027 41.89
1.025 31.96 4.907 5.984 21.9 23.94 23.94 7.899 0 11.97 17.95 1.915 9.934 31.96 31.96 -19.03 29.92
1.03 25.97 6.942 5.984 25.97 13.88 15.92 11.97 1.915 3.95 7.899 3.95 9.934 25.97 23.94 -33.03 17
1.035 23.94 22.98 7.899 27.89 10.89 9.934 13.88 6.942 0 -1.077 5.984 11.97 17.95 15.92 -36.03 4.907
1.04 23.94 42.97 13.88 33.99 9.934 5.984 17.95 11.97 0 -11.01 9.934 11.97 13.88 9.934 -31.12 -2.035
1.045 25.97 50.99 17.95 38.9 12.93 3.95 21.9 22.98 1.915 -13.05 13.88 13.88 15.92 3.95 -18.07 -1.077
1.05 25.97 46.92 19.99 41.89 17 8.977 23.94 28.96 10.89 -5.027 17.95 15.92 22.98 -1.077 1.915 4.907
1.055 21.9 28.96 17.95 33.99 15.92 15.92 25.97 31.96 17.95 1.915 19.99 23.94 31.96 0.9575 21.9 11.97
1.06 19.99 14.96 11.97 22.98 17 22.98 20.95 26.93 28.96 15.92 21.9 31.96 42.97 0.9575 50.99 26.93
1.065 17.95 10.89 1.915 9.934 9.934 24.89 12.93 17 31 23.94 20.95 39.98 48.95 8.977 76.96 37.94
1.07 13.88 12.93 -1.077 -5.027 0 17.95 5.984 3.95 29.92 25.97 19.99 41.89 51.94 15.92 89.89 39.98
1.075 8.977 12.93 -11.01 -20.11 -11.01 10.89 -1.077 -1.077 18.91 21.9 14.96 41.89 42.97 22.98 87.97 33.99
1.08 4.907 0.9575 -16.04 -33.03 -26.09 0 -2.035 -8.019 0 14.96 4.907 33.99 25.97 23.94 76.96 22.98
1.085 0 -9.096 -21.06 -41.05 -37.1 -3.112 -5.027 -13.05 -11.01 5.984 -3.112 25.97 7.899 17.95 55.89 15.92
1.09 3.95 -17.12 -16.04 -33.03 -37.1 1.915 -4.069 -13.05 -17.12 4.907 -9.096 23.94 3.95 15.92 41.89 18.91
1.095 8.977 -13.05 -7.062 -21.06 -28.01 6.942 0 -6.104 -11.01 5.984 -6.104 28.96 11.97 13.88 31.96 31
1.1 15.92 -1.077 0.9575 0 -11.01 13.88 4.907 1.915 0 6.942 0.9575 34.95 22.98 14.96 25.97 43.93
1.105 12.93 17 7.899 11.97 -1.077 24.89 14.96 12.93 7.899 5.984 2.992 36.98 37.94 15.92 25.97 44.88
1.11 3.95 22.98 10.89 27.89 9.934 26.93 20.95 21.9 15.92 2.992 7.899 33.99 41.89 13.88 23.94 38.9
1.115 -1.077 14.96 7.899 29.92 11.97 23.94 15.92 17.95 13.88 0.9575 7.899 27.89 33.99 5.984 13.88 25.97
1.12 -2.035 4.907 2.992 23.94 8.977 25.97 6.942 8.977 11.97 -2.035 2.992 15.92 23.94 3.95 6.942 18.91
1.125 0.9575 0.9575 0.9575 14.96 3.95 22.98 0 -2.035 8.977 -5.027 1.915 7.899 12.93 0.9575 -2.035 13.88
1.13 17.95 4.907 -1.077 7.899 0 21.9 -7.062 -3.112 5.984 -3.112 -5.027 1.915 3.95 1.915 0.9575 11.97
1.135 31.96 12.93 -1.077 7.899 5.984 22.98 -4.069 -2.035 8.977 0.9575 -2.035 0 0.9575 2.992 1.915 5.984
1.14 37.94 14.96 1.915 2.992 8.977 24.89 -1.077 1.915 6.942 1.915 0.9575 0 -2.035 1.915 0 -4.069
1.145 33.99 10.89 9.934 1.915 13.88 21.9 7.899 0 7.899 7.899 0 1.915 -9.096 -3.112 0.9575 -19.03
1.15 27.89 6.942 17.95 0 24.89 22.98 11.97 6.942 10.89 15.92 3.95 3.95 -12.09 -6.104 1.915 -24.06
1.155 27.89 10.89 21.9 0.9575 34.95 27.89 7.899 14.96 13.88 21.9 7.899 7.899 -9.096 -5.027 1.915 -20.11
1.16 35.91 22.98 15.92 11.97 47.99 29.92 3.95 17.95 25.97 27.89 7.899 15.92 0 0.9575 -2.035 -9.096
1.165 45.96 38.9 7.899 33.99 62.96 33.99 3.95 24.89 35.91 33.99 5.984 21.9 15.92 1.915 6.942 1.915
1.17 51.94 50.99 -2.035 59.96 65.95 35.91 7.899 25.97 47.99 37.94 5.984 27.89 27.89 3.95 17.95 0
1.175 49.91 52.9 -1.077 71.93 65.95 33.99 13.88 27.89 51.94 39.98 7.899 29.92 27.89 3.95 27.89 -5.027
1.18 39.98 44.88 -1.077 68.94 55.89 25.97 15.92 21.9 49.91 35.91 9.934 21.9 19.99 0 31.96 -9.096
1.185 29.92 31 0.9575 52.9 39.98 17.95 11.97 11.97 37.94 27.89 13.88 9.934 7.899 0 23.94 -11.01
1.19 19.99 17 -2.035 31.96 25.97 11.97 3.95 0 23.94 17.95 9.934 -1.077 0.9575 3.95 9.934 -5.027
1.195 13.88 6.942 0 18.91 17.95 15.92 0.9575 -1.077 11.97 9.934 3.95 -11.01 -7.062 11.97 -2.035 -2.035
1.2 7.899 2.992 1.915 12.93 15.92 23.94 -1.077 -1.077 5.984 5.984 0.9575 -13.05 -5.027 15.92 -1.077 5.984
1.205 3.95 0.9575 3.95 13.88 15.92 31.96 -1.077 -2.035 5.984 5.984 -1.077 -5.027 0.9575 17.95 -2.035 9.934
1.21 0 2.992 7.899 13.88 15.92 31.96 0 5.984 13.88 7.899 -2.035 3.95 5.984 13.88 9.934 11.97
1.215 1.915 6.942 7.899 9.934 11.97 27.89 5.984 11.97 19.99 9.934 7.899 19.99 15.92 9.934 19.99 13.88
1.22 5.984 10.89 5.984 3.95 9.934 21.9 9.934 15.92 19.99 11.97 17.95 29.92 23.94 5.984 23.94 9.934
1.225 13.88 14.96 5.984 -2.035 9.934 19.99 13.88 17.95 17.95 11.97 23.94 31.96 23.94 3.95 21.9 1.915
1.23 21.9 18.91 7.899 -1.077 11.97 21.9 15.92 15.92 9.934 5.984 21.9 23.94 17.95 -2.035 11.97 -5.027
1.235 23.94 20.95 11.97 -2.035 13.88 23.94 17.95 13.88 1.915 0 15.92 7.899 5.984 -3.112 -2.035 -15.08
1.24 23.94 22.98 19.99 -5.027 11.97 23.94 17.95 11.97 0.9575 0.9575 11.97 -5.027 -3.112 -11.01 -13.05 -21.06
1.245 21.9 24.89 23.94 -8.019 7.899 19.99 17.95 11.97 -1.077 -1.077 13.88 -23.1 -9.096 -15.08 -25.01 -17.12
1.25 17.95 22.98 23.94 -8.019 5.984 9.934 17.95 9.934 -3.112 -1.077 19.99 -30.04 -7.062 -13.05 -31.12 -7.062
1.255 15.92 18.91 19.99 -9.096 3.95 1.915 17.95 11.97 -3.112 -1.077 27.89 -29.08 -2.035 -7.062 -31.12 1.915
1.26 13.88 12.93 15.92 -9.096 0.9575 0.9575 19.99 14.96 -3.112 -3.112 27.89 -18.07 7.899 0.9575 -20.11 11.97
1.265 11.97 6.942 11.97 -9.096 0 0.9575 19.99 17 -3.112 -7.062 21.9 -4.069 13.88 1.915 -8.019 17.95
1.27 5.984 4.907 9.934 -13.05 -11.01 -2.035 15.92 11.97 -7.062 -9.096 13.88 0 13.88 7.899 1.915 17.95
1.275 0 4.907 7.899 -12.09 -20.11 1.915 9.934 10.89 -12.09 -7.062 5.984 5.984 6.942 9.934 12.93 15.92
1.28 0.9575 4.907 5.984 -16.04 -22.02 3.95 3.95 4.907 -18.07 -1.077 3.95 3.95 -1.077 11.97 17 13.88
1.285 -1.077 0.9575 1.915 -19.03 -21.06 3.95 0.9575 -2.035 -21.06 -2.035 3.95 -1.077 -3.112 13.88 11.97 7.899
1.29 -2.035 -11.01 -2.035 -24.06 -17.12 1.915 -4.069 0.9575 -20.11 0 1.915 -7.062 -4.069 11.97 7.899 1.915
1.295 3.95 -23.1 -3.112 -32.08 -23.1 -2.035 -10.05 -5.027 -18.07 -1.077 1.915 -14 -12.09 7.899 0 -1.077
1.3 9.934 -27.05 -7.062 -43.09 -33.03 -3.112 -13.05 -9.096 -23.1 -15.08 -9.096 -21.06 -19.03 1.915 -5.027 -9.096
1.305 11.97 -23.1 -7.062 -52.06 -46.08 -7.062 -16.04 -14 -27.05 -29.08 -16.04 -27.05 -29.08 -1.077 -16.04 -9.096
1.31 1.915 -19.03 -11.01 -60.08 -53.02 -11.01 -20.11 -23.1 -39.02 -37.1 -22.02 -32.08 -35.07 -5.027 -22.02 -11.01
1.315 -9.096 -15.08 -17.12 -69.06 -61.04 -15.08 -23.1 -33.03 -49.07 -39.02 -21.06 -39.02 -39.02 -9.096 -25.01 -9.096
1.32 -26.09 -19.03 -18.07 -70.02 -62.12 -15.08 -25.01 -35.07 -54.1 -35.07 -20.11 -40.1 -38.06 -9.096 -26.09 -11.01
1.325 -38.06 -23.1 -16.04 -66.07 -58.05 -11.01 -27.05 -34.11 -53.02 -24.06 -15.08 -38.06 -31.12 -7.062 -19.03 -11.01
1.33 -35.07 -23.1 -9.096 -55.06 -51.11 -3.112 -25.01 -27.05 -49.07 -17.12 -17.12 -31.12 -27.05 -5.027 -15.08 -7.062
1.335 -24.06 -13.05 1.915 -35.07 -40.1 2.992 -17.12 -16.04 -41.05 -8.019 -11.01 -20.11 -19.03 -5.027 -11.01 -2.035
1.34 -12.09 -1.077 0.9575 -25.01 -30.04 7.899 -8.019 -5.027 -33.03 -5.027 -14 -14 -15.08 -1.077 -10.05 0
1.345 -1.077 0.9575 1.915 -21.06 -23.1 9.934 -6.104 -5.027 -29.08 -2.035 -14 -13.05 -16.04 -3.112 -23.1 -1.077
1.35 -2.035 2.992 -10.05 -35.07 -24.06 7.899 -10.05 -5.027 -31.12 -3.112 -18.07 -20.11 -19.03 -5.027 -38.06 -12.09
1.355 -4.069 -7.062 -22.02 -49.07 -30.04 1.915 -21.06 -16.04 -37.1 -10.05 -21.06 -32.08 -25.01 -9.096 -51.11 -20.11
1.36 -9.096 -21.06 -29.08 -67.02 -43.09 -5.027 -27.05 -27.05 -45 -19.03 -23.1 -43.09 -33.03 -15.08 -55.06 -27.05
1.365 -6.104 -25.01 -22.02 -70.02 -56.01 -11.01 -27.05 -34.11 -47.04 -26.09 -17.12 -46.08 -31.12 -19.03 -43.09 -23.1
1.37 -2.035 -17.12 -14 -64.03 -60.08 -13.05 -17.12 -33.03 -48.11 -31.12 -10.05 -44.04 -28.01 -19.03 -28.01 -15.08
1.375 -3.112 -7.062 -5.027 -55.06 -61.04 -13.05 -11.01 -33.03 -49.07 -31.12 -5.027 -35.07 -23.1 -17.12 -13.05 -7.062
1.38 -7.062 -5.027 -3.112 -50.03 -53.02 -13.05 -6.104 -23.1 -43.09 -27.05 -2.035 -22.02 -15.08 -13.05 -2.035 -7.062
1.385 -15.08 -13.05 -9.096 -52.06 -48.11 -13.05 -6.104 -16.04 -43.09 -19.03 -8.019 -15.08 -11.01 -5.027 0 -9.096
1.39 -23.1 -27.05 -13.05 -55.06 -45 -11.01 -13.05 -13.05 -43.09 -9.096 -15.08 -11.01 -11.01 -1.077 -3.112 -11.01
1.395 -25.01 -37.1 -15.08 -52.06 -43.09 -13.05 -16.04 -11.01 -38.06 0.9575 -18.07 -6.104 -10.05 -2.035 -7.062 -11.01
1.4 -23.1 -39.02 -15.08 -48.11 -39.02 -9.096 -18.07 -11.01 -34.11 1.915 -19.03 -9.096 -6.104 0 -13.05 -7.062
1.405 -19.03 -31.12 -11.01 -39.02 -39.02 -9.096 -15.08 -15.08 -29.08 0 -17.12 -11.01 -3.112 -2.035 -23.1 -7.062
1.41 -13.05 -21.06 -9.096 -26.09 -30.04 -7.062 -11.01 -12.09 -24.06 -1.077 -15.08 -13.05 -2.035 -3.112 -28.01 -7.062
1.415 -11.01 -11.01 -5.027 -14 -24.06 -7.062 -5.027 -8.019 -20.11 -11.01 -13.05 -16.04 -6.104 -7.062 -28.01 -9.096
1.42 -9.096 -7.062 -2.035 -5.027 -17.12 -5.027 -2.035 0.9575 -17.12 -17.12 -5.027 -13.05 -9.096 -9.096 -19.03 -5.027
1.425 -7.062 -5.027 5.984 1.915 -8.019 -1.077 7.899 8.977 -9.096 -15.08 3.95 -4.069 -5.027 -7.062 -2.035 0
1.43 -3.112 -3.112 13.88 9.934 -2.035 -2.035 13.88 18.91 -1.077 -9.096 17.95 6.942 -2.035 -3.112 12.93 13.88
1.435 -2.035 0.9575 17.95 9.934 0.9575 3.95 15.92 23.94 0 -2.035 25.97 15.92 7.899 -3.112 21.9 21.9
1.44 7.899 0.9575 15.92 4.907 -2.035 7.899 11.97 21.9 3.95 3.95 25.97 20.95 13.88 -7.062 19.99 23.94
1.445 11.97 2.992 7.899 1.915 0.9575 7.899 3.95 13.88 3.95 3.95 15.92 11.97 11.97 -13.05 3.95 13.88
1.45 11.97 -1.077 1.915 -5.027 -3.112 3.95 0.9575 1.915 0 0.9575 3.95 -2.035 1.915 -17.12 -11.01 -2.035
1.455 0 -5.027 0.9575 -6.104 -7.062 0 -1.077 0.9575 0.9575 -7.062 -2.035 -11.01 -7.062 -19.03 -25.01 -11.01
1.46 -13.05 -11.01 -1.077 -5.027 -9.096 -2.035 0.9575 -1.077 -3.112 -13.05 0.9575 -19.03 -19.03 -17.12 -27.05 -19.03
1.465 -31.12 -15.08 -3.112 -3.112 -11.01 0 0.9575 -1.077 -7.062 -13.05 -2.035 -17.12 -23.1 -13.05 -23.1 -23.1
1.47 -37.1 -17.12 -7.062 -7.062 -15.08 1.915 -5.027 -5.027 -9.096 -5.027 0.9575 -15.08 -21.06 -9.096 -17.12 -21.06
1.475 -31.12 -21.06 -15.08 -17.12 -19.03 3.95 -15.08 -11.01 -13.05 0.9575 -7.062 -13.05 -17.12 -5.027 -13.05 -19.03
1.48 -19.03 -23.1 -21.06 -29.08 -23.1 0 -25.01 -21.06 -15.08 0 -21.06 -15.08 -11.01 -1.077 -11.01 -17.12
1.485 -11.01 -19.03 -23.1 -37.1 -25.01 -1.077 -27.05 -27.05 -19.03 -2.035 -29.08 -19.03 -11.01 0.9575 -9.096 -15.08
1.49 -11.01 -9.096 -19.03 -37.1 -25.01 -7.062 -21.06 -27.05 -21.06 -3.112 -27.05 -21.06 -13.05 0.9575 -1.077 -11.01
1.495 -17.12 0.9575 -9.096 -23.1 -19.03 -9.096 -9.096 -17.12 -21.06 -9.096 -15.08 -15.08 -13.05 -5.027 5.984 -5.027
1.5 -19.03 12.93 0.9575 -9.096 -9.096 -5.027 0 -1.077 -19.03 -11.01 0.9575 -3.112 -13.05 -11.01 17.95 -1.077
1.505 -11.01 20.95 1.915 2.992 -2.035 -1.077 7.899 9.934 -13.05 -11.01 7.899 1.915 -7.062 -19.03 23.94 0.9575
1.51 5.984 20.95 5.984 14.96 5.984 0.9575 11.97 21.9 -9.096 -9.096 13.88 11.97 -1.077 -23.1 20.95 -1.077
1.515 25.97 18.91 7.899 19.99 11.97 -1.077 11.97 23.94 -7.062 -7.062 11.97 13.88 0.9575 -23.1 11.97 -5.027
1.52 35.91 18.91 9.934 18.91 11.97 -1.077 11.97 19.99 -6.104 -9.096 5.984 9.934 -3.112 -21.06 2.992 -11.01
1.525 29.92 24.89 13.88 14.96 7.899 -1.077 11.97 14.96 -10.05 -11.01 0 -2.035 -13.05 -19.03 -4.069 -15.08
1.53 15.92 31 15.92 9.934 0 0.9575 7.899 3.95 -13.05 -13.05 0.9575 -13.05 -23.1 -19.03 -13.05 -17.12
1.535 3.95 28.96 13.88 1.915 -3.112 1.915 2.992 1.915 -14 -15.08 -1.077 -27.05 -30.04 -21.06 -22.02 -19.03
1.54 0.9575 17 7.899 -3.112 -9.096 3.95 0 -4.069 -16.04 -17.12 -5.027 -41.05 -32.08 -25.01 -32.08 -21.06
1.545 -3.112 -1.077 0 -11.01 -15.08 1.915 -9.096 -11.01 -19.03 -19.03 -9.096 -47.04 -33.03 -27.05 -45 -21.06
1.55 -7.062 -11.01 -7.062 -16.04 -21.06 -2.035 -14 -10.05 -21.06 -19.03 -14 -47.04 -30.04 -25.01 -53.02 -21.06
1.555 -15.08 -17.12 -15.08 -18.07 -25.01 -1.077 -16.04 -14 -27.05 -17.12 -20.11 -43.09 -32.08 -23.1 -63.08 -23.1
1.56 -21.06 -13.05 -25.01 -21.06 -29.08 -1.077 -21.06 -21.06 -33.03 -13.05 -29.08 -43.09 -37.1 -15.08 -69.06 -23.1
1.565 -14 -5.027 -33.03 -26.09 -32.08 -1.077 -25.01 -27.05 -38.06 -7.062 -34.11 -45 -39.02 -7.062 -67.02 -19.03
1.57 -2.035 -1.077 -35.07 -30.04 -34.11 2.992 -31.12 -28.01 -45 0.9575 -38.06 -44.04 -43.09 0.9575 -62.12 -13.05
1.575 7.899 -1.077 -29.08 -33.03 -33.03 1.915 -29.08 -27.05 -45 1.915 -35.07 -39.02 -41.05 3.95 -51.11 -7.062
1.58 15.92 0.9575 -14 -25.01 -21.06 5.984 -20.11 -17.12 -42.01 8.977 -23.1 -34.11 -35.07 7.899 -35.07 -5.027
1.585 12.93 2.992 1.915 -17.12 -9.096 1.915 -7.062 -7.062 -33.03 9.934 -6.104 -31.12 -30.04 6.942 -23.1 -8.019
1.59 3.95 -1.077 8.977 -7.062 0.9575 0.9575 0.9575 -5.027 -21.06 7.899 5.984 -26.09 -27.05 2.992 -13.05 -16.04
1.595 0 6.942 14.96 0.9575 1.915 5.984 7.899 -1.077 -11.01 1.915 12.93 -23.1 -22.02 -4.069 -9.096 -26.09
1.6 -1.077 14.96 17 1.915 3.95 11.97 10.89 0.9575 -4.069 -1.077 13.88 -22.02 -23.1 -15.08 -5.027 -33.03
1.605 0 24.89 17.95 0 5.984 15.92 9.934 0.9575 -1.077 0.9575 11.97 -13.05 -17.12 -25.01 -2.035 -33.03
1.61 10.89 34.95 23.94 8.977 12.93 18.91 15.92 4.907 0.9575 0.9575 12.93 -2.035 -11.01 -25.01 8.977 -29.08
1.615 22.98 44.88 29.92 20.95 20.95 17 23.94 13.88 -1.077 -1.077 18.91 7.899 -7.062 -21.06 21.9 -23.1
1.62 29.92 52.9 33.99 29.92 29.92 7.899 27.89 23.94 1.915 -7.062 25.97 15.92 -9.096 -13.05 23.94 -15.08
1.625 29.92 54.94 31.96 36.98 31.96 0 34.95 31 5.984 -9.096 28.96 19.99 -6.104 -5.027 23.94 -11.01
1.63 27.89 48.95 27.89 34.95 29.92 -2.035 34.95 28.96 9.934 -13.05 28.96 17.95 -4.069 -1.077 15.92 -3.112
1.635 25.97 40.93 19.99 27.89 27.89 -2.035 29.92 25.97 11.97 -11.01 21.9 7.899 -2.035 0.9575 3.95 -2.035
1.64 19.99 31 13.88 19.99 21.9 0 24.89 22.98 14.96 -5.027 13.88 -2.035 8.977 0.9575 -4.069 1.915
1.645 13.88 22.98 5.984 15.92 13.88 5.984 14.96 17 18.91 0 1.915 -9.096 17 -2.035 -22.02 1.915
1.65 11.97 18.91 0.9575 9.934 7.899 11.97 1.915 11.97 19.99 9.934 -5.027 -21.06 17.95 0 -39.02 0.9575
1.655 13.88 17 -9.096 0.9575 0 15.92 -7.062 4.907 17 17.95 -15.08 -27.05 7.899 0 -46.08 -13.05
1.66 17.95 18.91 -15.08 0 -1.077 19.99 -15.08 0.9575 8.977 21.9 -19.03 -29.08 -1.077 0.9575 -48.11 -29.08
1.665 21.9 20.95 -13.05 -5.027 -3.112 19.99 -13.05 -5.027 0.9575 19.99 -13.05 -25.01 -19.03 -3.112 -37.1 -41.05
1.67 27.89 26.93 -1.077 -1.077 -2.035 15.92 -3.112 -1.077 -7.062 13.88 -1.077 -13.05 -33.03 -9.096 -20.11 -45
1.675 33.99 31 9.934 14.96 11.97 9.934 7.899 3.95 -7.062 5.984 9.934 -1.077 -35.07 -9.096 -2.035 -35.07
1.68 37.94 38.9 21.9 33.99 23.94 3.95 23.94 13.88 0.9575 0.9575 23.94 9.934 -29.08 -3.112 19.99 -15.08
1.685 41.89 44.88 27.89 47.99 31.96 1.915 31.96 21.9 7.899 -5.027 27.89 23.94 -17.12 3.95 35.91 7.899
1.69 45.96 50.99 27.89 51.94 35.91 5.984 31.96 23.94 15.92 -5.027 21.9 31.96 -2.035 19.99 45.96 35.91
1.695 51.94 56.97 23.94 43.93 35.91 11.97 27.89 21.9 23.94 -2.035 13.88 35.91 17.95 31.96 49.91 53.98
1.7 59.96 56.97 19.99 33.99 37.94 17.95 21.9 17.95 29.92 9.934 7.899 35.91 35.91 33.99 45.96 55.89
1.705 65.95 52.9 21.9 31.96 39.98 21.9 15.92 15.92 33.99 17.95 5.984 31.96 43.93 27.89 37.94 41.89
1.71 69.9 42.97 23.94 39.98 43.93 21.9 11.97 15.92 39.98 19.99 7.899 25.97 41.89 9.934 23.94 17.95
1.715 69.9 36.98 23.94 51.94 49.91 21.9 11.97 17.95 41.89 15.92 13.88 17.95 29.92 -3.112 11.97 -1.077
1.72 67.98 34.95 23.94 62 55.89 23.94 13.88 19.99 41.89 9.934 17.95 13.88 13.88 -17.12 3.95 -17.12
1.725 62 40.93 21.9 62.96 57.93 25.97 19.99 21.9 39.98 5.984 19.99 11.97 3.95 -19.03 1.915 -17.12
1.73 51.94 48.95 23.94 53.98 53.98 23.94 23.94 21.9 37.94 7.899 19.99 13.88 -2.035 -13.05 7.899 -5.027
1.735 37.94 52.9 25.97 40.93 41.89 17.95 25.97 19.99 35.91 9.934 17.95 17 -2.035 0.9575 11.97 3.95
1.74 17.95 44.88 25.97 20.95 22.98 5.984 19.99 15.92 29.92 7.899 13.88 17 0 5.984 11.97 13.88
1.745 -2.035 26.93 19.99 -2.035 -2.035 -1.077 7.899 5.984 17.95 0 5.984 9.934 0.9575 11.97 7.899 15.92
1.75 -11.01 4.907 5.984 -13.05 -18.07 -11.01 -1.077 0 0 -5.027 -2.035 0.9575 -3.112 11.97 -1.077 9.934
1.755 -17.12 -7.062 -7.062 -31.12 -32.08 -13.05 -17.12 -14 -13.05 -13.05 -5.027 -8.019 -8.019 11.97 -6.104 3.95
1.76 -11.01 -11.01 -25.01 -41.05 -39.02 -9.096 -27.05 -25.01 -27.05 -11.01 -17.12 -23.1 -11.01 11.97 -17.12 0
1.765 -1.077 -9.096 -35.07 -38.06 -34.11 -5.027 -31.12 -34.11 -34.11 -7.062 -29.08 -33.03 -6.104 13.88 -22.02 1.915
1.77 10.89 -3.112 -35.07 -29.08 -23.1 0.9575 -31.12 -38.06 -32.08 0.9575 -37.1 -45 -2.035 17.95 -31.12 7.899
1.775 17.95 -1.077 -25.01 -19.03 -11.01 0 -29.08 -35.07 -27.05 0 -41.05 -47.04 0.9575 19.99 -41.05 9.934
1.78 20.95 -1.077 -11.01 -6.104 -2.035 5.984 -22.02 -25.01 -16.04 0 -35.07 -40.1 -1.077 19.99 -45 9.934
1.785 18.91 -1.077 0 3.95 17 13.88 -12.09 -13.05 0 1.915 -23.1 -30.04 1.915 17 -39.02 8.977
1.79 17.95 2.992 11.97 19.99 31.96 21.9 0.9575 -2.035 11.97 5.984 -7.062 -13.05 3.95 7.899 -23.1 3.95
1.795 22.98 18.91 17.95 39.98 47.99 29.92 6.942 14.96 35.91 15.92 1.915 0.9575 11.97 2.992 -2.035 2.992
1.8 33.99 38.9 20.95 63.91 54.94 33.99 17 25.97 51.94 28.96 12.93 19.99 22.98 -1.077 9.934 4.907
1.805 43.93 56.97 17.95 79.95 59.96 31.96 21.9 29.92 65.95 33.99 15.92 29.92 33.99 -2.035 19.99 3.95
1.81 51.94 64.99 18.91 88.93 62.96 27.89 25.97 31.96 70.97 36.98 20.95 32.91 41.89 1.915 25.97 8.977
1.815 58.89 60.92 14.96 84.98 64.99 23.94 23.94 28.96 67.98 28.96 26.93 34.95 42.97 1.915 29.92 11.97
1.82 57.93 50.99 9.934 65.95 59.96 19.99 23.94 21.9 62 21.9 31.96 29.92 39.98 0.9575 29.92 11.97
1.825 50.99 34.95 3.95 42.97 55.89 20.95 17.95 14.96 50.99 13.88 31.96 28.96 35.91 0.9575 34.95 15.92
1.83 42.97 22.98 0.9575 20.95 44.88 17 10.89 4.907 39.98 9.934 21.9 21.9 31 -6.104 33.99 19.99
1.835 33.99 10.89 0.9575 5.984 31 11.97 0 -1.077 35.91 6.942 6.942 19.99 25.97 -10.05 26.93 22.98
1.84 24.89 2.992 -4.069 1.915 10.89 4.907 -6.104 -8.019 25.97 -2.035 -5.027 11.97 17 -14 19.99 23.94
1.845 20.95 -3.112 -9.096 -4.069 -3.112 -2.035 -17.12 -10.05 17 -7.062 -17.12 10.89 11.97 -13.05 8.977 19.99
1.85 15.92 -15.08 -11.01 -9.096 -17.12 -9.096 -19.03 -7.062 3.95 -19.03 -19.03 9.934 5.984 -15.08 3.95 11.97
1.855 10.89 -21.06 -12.09 -10.05 -28.01 -17.12 -15.08 -2.035 -3.112 -26.09 -18.07 10.89 1.915 -7.062 0 7.899
1.86 1.915 -19.03 -14 -14 -32.08 -23.1 -9.096 -1.077 -18.07 -30.04 -18.07 6.942 -3.112 0 -1.077 -1.077
1.865 -1.077 -17.12 -13.05 -19.03 -35.07 -25.01 -9.096 -11.01 -29.08 -27.05 -21.06 0.9575 -11.01 1.915 -9.096 -7.062
1.87 -5.027 -5.027 -12.09 -21.06 -32.08 -23.1 -12.09 -21.06 -35.07 -20.11 -26.09 -13.05 -12.09 8.977 -19.03 -8.019
1.875 -8.019 2.992 -13.05 -29.08 -27.05 -15.08 -18.07 -34.11 -35.07 -15.08 -27.05 -28.01 -13.05 12.93 -24.06 -8.019
1.88 -1.077 2.992 -15.08 -33.03 -27.05 -5.027 -27.05 -37.1 -31.12 -7.062 -25.01 -35.07 -5.027 15.92 -23.1 -3.112
1.885 2.992 2.992 -15.08 -31.12 -24.06 0 -24.06 -33.03 -22.02 0.9575 -19.03 -28.01 3.95 18.91 -15.08 2.992
1.89 14.96 0.9575 -15.08 -30.04 -19.03 3.95 -18.07 -19.03 -16.04 1.915 -13.05 -12.09 10.89 17.95 -3.112 7.899
1.895 19.99 -1.077 -15.08 -23.1 -9.096 1.915 -13.05 -11.01 -11.01 7.899 -7.062 0 17.95 15.92 0.9575 9.934
1.9 22.98 -7.062 -13.05 -15.08 1.915 -2.035 -9.096 -4.069 0 9.934 -9.096 11.97 20.95 13.88 1.915 7.899
1.905 18.91 -11.01 -13.05 -10.05 6.942 -3.112 -11.01 -2.035 2.992 7.899 -13.05 11.97 14.96 5.984 -2.035 1.915
1.91 9.934 -15.08 -13.05 -7.062 7.899 -5.027 -17.12 -11.01 5.984 0 -19.03 0 1.915 0.9575 -11.01 -1.077
1.915 -2.035 -17.12 -13.05 -9.096 2.992 -7.062 -21.06 -18.07 0 -9.096 -21.06 -12.09 -6.104 -11.01 -18.07 -7.062
1.92 -5.027 -17.12 -13.05 -11.01 -2.035 -5.027 -19.03 -26.09 -9.096 -25.01 -17.12 -26.09 -23.1 -25.01 -24.06 -15.08
1.925 -7.062 -13.05 -13.05 -13.05 -15.08 -5.027 -11.01 -25.01 -29.08 -39.02 -9.096 -35.07 -37.1 -37.1 -31.12 -25.01
1.93 -3.112 -7.062 -11.01 -6.104 -20.11 -5.027 0.9575 -21.06 -45 -45 -1.077 -36.03 -45 -45 -37.1 -33.03
1.935 -2.035 -1.077 -5.027 -4.069 -19.03 -7.062 5.984 -15.08 -51.11 -49.07 -2.035 -32.08 -49.07 -47.04 -37.1 -39.02
1.94 0 -1.077 0.9575 -7.062 -15.08 -11.01 5.984 -9.096 -47.04 -51.11 -2.035 -29.08 -49.07 -45 -31.12 -39.02
1.945 0.9575 0.9575 5.984 -10.05 -11.01 -15.08 1.915 -5.027 -39.02 -51.11 0.9575 -25.01 -47.04 -41.05 -21.06 -31.12
1.95 -1.077 0.9575 11.97 -15.08 -7.062 -17.12 0 -3.112 -31.12 -51.11 -2.035 -17.12 -41.05 -33.03 -9.096 -17.12
1.955 -2.035 -1.077 17.95 -13.05 0.9575 -17.12 1.915 -2.035 -21.06 -45 5.984 -5.027 -31.12 -21.06 3.95 0.9575
1.96 7.899 0.9575 19.99 -5.027 7.899 -11.01 7.899 5.984 -9.096 -27.05 17.95 7.899 -13.05 -5.027 21.9 13.88
1.965 17.95 2.992 17.95 1.915 21.9 -3.112 15.92 15.92 1.915 -5.027 21.9 27.89 3.95 3.95 35.91 23.94
1.97 21.9 6.942 11.97 13.88 31.96 -2.035 19.99 21.9 17.95 7.899 17.95 39.98 21.9 13.88 41.89 25.97
1.975 13.88 6.942 3.95 15.92 27.89 0 11.97 17.95 25.97 15.92 3.95 39.98 31.96 13.88 31.96 19.99
1.98 1.915 -1.077 -1.077 7.899 11.97 -2.035 0 7.899 19.99 7.899 -9.096 27.89 27.89 1.915 13.88 7.899
1.985 -7.062 -17.12 -11.01 -3.112 -5.027 -3.112 -11.01 0.9575 1.915 -3.112 -21.06 9.934 15.92 -9.096 -5.027 0.9575
1.99 -17.12 -41.05 -19.03 -17.12 -23.1 -9.096 -21.06 -7.062 -13.05 -19.03 -25.01 -1.077 1.915 -23.1 -23.1 -9.096
1.995 -25.01 -61.04 -25.01 -24.06 -33.03 -11.01 -27.05 -11.01 -25.01 -27.05 -21.06 -13.05 -5.027 -29.08 -33.03 -13.05
2 -31.12 -71.09 -31.12 -28.01 -33.03 -13.05 -27.05 -13.05 -29.08 -31.12 -15.08 -19.03 -15.08 -29.08 -33.03 -17.12
2.005 -37.1 -69.06 -33.03 -33.03 -31.12 -15.08 -25.01 -17.12 -27.05 -37.1 -11.01 -23.1 -25.01 -31.12 -29.08 -23.1
2.01 -45 -61.04 -33.03 -34.11 -33.03 -17.12 -21.06 -23.1 -27.05 -45 -9.096 -25.01 -37.1 -35.07 -24.06 -33.03
2.015 -51.11 -53.02 -29.08 -38.06 -37.1 -19.03 -15.08 -23.1 -31.12 -53.02 -5.027 -23.1 -51.11 -45 -18.07 -43.09
2.02 -55.06 -53.02 -19.03 -43.09 -41.05 -23.1 -7.062 -19.03 -37.1 -55.06 0.9575 -19.03 -61.04 -51.11 -13.05 -49.07
2.025 -57.09 -55.06 -10.05 -42.01 -41.05 -23.1 -1.077 -13.05 -38.06 -51.11 3.95 -13.05 -63.08 -53.02 -2.035 -49.07
2.03 -61.04 -61.04 -2.035 -37.1 -37.1 -23.1 1.915 -9.096 -34.11 -41.05 5.984 -9.096 -55.06 -49.07 1.915 -42.01
2.035 -59.01 -65.11 -3.112 -35.07 -33.03 -17.12 -3.112 -9.096 -33.03 -29.08 3.95 -13.05 -49.07 -41.05 -5.027 -35.07
2.04 -55.06 -67.02 -6.104 -33.03 -31.12 -10.05 -12.09 -13.05 -30.04 -25.01 -3.112 -25.01 -47.04 -31.12 -15.08 -30.04
2.045 -53.02 -67.02 -16.04 -36.03 -33.03 -2.035 -28.01 -23.1 -36.03 -25.01 -17.12 -34.11 -43.09 -24.06 -31.12 -28.01
2.05 -57.09 -75.04 -27.05 -41.05 -33.03 0 -37.1 -29.08 -41.05 -23.1 -31.12 -39.02 -39.02 -19.03 -39.02 -29.08
2.055 -61.04 -77.08 -31.12 -41.05 -29.08 6.942 -42.01 -31.12 -37.1 -19.03 -39.02 -34.11 -29.08 -16.04 -38.06 -28.01
2.06 -64.03 -77.08 -33.03 -37.1 -20.11 10.89 -37.1 -28.01 -26.09 -13.05 -39.02 -24.06 -17.12 -14 -29.08 -23.1
2.065 -57.09 -71.09 -29.08 -31.12 -9.096 7.899 -35.07 -25.01 -15.08 -7.062 -37.1 -13.05 -5.027 -13.05 -17.12 -23.1
2.07 -42.01 -59.01 -23.1 -16.04 0 2.992 -26.09 -18.07 -2.035 -6.104 -26.09 -5.027 -1.077 -17.12 -6.104 -19.03
2.075 -23.1 -45 -20.11 0 0 -1.077 -22.02 -11.01 -1.077 -8.019 -15.08 -1.077 1.915 -19.03 -2.035 -20.11
2.08 -8.019 -39.02 -20.11 7.899 0.9575 0.9575 -19.03 -2.035 2.992 -6.104 -7.062 1.915 0 -22.02 -1.077 -18.07
2.085 -5.027 -35.07 -22.02 14.96 5.984 0.9575 -14 -2.035 2.992 -2.035 0.9575 0 -4.069 -23.1 2.992 -16.04
2.09 -8.019 -31.12 -21.06 18.91 12.93 8.977 -8.019 6.942 4.907 -1.077 -1.077 5.984 -3.112 -21.06 8.977 -11.01
2.095 -13.05 -25.01 -11.01 19.99 21.9 13.88 -3.112 5.984 7.899 1.915 0 13.88 0.9575 -21.06 11.97 -7.062
2.1 -4.069 -9.096 0 23.94 32.91 18.91 3.95 10.89 18.91 3.95 5.984 18.91 3.95 -16.04 13.88 -1.077
2.105 3.95 8.977 15.92 25.97 43.93 17 14.96 15.92 31.96 3.95 11.97 20.95 9.934 -12.09 20.95 -1.077
2.11 19.99 24.89 25.97 35.91 51.94 11.97 25.97 25.97 39.98 7.899 21.9 29.92 21.9 -9.096 27.89 5.984
2.115 27.89 34.95 28.96 50.99 57.93 6.942 36.98 39.98 50.99 19.99 29.92 40.93 35.91 -2.035 35.91 14.96
2.12 25.97 32.91 24.89 57.93 55.89 -1.077 42.97 45.96 56.97 31.96 31.96 53.98 47.99 0 47.99 20.95
2.125 9.934 20.95 19.99 57.93 47.99 -3.112 41.89 43.93 59.96 39.98 27.89 59.96 55.89 5.984 51.94 25.97
2.13 -1.077 6.942 18.91 53.98 37.94 -3.112 34.95 31.96 62.96 41.89 21.9 59.96 55.89 13.88 48.95 28.96
2.135 -17.12 0.9575 18.91 40.93 27.89 -2.035 21.9 15.92 58.89 35.91 13.88 47.99 47.99 15.92 34.95 23.94
2.14 -27.05 -7.062 11.97 23.94 13.88 3.95 5.984 3.95 47.99 21.9 3.95 29.92 33.99 17.95 13.88 11.97
2.145 -31.12 -5.027 1.915 10.89 1.915 7.899 -3.112 0.9575 29.92 9.934 -1.077 11.97 17.95 13.88 -2.035 -2.035
2.15 -33.03 -3.112 -9.096 -1.077 -9.096 7.899 -13.05 -5.027 11.97 0 -11.01 -2.035 5.984 7.899 -14 -11.01
2.155 -33.03 -1.077 -25.01 -5.027 -23.1 5.984 -17.12 -11.01 -3.112 -1.077 -17.12 -3.112 0.9575 7.899 -15.08 -21.06
2.16 -35.07 -7.062 -31.12 -12.09 -37.1 1.915 -15.08 -17.12 -17.12 0.9575 -19.03 -3.112 -3.112 15.92 -7.062 -19.03
2.165 -37.1 -15.08 -27.05 -18.07 -49.07 0 -13.05 -21.06 -25.01 0 -15.08 -1.077 -5.027 23.94 1.915 -7.062
2.17 -39.02 -23.1 -19.03 -25.01 -53.02 1.915 -11.01 -21.06 -27.05 7.899 -9.096 -1.077 -5.027 29.92 13.88 0
2.175 -41.05 -29.08 -9.096 -27.05 -51.11 5.984 -11.01 -15.08 -27.05 11.97 -1.077 -1.077 -3.112 27.89 19.99 5.984
2.18 -41.05 -29.08 -5.027 -25.01 -41.05 9.934 -11.01 -9.096 -25.01 11.97 -2.035 0.9575 -3.112 15.92 17.95 3.95
2.185 -39.02 -27.05 -7.062 -15.08 -27.05 9.934 -9.096 -3.112 -19.03 7.899 -2.035 0 -3.112 -2.035 15.92 0.9575
2.19 -35.07 -23.1 -13.05 -3.112 -13.05 7.899 -7.062 -1.077 -11.01 1.915 -1.077 3.95 -1.077 -9.096 9.934 -9.096
2.195 -29.08 -19.03 -21.06 1.915 -1.077 5.984 -7.062 -1.077 0.9575 0 -7.062 7.899 0.9575 -15.08 3.95 -15.08
2.2 -25.01 -15.08 -27.05 1.915 0 5.984 -11.01 -5.027 7.899 1.915 -11.01 9.934 0 -15.08 0 -15.08
2.205 -23.1 -15.08 -29.08 -2.035 3.95 9.934 -13.05 -7.062 13.88 7.899 -11.01 5.984 1.915 -11.01 -1.077 -15.08
2.21 -23.1 -13.05 -25.01 -3.112 3.95 13.88 -13.05 -7.062 17.95 15.92 -9.096 3.95 3.95 -9.096 -7.062 -17.12
2.215 -21.06 -13.05 -17.12 0 5.984 17.95 -7.062 -3.112 15.92 19.99 -1.077 0 3.95 -7.062 -9.096 -21.06
2.22 -19.03 -11.01 -5.027 1.915 7.899 17.95 0 -2.035 13.88 19.99 1.915 0 1.915 -7.062 -11.01 -23.1
2.225 -13.05 -11.01 0 14.96 9.934 11.97 9.934 0 11.97 13.88 7.899 -1.077 0 -5.027 -11.01 -23.1
2.23 -5.027 -13.05 5.984 18.91 5.984 5.984 11.97 0.9575 9.934 7.899 5.984 1.915 -2.035 -3.112 -11.01 -17.12
2.235 -1.077 -19.03 3.95 11.97 -1.077 -2.035 3.95 -3.112 5.984 1.915 -2.035 -5.027 -1.077 -1.077 -11.01 -11.01
2.24 -3.112 -23.1 0.9575 -3.112 -16.04 -5.027 -5.027 -12.09 -2.035 -2.035 -7.062 -12.09 -3.112 -3.112 -12.09 -9.096
2.245 -17.12 -29.08 -13.05 -25.01 -30.04 -9.096 -19.03 -18.07 -9.096 0.9575 -15.08 -18.07 -3.112 -1.077 -12.09 -7.062
2.25 -33.03 -33.03 -25.01 -37.1 -37.1 -11.01 -25.01 -19.03 -17.12 0.9575 -19.03 -23.1 -1.077 -2.035 -13.05 -7.062
2.255 -45 -33.03 -33.03 -38.06 -36.03 -9.096 -24.06 -16.04 -21.06 -2.035 -21.06 -19.03 0.9575 3.95 -12.09 -5.027
2.26 -45 -33.03 -35.07 -30.04 -32.08 -5.027 -22.02 -13.05 -23.1 1.915 -22.02 -19.03 -1.077 9.934 -10.05 -1.077
2.265 -35.07 -35.07 -33.03 -29.08 -29.08 -1.077 -23.1 -19.03 -21.06 3.95 -29.08 -15.08 0.9575 11.97 -11.01 0.9575
2.27 -23.1 -41.05 -31.12 -32.08 -29.08 0.9575 -26.09 -25.01 -18.07 1.915 -32.08 -14 -2.035 11.97 -7.062 0
2.275 -19.03 -53.02 -27.05 -41.05 -31.12 -3.112 -32.08 -35.07 -16.04 -2.035 -32.08 -18.07 -4.069 9.934 -11.01 1.915
2.28 -23.1 -63.08 -23.1 -53.02 -35.07 -7.062 -35.07 -39.02 -17.12 -3.112 -31.12 -21.06 -9.096 9.934 -13.05 3.95
2.285 -29.08 -61.04 -17.12 -51.11 -30.04 -13.05 -29.08 -35.07 -18.07 -6.104 -24.06 -24.06 -10.05 9.934 -16.04 3.95
2.29 -31.12 -49.07 -13.05 -45 -26.09 -17.12 -23.1 -33.03 -22.02 -8.019 -21.06 -26.09 -11.01 5.984 -19.03 0.9575
2.295 -23.1 -35.07 -15.08 -37.1 -23.1 -17.12 -17.12 -27.05 -27.05 -9.096 -25.01 -27.05 -11.01 0 -27.05 -7.062
2.3 -9.096 -17.12 -22.02 -31.12 -20.11 -13.05 -14 -23.1 -25.01 -6.104 -31.12 -25.01 -13.05 -3.112 -28.01 -18.07
2.305 -2.035 -11.01 -32.08 -29.08 -19.03 -8.019 -19.03 -23.1 -21.06 -6.104 -34.11 -23.1 -10.05 -11.01 -30.04 -34.11
2.31 3.95 -11.01 -39.02 -29.08 -11.01 -1.077 -27.05 -21.06 -13.05 -9.096 -33.03 -23.1 -9.096 -15.08 -29.08 -41.05
2.315 2.992 -11.01 -30.04 -27.05 -6.104 0.9575 -29.08 -18.07 -6.104 -7.062 -27.05 -23.1 -5.027 -14 -28.01 -35.07
2.32 0 -15.08 -16.04 -20.11 0 0 -27.05 -19.03 -2.035 -4.069 -21.06 -25.01 0 -7.062 -24.06 -21.06
2.325 -5.027 -19.03 1.915 -7.062 -1.077 -1.077 -20.11 -14 -4.069 0.9575 -12.09 -26.09 1.915 -1.077 -17.12 1.915
2.33 -8.019 -17.12 6.942 1.915 -1.077 0.9575 -9.096 -13.05 -10.05 0 -5.027 -19.03 -1.077 1.915 -12.09 13.88
2.335 -6.104 -13.05 6.942 5.984 2.992 -4.069 1.915 -6.104 -14 -5.027 -1.077 -11.01 0.9575 4.907 -4.069 25.97
2.34 -5.027 -11.01 -2.035 11.97 7.899 -7.062 0 -1.077 -13.05 -15.08 0.9575 -1.077 0.9575 5.984 -2.035 27.89
2.345 -5.027 -9.096 -8.019 9.934 11.97 -6.104 0 0.9575 -7.062 -20.11 -4.069 -2.035 1.915 5.984 0.9575 20.95
2.35 -7.062 -7.062 -18.07 3.95 17 -1.077 -8.019 -5.027 0.9575 -24.06 -17.12 -1.077 -3.112 0 0 2.992
2.355 -9.096 -11.01 -25.01 -3.112 11.97 0.9575 -23.1 -17.12 -2.035 -21.06 -33.03 -11.01 -7.062 -3.112 -15.08 -13.05
2.36 -9.096 -11.01 -31.12 -15.08 2.992 -2.035 -33.03 -31.12 0.9575 -12.09 -43.09 -22.02 -11.01 -9.096 -31.12 -28.01
2.365 0.9575 -9.096 -35.07 -25.01 1.915 0 -41.05 -37.1 -1.077 -4.069 -50.03 -30.04 -14 -13.05 -42.01 -41.05
2.37 5.984 -7.062 -37.1 -29.08 -1.077 -2.035 -39.02 -37.1 -2.035 -3.112 -49.07 -31.12 -15.08 -13.05 -45 -39.02
2.375 15.92 2.992 -33.03 -21.06 0 -1.077 -30.04 -27.05 2.992 -9.096 -40.1 -24.06 -12.09 -7.062 -43.09 -29.08
2.38 17.95 4.907 -25.01 -14 7.899 -5.027 -24.06 -17.12 2.992 -19.03 -28.01 -18.07 -12.09 -5.027 -35.07 -19.03
2.385 11.97 6.942 -15.08 -9.096 9.934 -9.096 -17.12 -9.096 -2.035 -29.08 -17.12 -13.05 -13.05 -7.062 -31.12 -11.01
2.39 1.915 0.9575 -7.062 -4.069 6.942 -11.01 -12.09 -5.027 -5.027 -35.07 -6.104 -11.01 -14 -13.05 -30.04 -13.05
2.395 -1.077 -3.112 -3.112 -6.104 2.992 -9.096 -8.019 -6.104 -11.01 -31.12 -3.112 -13.05 -17.12 -21.06 -32.08 -21.06
2.4 -3.112 -13.05 -5.027 -9.096 0.9575 -5.027 -7.062 -3.112 -15.08 -25.01 -3.112 -15.08 -19.03 -27.05 -35.07 -33.03
2.405 0.9575 -15.08 -7.062 -11.01 0 -1.077 -7.062 -2.035 -15.08 -19.03 -3.112 -18.07 -21.06 -31.12 -40.1 -43.09
2.41 1.915 -17.12 -9.096 -13.05 0 -1.077 -7.062 -4.069 -15.08 -17.12 -7.062 -22.02 -25.01 -31.12 -40.1 -49.07
2.415 3.95 -13.05 -7.062 -15.08 -1.077 -3.112 -11.01 -7.062 -15.08 -19.03 -11.01 -31.12 -29.08 -29.08 -45 -49.07
2.42 -2.035 -11.01 -5.027 -16.04 -3.112 -7.062 -13.05 -13.05 -17.12 -21.06 -13.05 -34.11 -27.05 -27.05 -43.09 -45
2.425 -1.077 -3.112 -1.077 -14 -3.112 -7.062 -11.01 -15.08 -19.03 -21.06 -13.05 -32.08 -23.1 -27.05 -37.1 -41.05
2.43 -3.112 0.9575 -2.035 -7.062 -3.112 -5.027 -5.027 -11.01 -17.12 -17.12 -9.096 -25.01 -15.08 -27.05 -23.1 -37.1
2.435 -2.035 8.977 0 1.915 0.9575 -3.112 -2.035 -1.077 -11.01 -11.01 -3.112 -11.01 -7.062 -25.01 -5.027 -33.03
2.44 7.899 12.93 1.915 0 0.9575 -1.077 3.95 1.915 -5.027 -11.01 -2.035 0.9575 -3.112 -19.03 5.984 -25.01
2.445 11.97 8.977 1.915 -2.035 -3.112 -3.112 5.984 1.915 -3.112 -13.05 1.915 1.915 -5.027 -11.01 15.92 -13.05
2.45 9.934 0.9575 -2.035 -5.027 -13.05 -9.096 0 0.9575 -3.112 -17.12 0 1.915 -9.096 -3.112 15.92 -1.077
2.455 0.9575 -11.01 -5.027 -17.12 -27.05 -15.08 -3.112 -9.096 -9.096 -23.1 0.9575 0.9575 -13.05 -1.077 7.899 -2.035
2.46 -19.03 -17.12 -13.05 -29.08 -39.02 -21.06 -13.05 -19.03 -17.12 -25.01 -7.062 -5.027 -15.08 -5.027 -2.035 -1.077
2.465 -37.1 -17.12 -23.1 -37.1 -47.04 -25.01 -21.06 -25.01 -25.01 -29.08 -15.08 -11.01 -19.03 -15.08 -9.096 -13.05
2.47 -47.04 -17.12 -29.08 -43.09 -51.11 -29.08 -25.01 -27.05 -35.07 -31.12 -19.03 -17.12 -27.05 -25.01 -19.03 -27.05
2.475 -45 -17.12 -29.08 -42.01 -51.11 -29.08 -27.05 -29.08 -41.05 -33.03 -21.06 -25.01 -35.07 -25.01 -23.1 -31.12
2.48 -35.07 -21.06 -25.01 -45 -51.11 -25.01 -25.01 -29.08 -45 -33.03 -21.06 -31.12 -41.05 -19.03 -25.01 -27.05
2.485 -19.03 -21.06 -15.08 -42.01 -47.04 -19.03 -19.03 -27.05 -45 -27.05 -19.03 -35.07 -41.05 -11.01 -19.03 -15.08
2.49 -3.112 -19.03 -5.027 -32.08 -43.09 -13.05 -11.01 -21.06 -37.1 -21.06 -15.08 -31.12 -35.07 -7.062 -8.019 -7.062
2.495 1.915 -11.01 0.9575 -21.06 -31.12 -11.01 -3.112 -7.062 -27.05 -17.12 -13.05 -19.03 -29.08 -9.096 0.9575 -5.027
2.5 5.984 0.9575 0.9575 -6.104 -18.07 -11.01 1.915 1.915 -19.03 -19.03 -11.01 -9.096 -27.05 -17.12 4.907 -11.01
2.505 3.95 18.91 2.992 1.915 -4.069 -13.05 -1.077 4.907 -15.08 -23.1 -10.05 -2.035 -27.05 -25.01 10.89 -15.08
2.51 3.95 34.95 0 11.97 5.984 -11.01 1.915 5.984 -13.05 -25.01 -5.027 5.984 -23.1 -25.01 9.934 -11.01
2.515 8.977 40.93 2.992 19.99 20.95 -3.112 6.942 8.977 -7.062 -17.12 -1.077 10.89 -13.05 -15.08 12.93 -2.035
2.52 10.89 38.9 6.942 26.93 32.91 3.95 10.89 14.96 0 -1.077 8.977 14.96 0.9575 0.9575 15.92 15.92
2.525 11.97 34.95 9.934 29.92 39.98 15.92 11.97 17.95 15.92 11.97 11.97 15.92 15.92 11.97 17.95 27.89
2.53 10.89 24.89 15.92 27.89 41.89 21.9 13.88 21.9 31.96 21.9 14.96 17 29.92 19.99 17.95 32.91
2.535 8.977 17 19.99 22.98 29.92 19.99 11.97 19.99 37.94 23.94 8.977 10.89 35.91 19.99 18.91 26.93
2.54 5.984 8.977 25.97 11.97 17.95 13.88 7.899 13.88 33.99 17.95 3.95 1.915 29.92 15.92 11.97 17.95
2.545 9.934 14.96 34.95 14.96 8.977 9.934 14.96 14.96 23.94 17 3.95 1.915 22.98 15.92 11.97 18.91
2.55 17.95 24.89 45.96 24.89 11.97 7.899 29.92 21.9 15.92 18.91 17 6.942 17 19.99 14.96 24.89
2.555 31.96 48.95 53.98 45.96 27.89 11.97 45.96 37.94 13.88 21.9 35.91 23.94 17.95 23.94 23.94 29.92
2.56 44.88 74.92 58.89 72.89 48.95 17.95 59.96 53.98 20.95 29.92 55.89 42.97 25.97 24.89 31.96 31
2.565 53.98 93 54.94 89.89 65.95 21.9 63.91 65.95 31 29.92 63.91 58.89 31.96 19.99 36.98 24.89
2.57 55.89 98.98 49.91 91.92 66.91 19.99 57.93 63.91 36.98 26.93 55.89 58.89 31 7.899 35.91 15.92
2.575 53.98 88.93 40.93 77.92 57.93 13.88 41.89 45.96 36.98 25.97 41.89 50.99 31.96 9.934 32.91 17
2.58 44.88 66.91 36.98 56.97 42.97 13.88 29.92 25.97 32.91 27.89 27.89 36.98 29.92 18.91 27.89 26.93
2.585 39.98 38.9 33.99 41.89 29.92 15.92 23.94 13.88 29.92 33.99 17.95 21.9 31.96 33.99 27.89 43.93
2.59 35.91 18.91 31.96 34.95 27.89 21.9 27.89 15.92 31.96 40.93 17 17 38.9 45.96 26.93 56.97
2.595 35.91 14.96 28.96 36.98 34.95 27.89 28.96 20.95 35.91 44.88 19.99 13.88 42.97 47.99 21.9 58.89
2.6 31.96 14.96 23.94 39.98 39.98 25.97 27.89 23.94 37.94 39.98 19.99 11.97 41.89 39.98 15.92 53.98
2.605 31 22.98 23.94 42.97 41.89 21.9 27.89 25.97 37.94 31.96 22.98 14.96 39.98 27.89 20.95 48.95
2.61 26.93 24.89 25.97 45.96 41.89 15.92 21.9 25.97 33.99 21.9 22.98 20.95 33.99 19.99 29.92 48.95
2.615 25.97 22.98 25.97 49.91 37.94 11.97 21.9 21.9 27.89 17.95 29.92 31.96 29.92 19.99 45.96 51.94
2.62 26.93 18.91 32.91 62.96 40.93 13.88 31 26.93 29.92 17.95 40.93 44.88 31.96 27.89 62 57.93
2.625 26.93 24.89 38.9 79.95 46.92 15.92 40.93 34.95 31.96 21.9 50.99 54.94 33.99 33.99 66.91 57.93
2.63 25.97 34.95 39.98 97.9 49.91 13.88 51.94 41.89 37.94 25.97 51.94 57.93 35.91 33.99 62 53.98
2.635 23.94 48.95 42.97 110 50.99 7.899 54.94 46.92 37.94 27.89 44.88 57.93 37.94 27.89 50.99 41.89
2.64 19.99 60.92 42.97 102.9 44.88 0 50.99 46.92 33.99 25.97 31.96 49.91 35.91 19.99 34.95 27.89
2.645 17.95 60.92 37.94 85.94 31.96 -1.077 37.94 41.89 25.97 15.92 21.9 39.98 27.89 11.97 21.9 17.95
2.65 11.97 46.92 29.92 66.91 13.88 -5.027 21.9 31.96 13.88 3.95 19.99 25.97 19.99 7.899 12.93 9.934
2.655 5.984 22.98 15.92 42.97 0 -7.062 9.934 23.94 1.915 -1.077 19.99 9.934 9.934 7.899 3.95 7.899
2.66 -2.035 0.9575 1.915 21.9 -7.062 -11.01 1.915 11.97 -1.077 -5.027 15.92 -1.077 1.915 7.899 0.9575 9.934
2.665 -3.112 -7.062 -5.027 8.977 -15.08 -15.08 0.9575 0 -7.062 -3.112 5.984 -13.05 0.9575 11.97 -7.062 11.97
2.67 -3.112 -9.096 -11.01 0.9575 -19.03 -21.06 -7.062 -7.062 -13.05 0.9575 -3.112 -21.06 -3.112 13.88 -13.05 13.88
2.675 -1.077 -5.027 -11.01 -7.062 -19.03 -25.01 -15.08 -15.08 -19.03 -2.035 -15.08 -23.1 -5.027 13.88 -13.05 15.92
2.68 0.9575 0.9575 -7.062 -9.096 -17.12 -25.01 -17.12 -17.12 -19.03 -2.035 -17.12 -19.03 -5.027 11.97 -5.027 15.92
2.685 0.9575 0.9575 -1.077 -1.077 -9.096 -21.06 -13.05 -9.096 -15.08 0.9575 -9.096 -7.062 0.9575 9.934 5.984 15.92
2.69 -5.027 4.907 1.915 7.899 0 -15.08 -3.112 -2.035 -3.112 0.9575 0 5.984 5.984 7.899 23.94 15.92
2.695 -9.096 12.93 9.934 25.97 15.92 -5.027 3.95 11.97 7.899 1.915 13.88 25.97 17.95 5.984 35.91 15.92
2.7 -5.027 22.98 17.95 37.94 31.96 0 13.88 21.9 27.89 11.97 15.92 39.98 29.92 7.899 39.98 15.92
2.705 3.95 31 19.99 44.88 39.98 9.934 17.95 25.97 41.89 19.99 11.97 47.99 39.98 7.899 37.94 15.92
2.71 21.9 34.95 17.95 43.93 41.89 15.92 17.95 25.97 51.94 23.94 7.899 45.96 41.89 9.934 31.96 15.92
2.715 33.99 31 11.97 40.93 37.94 15.92 19.99 23.94 49.91 21.9 5.984 37.94 39.98 11.97 25.97 15.92
2.72 35.91 18.91 0 34.95 27.89 5.984 21.9 19.99 39.98 15.92 9.934 26.93 33.99 13.88 19.99 15.92
2.725 27.89 6.942 -3.112 23.94 17.95 -3.112 19.99 13.88 21.9 7.899 13.88 15.92 23.94 13.88 13.88 15.92
2.73 11.97 2.992 -7.062 15.92 6.942 -15.08 13.88 4.907 5.984 1.915 13.88 6.942 13.88 13.88 5.984 13.88
2.735 0 6.942 -3.112 1.915 -1.077 -21.06 3.95 0 -3.112 -2.035 7.899 -1.077 3.95 11.97 -1.077 7.899
2.74 -3.112 17 0 -5.027 -3.112 -21.06 -5.027 -5.027 -7.062 0.9575 0.9575 -1.077 0.9575 9.934 -7.062 1.915
2.745 -5.027 20.95 11.97 -10.05 -2.035 -17.12 -13.05 -6.104 -6.104 0.9575 -7.062 -2.035 -2.035 7.899 -10.05 -2.035
2.75 -7.062 14.96 17.95 -11.01 0 -15.08 -13.05 -2.035 -2.035 0.9575 -7.062 0 -2.035 7.899 -4.069 0
2.755 -11.01 0.9575 15.92 -15.08 -5.027 -17.12 -7.062 -1.077 -1.077 0.9575 -3.112 3.95 -2.035 9.934 0 5.984
2.76 -13.05 -11.01 7.899 -14 -5.027 -23.1 0 1.915 -4.069 -3.112 0 9.934 2.992 12.93 12.93 11.97
2.765 -13.05 -23.1 -2.035 -15.08 -13.05 -31.12 0 0.9575 -8.019 -9.096 1.915 12.93 2.992 10.89 22.98 11.97
2.77 -9.096 -23.1 -17.12 -11.01 -13.05 -33.03 -3.112 -3.112 -13.05 -15.08 0 15.92 -2.035 3.95 27.89 7.899
2.775 -1.077 -13.05 -22.02 0 -4.069 -27.05 -10.05 -4.069 -12.09 -16.04 -3.112 17.95 0 1.915 33.99 0
2.78 3.95 -1.077 -20.11 0 3.95 -13.05 -14 -3.112 -1.077 -12.09 -9.096 18.91 -1.077 -2.035 33.99 -2.035
2.785 11.97 4.907 -15.08 5.984 17.95 0.9575 -15.08 -5.027 3.95 -1.077 -11.01 21.9 0.9575 -1.077 35.91 1.915
2.79 21.9 14.96 -6.104 9.934 33.99 7.899 -13.05 -1.077 17 6.942 -11.01 31 12.93 1.915 38.9 12.93
2.795 29.92 22.98 -3.112 0 38.9 13.88 -10.05 0 26.93 17 -5.027 34.95 31 5.984 33.99 20.95
2.8 31.96 22.98 -13.05 -1.077 35.91 11.97 -9.096 -3.112 29.92 19.99 0.9575 35.91 41.89 7.899 21.9 23.94
2.805 27.89 14.96 -19.03 -1.077 28.96 12.93 -6.104 0 28.96 17.95 1.915 27.89 42.97 4.907 6.942 20.95
2.81 17 0.9575 -24.06 -5.027 17 8.977 -8.019 -2.035 22.98 14.96 -2.035 12.93 29.92 0.9575 -7.062 8.977
2.815 2.992 -5.027 -22.02 -3.112 6.942 5.984 -12.09 -8.019 15.92 5.984 -7.062 0 10.89 -7.062 -23.1 0
2.82 -2.035 -11.01 -12.09 -11.01 1.915 1.915 -14 -16.04 6.942 -2.035 -14 -18.07 -7.062 -13.05 -37.1 -14
2.825 -5.027 -3.112 0.9575 -21.06 -8.019 -6.104 -12.09 -22.02 -2.035 -9.096 -20.11 -29.08 -22.02 -12.09 -42.01 -20.11
2.83 -3.112 4.907 3.95 -37.1 -21.06 -17.12 -9.096 -25.01 -15.08 -15.08 -19.03 -31.12 -31.12 -13.05 -39.02 -23.1
2.835 -1.077 18.91 13.88 -49.07 -28.01 -17.12 0 -18.07 -24.06 -12.09 -13.05 -24.06 -30.04 -11.01 -27.05 -20.11
2.84 -3.112 24.89 18.91 -53.02 -35.07 -15.08 3.95 -7.062 -30.04 -6.104 -5.027 -16.04 -28.01 -9.096 -12.09 -16.04
2.845 -13.05 20.95 19.99 -53.02 -39.02 -7.062 5.984 0.9575 -31.12 -3.112 0 -9.096 -23.1 -9.096 0 -13.05
2.85 -23.1 12.93 18.91 -43.09 -35.07 -1.077 6.942 3.95 -23.1 -2.035 5.984 -2.035 -15.08 -6.104 13.88 -7.062
2.855 -25.01 2.992 17 -36.03 -26.09 -2.035 2.992 4.907 -14 0 5.984 1.915 -10.05 -2.035 29.92 0.9575
2.86 -19.03 -1.077 9.934 -31.12 -13.05 0 0.9575 0 -3.112 -2.035 0 5.984 -1.077 -2.035 33.99 3.95
2.865 -5.027 0.9575 2.992 -25.01 -2.035 5.984 0 0 8.977 9.934 -1.077 18.91 6.942 6.942 34.95 11.97
2.87 7.899 8.977 0.9575 -16.04 15.92 13.88 1.915 1.915 22.98 23.94 -3.112 25.97 22.98 10.89 26.93 19.99
2.875 21.9 12.93 -3.112 -7.062 21.9 17.95 0 1.915 33.99 31.96 -1.077 29.92 33.99 13.88 13.88 23.94
2.88 29.92 12.93 -9.096 0.9575 24.89 15.92 0 4.907 40.93 31.96 -2.035 27.89 38.9 9.934 2.992 21.9
2.885 27.89 2.992 -13.05 -4.069 17 7.899 -1.077 2.992 38.9 19.99 -2.035 17 31 1.915 -2.035 13.88
2.89 19.99 -5.027 -17.12 -11.01 3.95 -2.035 -11.01 -1.077 29.92 3.95 -3.112 1.915 15.92 0.9575 -11.01 3.95
2.895 13.88 -17.12 -25.01 -17.12 -1.077 0.9575 -19.03 -10.05 21.9 -1.077 -15.08 -4.069 1.915 0.9575 -9.096 -2.035
2.9 11.97 -23.1 -37.1 -17.12 -1.077 0 -27.05 -16.04 13.88 -1.077 -27.05 -8.019 -3.112 3.95 -3.112 -2.035
2.905 11.97 -17.12 -49.07 -19.03 0 5.984 -31.12 -25.01 3.95 1.915 -37.1 -5.027 -5.027 15.92 0 1.915
2.91 15.92 -7.062 -61.04 -18.07 -2.035 11.97 -35.07 -31.12 0.9575 7.899 -43.09 0 -3.112 21.9 7.899 7.899
2.915 15.92 0.9575 -63.08 -18.07 -1.077 13.88 -37.1 -37.1 -9.096 9.934 -45 0.9575 -1.077 19.99 13.88 9.934
2.92 15.92 4.907 -53.02 -27.05 -9.096 11.97 -35.07 -37.1 -17.12 9.934 -37.1 0.9575 -2.035 9.934 19.99 7.899
2.925 13.88 2.992 -29.08 -30.04 -13.05 13.88 -25.01 -33.03 -19.03 9.934 -23.1 -2.035 0 0 27.89 3.95
2.93 13.88 0.9575 0.9575 -27.05 -9.096 17.95 -9.096 -19.03 -15.08 15.92 -3.112 1.915 5.984 -1.077 31.96 0
2.935 15.92 0.9575 17.95 -17.12 0.9575 23.94 3.95 -3.112 -5.027 23.94 9.934 9.934 13.88 -3.112 31.96 0.9575
2.94 19.99 6.942 27.89 -5.027 5.984 27.89 15.92 7.899 1.915 27.89 19.99 15.92 17.95 -1.077 21.9 -3.112
2.945 19.99 20.95 25.97 0 7.899 21.9 19.99 15.92 9.934 25.97 19.99 15.92 17.95 -3.112 5.984 -11.01
2.95 13.88 28.96 13.88 1.915 1.915 9.934 13.88 13.88 11.97 15.92 9.934 5.984 9.934 -9.096 -5.027 -19.03
2.955 5.984 26.93 3.95 0 -5.027 -2.035 5.984 5.984 5.984 1.915 0 -5.027 0.9575 -15.08 -19.03 -25.01
2.96 -1.077 12.93 -2.035 0.9575 -15.08 -5.027 -2.035 -2.035 -2.035 -5.027 -1.077 -19.03 -13.05 -19.03 -23.1 -29.08
2.965 -9.096 -1.077 -1.077 -3.112 -21.06 -5.027 0.9575 -1.077 -9.096 -11.01 -3.112 -27.05 -23.1 -19.03 -19.03 -29.08
2.97 -17.12 -3.112 -3.112 -3.112 -19.03 -1.077 -1.077 -1.077 -17.12 -9.096 -3.112 -25.01 -25.01 -15.08 -11.01 -25.01
2.975 -21.06 -1.077 -5.027 -1.077 -15.08 -2.035 -1.077 0.9575 -23.1 -5.027 -3.112 -17.12 -23.1 -7.062 -3.112 -17.12
2.98 -21.06 4.907 -3.112 0.9575 -11.01 0 -1.077 0.9575 -23.1 0.9575 -5.027 -1.077 -17.12 0.9575 3.95 -5.027
2.985 -17.12 14.96 0 1.915 -7.062 -2.035 0.9575 -1.077 -15.08 0 -5.027 1.915 -9.096 1.915 11.97 1.915
2.99 -5.027 20.95 13.88 7.899 -5.027 0.9575 0 0.9575 -5.027 -2.035 -1.077 5.984 -3.112 1.915 13.88 7.899
2.995 5.984 22.98 21.9 7.899 -7.062 0.9575 3.95 -1.077 0.9575 -1.077 1.915 1.915 -1.077 0.9575 7.899 3.95
3 21.9 24.89 19.99 7.899 -7.062 0 5.984 -2.035 -1.077 -9.096 5.984 -1.077 -7.062 -11.01 -5.027 -9.096
3.005 38.9 28.96 9.934 9.934 -3.112 7.899 5.984 0 -3.112 -13.05 7.899 -10.05 -15.08 -25.01 -21.06 -30.04
3.01 48.95 34.95 -2.035 17 3.95 15.92 7.899 3.95 -5.027 -13.05 7.899 -12.09 -23.1 -34.11 -32.08 -50.03
3.015 53.98 42.97 -5.027 29.92 19.99 25.97 7.899 9.934 -1.077 -5.027 9.934 -5.027 -23.1 -39.02 -29.08 -57.09
3.02 56.97 48.95 -1.077 46.92 36.98 29.92 7.899 13.88 6.942 0 11.97 2.992 -15.08 -32.08 -12.09 -50.03
3.025 54.94 54.94 -2.035 58.89 44.88 29.92 7.899 15.92 14.96 7.899 12.93 12.93 -5.027 -20.11 0.9575 -36.03
3.03 51.94 54.94 0 59.96 39.98 23.94 1.915 11.97 17.95 9.934 7.899 17.95 0 -7.062 9.934 -21.06
3.035 47.99 50.99 -4.069 56.97 26.93 15.92 -3.112 1.915 12.93 9.934 1.915 17.95 5.984 -1.077 12.93 -5.027
3.04 35.91 40.93 -20.11 43.93 8.977 7.899 -15.08 -7.062 2.992 6.942 -14 7.899 3.95 3.95 9.934 0
3.045 17.95 28.96 -31.12 29.92 -5.027 -2.035 -25.01 -19.03 -5.027 0 -25.01 -2.035 1.915 5.984 0 9.934
3.05 0 10.89 -26.09 19.99 -20.11 -6.104 -25.01 -24.06 -11.01 -2.035 -23.1 -3.112 1.915 9.934 1.915 17
3.055 -21.06 -1.077 -10.05 9.934 -33.03 -13.05 -16.04 -19.03 -16.04 -9.096 -12.09 0 -1.077 10.89 2.992 21.9
3.06 -37.1 -5.027 4.907 2.992 -40.1 -21.06 0 -9.096 -19.03 -14 1.915 0.9575 -5.027 8.977 8.977 23.94
3.065 -41.05 -11.01 14.96 1.915 -39.02 -25.01 10.89 1.915 -22.02 -15.08 8.977 8.977 -5.027 6.942 12.93 23.94
3.07 -24.06 -9.096 18.91 7.899 -32.08 -26.09 17.95 17 -23.1 -14 15.92 13.88 -6.104 1.915 13.88 22.98
3.075 -7.062 -3.112 11.97 13.88 -23.1 -25.01 19.99 21.9 -17.12 -13.05 17.95 17.95 -7.062 -1.077 11.97 15.92
3.08 5.984 2.992 6.942 23.94 -16.04 -19.03 17.95 21.9 -8.019 -12.09 17 17.95 -9.096 -7.062 11.97 7.899
3.085 11.97 0.9575 10.89 26.93 -12.09 -13.05 13.88 17.95 0 -13.05 14.96 19.99 -11.01 -14 17 1.915
3.09 1.915 8.977 19.99 25.97 -11.01 -5.027 13.88 13.88 0 -11.01 19.99 21.9 -9.096 -21.06 25.97 -1.077
3.095 -4.069 14.96 33.99 28.96 -2.035 -2.035 19.99 17.95 8.977 -9.096 26.93 31 -1.077 -18.07 36.98 -2.035
3.1 -8.019 22.98 39.98 34.95 2.992 1.915 29.92 27.89 17 -3.112 31.96 36.98 3.95 -12.09 44.88 1.915
3.105 -9.096 28.96 37.94 37.94 13.88 1.915 33.99 33.99 25.97 0.9575 31.96 41.89 13.88 -3.112 45.96 7.899
3.11 0 28.96 23.94 40.93 19.99 -2.035 27.89 35.91 29.92 -2.035 23.94 36.98 23.94 0.9575 38.9 12.93
3.115 1.915 22.98 5.984 27.89 15.92 -1.077 11.97 21.9 25.97 0.9575 5.984 22.98 21.9 1.915 17.95 12.93
3.12 -1.077 6.942 -9.096 5.984 3.95 0.9575 -7.062 0 13.88 -1.077 -7.062 0.9575 9.934 -2.035 -7.062 1.915
3.125 -11.01 -11.01 -29.08 -11.01 -5.027 3.95 -27.05 -19.03 0.9575 -3.112 -23.1 -25.01 -3.112 -5.027 -35.07 -5.027
3.13 -19.03 -35.07 -43.09 -23.1 -11.01 15.92 -41.05 -37.1 -13.05 -3.112 -33.03 -45 -17.12 -13.05 -55.06 -15.08
3.135 -19.03 -53.02 -55.06 -23.1 -13.05 27.89 -47.04 -47.04 -19.03 -3.112 -41.05 -55.06 -27.05 -15.08 -59.01 -21.06
3.14 -11.01 -63.08 -61.04 -19.03 -7.062 33.99 -51.11 -49.07 -15.08 -1.077 -47.04 -57.09 -29.08 -17.12 -49.07 -23.1
3.145 -7.062 -67.02 -63.08 -17.12 -3.112 31.96 -55.06 -47.04 -7.062 -3.112 -53.02 -51.11 -27.05 -19.03 -37.1 -27.05
3.15 -17.12 -75.04 -63.08 -15.08 -3.112 27.89 -59.01 -47.04 -1.077 -5.027 -59.01 -43.09 -23.1 -25.01 -27.05 -33.03
3.155 -41.05 -83.06 -59.01 -15.08 -7.062 23.94 -59.01 -45 0.9575 -5.027 -57.09 -37.1 -19.03 -31.12 -27.05 -37.1
3.16 -67.02 -91.08 -53.02 -17.12 -9.096 23.94 -51.11 -39.02 0.9575 -3.112 -49.07 -33.03 -17.12 -31.12 -31.12 -33.03
3.165 -79.11 -93.12 -47.04 -15.08 -7.062 23.94 -39.02 -33.03 -1.077 -1.077 -33.03 -27.05 -15.08 -25.01 -31.12 -21.06
3.17 -71.09 -85.1 -39.02 -11.01 -3.112 21.9 -29.08 -27.05 -3.112 -1.077 -17.12 -23.1 -11.01 -11.01 -23.1 -3.112
3.175 -45 -71.09 -35.07 -9.096 -1.077 19.99 -21.06 -23.1 -5.027 -5.027 -11.01 -19.03 -11.01 -2.035 -11.01 5.984
3.18 -19.03 -61.04 -35.07 -11.01 -1.077 15.92 -23.1 -23.1 -9.096 -7.062 -13.05 -19.03 -13.05 9.934 -5.027 9.934
3.185 -1.077 -63.08 -41.05 -19.03 -5.027 11.97 -31.12 -25.01 -15.08 -9.096 -25.01 -25.01 -17.12 13.88 -9.096 3.95
3.19 -3.112 -71.09 -49.07 -27.05 -11.01 7.899 -41.05 -31.12 -19.03 -5.027 -41.05 -37.1 -23.1 9.934 -23.1 -3.112
3.195 -15.08 -81.03 -53.02 -36.03 -17.12 3.95 -51.11 -39.02 -23.1 -5.027 -53.02 -49.07 -31.12 0 -41.05 -15.08
3.2 -27.05 -79.11 -49.07 -45 -23.1 0 -53.02 -45 -27.05 -7.062 -57.09 -59.01 -39.02 -7.062 -51.11 -21.06
3.205 -31.12 -67.02 -39.02 -48.11 -29.08 -3.112 -51.11 -48.11 -29.08 -13.05 -51.11 -58.05 -45 -17.12 -48.11 -23.1
3.21 -29.08 -49.07 -27.05 -46.08 -30.04 -9.096 -41.05 -44.04 -31.12 -17.12 -39.02 -48.11 -45 -25.01 -36.03 -23.1
3.215 -27.05 -37.1 -15.08 -39.02 -29.08 -9.096 -27.05 -37.1 -29.08 -17.12 -27.05 -33.03 -39.02 -29.08 -27.05 -23.1
3.22 -29.08 -35.07 -9.096 -29.08 -22.02 -7.062 -15.08 -24.06 -25.01 -11.01 -19.03 -18.07 -26.09 -29.08 -22.02 -23.1
3.225 -37.1 -41.05 -5.027 -27.05 -18.07 0.9575 -7.062 -12.09 -16.04 -5.027 -15.08 -9.096 -16.04 -27.05 -24.06 -21.06
3.23 -45 -51.11 -7.062 -27.05 -15.08 0 -5.027 -5.027 -11.01 -3.112 -13.05 -11.01 -9.096 -25.01 -31.12 -17.12
3.235 -45 -57.09 -11.01 -32.08 -14 1.915 -6.104 -3.112 -6.104 -7.062 -11.01 -14 -6.104 -21.06 -33.03 -14
3.24 -37.1 -61.04 -15.08 -39.02 -17.12 -2.035 -8.019 -3.112 -6.104 -17.12 -7.062 -18.07 -8.019 -17.12 -25.01 -12.09
3.245 -21.06 -63.08 -21.06 -43.09 -25.01 -3.112 -5.027 -5.027 -11.01 -25.01 -3.112 -21.06 -13.05 -13.05 -17.12 -9.096
3.25 -6.104 -59.01 -19.03 -36.03 -29.08 -5.027 1.915 -2.035 -18.07 -27.05 -1.077 -19.03 -13.05 -5.027 -2.035 -6.104
3.255 0 -53.02 -11.01 -29.08 -30.04 -3.112 6.942 -1.077 -21.06 -20.11 6.942 -10.05 -11.01 -2.035 7.899 0.9575
3.26 -7.062 -47.04 0.9575 -17.12 -33.03 0 13.88 1.915 -23.1 -11.01 13.88 0.9575 -1.077 9.934 17.95 15.92
3.265 -20.11 -35.07 7.899 -10.05 -29.08 5.984 17.95 8.977 -15.08 1.915 20.95 10.89 4.907 15.92 31.96 31.96
3.27 -34.11 -29.08 11.97 -7.062 -24.06 11.97 15.92 15.92 -6.104 0.9575 20.95 21.9 11.97 15.92 34.95 33.99
3.275 -41.05 -31.12 0 -9.096 -19.03 9.934 5.984 15.92 -3.112 1.915 13.88 23.94 9.934 9.934 25.97 25.97
3.28 -39.02 -37.1 -13.05 -13.05 -18.07 7.899 -2.035 7.899 -1.077 0.9575 3.95 14.96 1.915 -2.035 5.984 8.977
3.285 -31.12 -45 -29.08 -19.03 -22.02 5.984 -13.05 0 -10.05 0 -11.01 -7.062 -10.05 -9.096 -22.02 -9.096
3.29 -23.1 -49.07 -35.07 -27.05 -31.12 3.95 -27.05 -19.03 -19.03 0.9575 -27.05 -45 -27.05 -19.03 -57.09 -25.01
3.295 -17.12 -43.09 -31.12 -30.04 -34.11 1.915 -31.12 -37.1 -31.12 -1.077 -38.06 -76 -42.01 -22.02 -86.06 -39.02
3.3 -16.04 -35.07 -21.06 -31.12 -41.05 1.915 -36.03 -50.03 -36.03 -8.019 -43.09 -100.1 -53.02 -24.06 -99.1 -48.11
3.305 -22.02 -27.05 -15.08 -40.1 -45 -8.019 -34.11 -55.06 -42.01 -18.07 -41.05 -103.1 -65.11 -26.09 -98.02 -56.01
3.31 -32.08 -29.08 -15.08 -51.11 -51.11 -16.04 -30.04 -52.06 -48.11 -32.08 -35.07 -94.07 -65.11 -30.04 -81.03 -58.05
3.315 -45 -33.03 -17.12 -70.02 -58.05 -23.1 -23.1 -41.05 -55.06 -43.09 -26.09 -74.09 -64.03 -32.08 -62.12 -57.09
3.32 -55.06 -41.05 -21.06 -85.1 -67.02 -23.1 -21.06 -31.12 -59.01 -47.04 -19.03 -55.06 -59.01 -31.12 -41.05 -49.07
3.325 -61.04 -41.05 -21.06 -89.05 -72.05 -23.1 -15.08 -22.02 -60.08 -41.05 -17.12 -37.1 -48.11 -25.01 -28.01 -41.05
3.33 -63.08 -43.09 -21.06 -87.01 -74.09 -21.06 -14 -17.12 -59.01 -32.08 -15.08 -26.09 -41.05 -17.12 -19.03 -30.04
3.335 -63.08 -45 -15.08 -79.11 -73.01 -25.01 -15.08 -15.08 -61.04 -25.01 -19.03 -23.1 -37.1 -11.01 -15.08 -29.08
3.34 -60.08 -43.09 -11.01 -71.09 -70.02 -27.05 -13.05 -15.08 -60.08 -20.11 -22.02 -25.01 -35.07 -11.01 -18.07 -35.07
3.345 -60.08 -45 -5.027 -70.02 -65.11 -25.01 -13.05 -18.07 -65.11 -24.06 -20.11 -30.04 -40.1 -15.08 -23.1 -41.05
3.35 -57.09 -49.07 -5.027 -75.04 -63.08 -19.03 -17.12 -21.06 -65.11 -31.12 -19.03 -41.05 -47.04 -23.1 -35.07 -51.11
3.355 -52.06 -51.11 -11.01 -85.1 -62.12 -15.08 -18.07 -24.06 -63.08 -36.03 -20.11 -46.08 -55.06 -31.12 -45 -56.01
3.36 -50.03 -51.11 -23.1 -88.09 -63.08 -15.08 -24.06 -28.01 -62.12 -43.09 -20.11 -55.06 -65.11 -39.02 -54.1 -56.01
3.365 -43.09 -51.11 -33.03 -91.08 -63.08 -21.06 -27.05 -35.07 -63.08 -43.09 -25.01 -59.01 -73.01 -45 -55.06 -53.02
3.37 -35.07 -39.02 -37.1 -79.11 -53.02 -27.05 -28.01 -37.1 -62.12 -43.09 -27.05 -56.01 -70.02 -51.11 -49.07 -46.08
3.375 -27.05 -23.1 -27.05 -64.03 -40.1 -29.08 -24.06 -37.1 -60.08 -39.02 -25.01 -50.03 -58.05 -53.02 -39.02 -42.01
3.38 -19.03 -9.096 -13.05 -51.11 -25.01 -23.1 -19.03 -33.03 -51.11 -31.12 -21.06 -39.02 -39.02 -49.07 -27.05 -35.07
3.385 -13.05 -1.077 -1.077 -43.09 -14 -15.08 -13.05 -22.02 -36.03 -21.06 -13.05 -21.06 -16.04 -41.05 -12.09 -27.05
3.39 -11.01 -3.112 -3.112 -37.1 -8.019 -11.01 -9.096 -12.09 -21.06 -15.08 -5.027 -8.019 1.915 -31.12 0 -19.03
3.395 -17.12 -17.12 -15.08 -37.1 -15.08 -11.01 -11.01 -9.096 -13.05 -13.05 -1.077 -3.112 1.915 -25.01 0 -15.08
3.4 -23.1 -33.03 -29.08 -40.1 -22.02 -17.12 -15.08 -10.05 -13.05 -17.12 -1.077 0 -1.077 -21.06 0.9575 -13.05
3.405 -27.05 -37.1 -37.1 -40.1 -29.08 -23.1 -21.06 -18.07 -21.06 -21.06 -5.027 -4.069 -15.08 -17.12 2.992 -15.08
3.41 -23.1 -25.01 -29.08 -31.12 -27.05 -25.01 -21.06 -25.01 -29.08 -25.01 -11.01 -9.096 -27.05 -13.05 1.915 -15.08
3.415 -11.01 -1.077 -11.01 -18.07 -15.08 -21.06 -17.12 -23.1 -31.12 -21.06 -15.08 -7.062 -29.08 -3.112 3.95 -11.01
3.42 -2.035 20.95 1.915 -1.077 -2.035 -15.08 -7.062 -11.01 -21.06 -13.05 -15.08 -2.035 -17.12 1.915 5.984 -1.077
3.425 7.899 32.91 13.88 11.97 15.92 -7.062 0 0 -1.077 -1.077 -11.01 13.88 -2.035 15.92 13.88 9.934
3.43 9.934 32.91 15.92 25.97 33.99 -1.077 7.899 15.92 17.95 7.899 -1.077 31.96 25.97 27.89 23.94 27.89
3.435 7.899 22.98 13.88 35.91 47.99 0 13.88 25.97 41.89 19.99 3.95 43.93 51.94 35.91 33.99 41.89
3.44 5.984 14.96 9.934 39.98 55.89 7.899 13.88 29.92 57.93 31.96 13.88 47.99 69.9 41.89 39.98 49.91
3.445 13.88 17 9.934 39.98 59.96 13.88 15.92 27.89 65.95 39.98 19.99 43.93 77.92 41.89 35.91 49.91
3.45 29.92 24.89 11.97 35.91 57.93 17.95 15.92 25.97 65.95 41.89 21.9 35.91 73.97 37.94 23.94 41.89
3.455 45.96 31 15.92 31.96 51.94 17.95 19.99 23.94 57.93 37.94 19.99 23.94 62 27.89 7.899 27.89
3.46 51.94 32.91 19.99 23.94 41.89 13.88 21.9 21.9 45.96 25.97 17.95 13.88 41.89 15.92 0.9575 13.88
3.465 45.96 28.96 19.99 17.95 35.91 5.984 19.99 21.9 33.99 13.88 17.95 7.899 21.9 3.95 0.9575 1.915
3.47 27.89 22.98 17.95 13.88 31.96 1.915 15.92 17.95 21.9 3.95 15.92 1.915 5.984 0.9575 1.915 -3.112
3.475 7.899 24.89 15.92 13.88 35.91 1.915 9.934 17.95 13.88 1.915 11.97 3.95 -1.077 -7.062 11.97 -7.062
3.48 0.9575 31 13.88 17.95 39.98 5.984 7.899 18.91 9.934 7.899 9.934 8.977 -3.112 -9.096 17.95 -7.062
3.485 0.9575 38.9 17.95 25.97 47.99 15.92 13.88 24.89 13.88 19.99 11.97 12.93 -2.035 -9.096 22.98 -3.112
3.49 9.934 44.88 21.9 37.94 53.98 21.9 23.94 29.92 21.9 33.99 19.99 21.9 9.934 -1.077 21.9 -2.035
3.495 29.92 44.88 27.89 46.92 59.96 25.97 32.91 38.9 31.96 45.96 31 24.89 22.98 7.899 22.98 7.899
3.5 51.94 46.92 31.96 50.99 66.91 25.97 36.98 40.93 40.93 51.94 38.9 22.98 28.96 23.94 20.95 15.92
3.505 63.91 48.95 29.92 45.96 67.98 21.9 29.92 35.91 47.99 55.89 35.91 13.88 31.96 39.98 11.97 23.94
3.51 65.95 54.94 26.93 40.93 68.94 21.9 22.98 27.89 52.9 55.89 28.96 5.984 32.91 48.95 0.9575 27.89
3.515 62 58.89 18.91 32.91 66.91 21.9 14.96 17.95 54.94 55.89 12.93 -2.035 38.9 54.94 -4.069 31.96
3.52 49.91 58.89 9.934 27.89 62 21.9 11.97 13.88 57.93 59.96 1.915 -2.035 47.99 53.98 -13.05 33.99
3.525 41.89 48.95 2.992 27.89 54.94 20.95 11.97 12.93 62.96 62 3.95 4.907 59.96 50.99 -11.01 33.99
3.53 37.94 28.96 0 21.9 47.99 14.96 5.984 9.934 63.91 59.96 3.95 11.97 62 47.99 -2.035 29.92
3.535 29.92 8.977 -11.01 13.88 37.94 9.934 0 3.95 57.93 53.98 1.915 15.92 55.89 41.89 1.915 19.99
3.54 22.98 0.9575 -20.11 -2.035 26.93 2.992 -11.01 0 47.99 40.93 0 10.89 40.93 38.9 9.934 10.89
3.545 12.93 0.9575 -24.06 -6.104 12.93 1.915 -22.02 -10.05 31 26.93 -13.05 2.992 20.95 31.96 10.89 6.942
3.55 2.992 6.942 -24.06 -8.019 3.95 -2.035 -28.01 -16.04 14.96 17 -25.01 -2.035 2.992 33.99 9.934 8.977
3.555 2.992 20.95 -12.09 1.915 0.9575 -4.069 -20.11 -18.07 4.907 10.89 -29.08 -4.069 0 31.96 8.977 22.98
3.56 10.89 28.96 1.915 7.899 2.992 -4.069 -7.062 -12.09 1.915 12.93 -22.02 0 0 32.91 9.934 36.98
3.565 21.9 26.93 9.934 19.99 7.899 -3.112 0 -7.062 1.915 15.92 -13.05 -2.035 -2.035 27.89 11.97 47.99
3.57 29.92 17 14.96 23.94 17.95 -2.035 3.95 0.9575 7.899 17.95 -3.112 3.95 5.984 25.97 20.95 51.94
3.575 33.99 2.992 14.96 25.97 22.98 -2.035 1.915 -1.077 8.977 15.92 0 10.89 11.97 18.91 23.94 47.99
3.58 29.92 -1.077 9.934 27.89 27.89 -3.112 -2.035 0.9575 11.97 9.934 -2.035 11.97 17.95 7.899 25.97 39.98
3.585 21.9 -1.077 10.89 38.9 31 -1.077 0.9575 0 12.93 7.899 2.992 13.88 28.96 0.9575 22.98 29.92
3.59 19.99 12.93 14.96 54.94 32.91 0 12.93 7.899 18.91 5.984 10.89 15.92 34.95 1.915 20.95 19.99
3.595 17.95 24.89 19.99 71.93 35.91 5.984 23.94 13.88 23.94 11.97 21.9 13.88 35.91 -1.077 17.95 13.88
3.6 17.95 34.95 23.94 78.99 34.95 11.97 28.96 20.95 24.89 15.92 31 12.93 31 -3.112 18.91 9.934
3.605 19.99 36.98 23.94 68.94 29.92 11.97 24.89 18.91 23.94 15.92 28.96 8.977 18.91 0.9575 18.91 3.95
3.61 23.94 31 13.88 49.91 23.94 7.899 11.97 13.88 15.92 13.88 19.99 0 1.915 -2.035 15.92 -2.035
3.615 33.99 22.98 1.915 33.99 15.92 0 -2.035 6.942 7.899 7.899 3.95 -1.077 -7.062 3.95 8.977 -3.112
3.62 47.99 18.91 -3.112 23.94 11.97 0.9575 -1.077 -1.077 -2.035 5.984 -1.077 1.915 -15.08 9.934 -2.035 -3.112
3.625 59.96 18.91 -5.027 21.9 15.92 0 -2.035 -1.077 -3.112 11.97 -5.027 -1.077 -15.08 19.99 -11.01 -2.035
3.63 62 18.91 0.9575 33.99 21.9 9.934 5.984 0.9575 -1.077 21.9 -5.027 0.9575 -7.062 25.97 -19.03 9.934
3.635 49.91 18.91 5.984 45.96 31.96 25.97 15.92 0 1.915 31.96 0.9575 0 0 29.92 -17.12 23.94
3.64 31.96 14.96 15.92 51.94 39.98 35.91 17.95 7.899 15.92 39.98 0 7.899 17.95 29.92 -7.062 35.91
3.645 17.95 10.89 21.9 43.93 43.93 35.91 11.97 13.88 29.92 37.94 1.915 17.95 33.99 23.94 3.95 39.98
3.65 13.88 12.93 21.9 31.96 43.93 29.92 5.984 15.92 39.98 33.99 3.95 25.97 43.93 17.95 17.95 37.94
3.655 19.99 17 17.95 15.92 37.94 19.99 1.915 9.934 41.89 27.89 7.899 29.92 47.99 11.97 27.89 31.96
3.66 31.96 20.95 9.934 1.915 31.96 11.97 0 1.915 37.94 23.94 9.934 25.97 43.93 9.934 29.92 23.94
3.665 33.99 22.98 0 -2.035 21.9 7.899 0 -3.112 25.97 19.99 9.934 15.92 33.99 5.984 23.94 15.92
3.67 25.97 17 -1.077 0.9575 11.97 3.95 -2.035 -9.096 13.88 13.88 9.934 3.95 19.99 1.915 13.88 5.984
3.675 9.934 8.977 -3.112 -2.035 3.95 1.915 0.9575 -11.01 0 7.899 5.984 0.9575 5.984 0.9575 5.984 0.9575
3.68 0.9575 6.942 0 0 0 1.915 -2.035 -5.027 -5.027 1.915 3.95 -1.077 -2.035 -3.112 -2.035 -7.062
3.685 -2.035 10.89 15.92 4.907 1.915 0 5.984 0 -9.096 -2.035 3.95 0.9575 -1.077 -7.062 -1.077 -13.05
3.69 13.88 22.98 33.99 11.97 11.97 1.915 15.92 11.97 -9.096 -2.035 7.899 -2.035 -3.112 -9.096 -5.027 -13.05
3.695 35.91 34.95 49.91 20.95 19.99 5.984 27.89 23.94 -1.077 -2.035 13.88 -1.077 -5.027 -11.01 -11.01 -11.01
3.7 47.99 36.98 55.89 22.98 23.94 5.984 33.99 31 0 -2.035 19.99 -2.035 -7.062 -13.05 -16.04 -9.096
3.705 43.93 28.96 51.94 15.92 21.9 0 33.99 31.96 3.95 -2.035 23.94 -9.096 -11.01 -11.01 -23.1 -5.027
3.71 21.9 12.93 39.98 5.984 12.93 -1.077 29.92 31 3.95 -2.035 25.97 -12.09 -9.096 -9.096 -24.06 -1.077
3.715 0 -1.077 29.92 0.9575 4.907 -7.062 25.97 26.93 -2.035 3.95 29.92 -8.019 -3.112 -3.112 -22.02 0.9575
3.72 -7.062 -5.027 27.89 -3.112 1.915 -5.027 23.94 23.94 0.9575 11.97 31.96 -1.077 1.915 -2.035 -15.08 0
3.725 -1.077 2.992 31.96 0.9575 12.93 0 28.96 24.89 -2.035 21.9 33.99 9.934 12.93 1.915 1.915 3.95
3.73 13.88 10.89 39.98 17.95 28.96 11.97 36.98 31.96 9.934 31.96 37.94 25.97 24.89 5.984 17.95 12.93
3.735 33.99 28.96 43.93 35.91 39.98 21.9 39.98 33.99 25.97 37.94 39.98 39.98 31.96 7.899 35.91 17.95
3.74 45.96 44.88 41.89 49.91 53.98 23.94 42.97 37.94 37.94 42.97 37.94 52.9 38.9 13.88 53.98 26.93
3.745 45.96 58.89 29.92 52.9 51.94 19.99 36.98 34.95 45.96 42.97 31 58.89 40.93 19.99 64.99 32.91
3.75 35.91 60.92 15.92 49.91 47.99 15.92 27.89 27.89 41.89 41.89 19.99 57.93 39.98 21.9 63.91 31.96
3.755 26.93 56.97 6.942 44.88 40.93 11.97 21.9 21.9 36.98 38.9 10.89 54.94 37.94 19.99 55.89 24.89
3.76 20.95 46.92 2.992 42.97 37.94 13.88 13.88 13.88 34.95 32.91 4.907 47.99 31.96 13.88 40.93 14.96
3.765 15.92 38.9 3.95 41.89 39.98 17.95 9.934 13.88 33.99 27.89 5.984 41.89 29.92 11.97 29.92 5.984
3.77 17 32.91 8.977 46.92 45.96 19.99 14.96 20.95 40.93 29.92 12.93 42.97 31 10.89 28.96 3.95
3.775 25.97 32.91 12.93 51.94 48.95 15.92 21.9 28.96 50.99 29.92 21.9 46.92 37.94 10.89 34.95 8.977
3.78 31.96 34.95 11.97 51.94 45.96 5.984 23.94 33.99 51.94 31.96 25.97 51.94 41.89 9.934 37.94 19.99
3.785 36.98 36.98 14.96 46.92 38.9 1.915 25.97 35.91 44.88 28.96 27.89 52.9 46.92 9.934 38.9 29.92
3.79 31.96 34.95 12.93 32.91 25.97 -3.112 23.94 27.89 33.99 23.94 25.97 45.96 42.97 5.984 37.94 34.95
3.795 21.9 31 15.92 14.96 14.96 -1.077 21.9 19.99 17 17.95 18.91 35.91 31 5.984 36.98 37.94
3.8 5.984 24.89 20.95 0.9575 7.899 0 13.88 15.92 9.934 15.92 15.92 25.97 20.95 9.934 31.96 34.95
3.805 1.915 20.95 24.89 0 8.977 4.907 9.934 19.99 6.942 14.96 13.88 24.89 14.96 17.95 36.98 31.96
3.81 0.9575 18.91 27.89 0.9575 9.934 7.899 11.97 25.97 11.97 17.95 15.92 29.92 11.97 17.95 43.93 23.94
3.815 1.915 14.96 31 3.95 10.89 5.984 17.95 32.91 20.95 23.94 25.97 38.9 15.92 20.95 52.9 20.95
3.82 6.942 12.93 28.96 2.992 11.97 3.95 17 34.95 24.89 27.89 28.96 40.93 18.91 18.91 58.89 15.92
3.825 5.984 14.96 23.94 -3.112 5.984 0 13.88 25.97 19.99 23.94 25.97 35.91 13.88 13.88 53.98 11.97
3.83 6.942 17 18.91 -14 3.95 0 11.97 15.92 12.93 20.95 22.98 29.92 5.984 13.88 42.97 10.89
3.835 6.942 18.91 12.93 -22.02 2.992 1.915 13.88 9.934 6.942 14.96 17 18.91 3.95 11.97 27.89 10.89
3.84 7.899 17 9.934 -21.06 3.95 1.915 13.88 5.984 5.984 9.934 11.97 11.97 1.915 11.97 9.934 9.934
3.845 7.899 17 9.934 -10.05 3.95 0 20.95 10.89 11.97 12.93 14.96 14.96 8.977 11.97 2.992 14.96
3.85 7.899 14.96 11.97 1.915 3.95 -2.035 24.89 13.88 21.9 17 19.99 20.95 22.98 9.934 5.984 24.89
3.855 5.984 12.93 13.88 3.95 0 -1.077 21.9 19.99 31.96 23.94 27.89 27.89 33.99 11.97 13.88 33.99
3.86 -2.035 14.96 15.92 1.915 -2.035 -5.027 17 23.94 33.99 27.89 31.96 35.91 42.97 17.95 25.97 44.88
3.865 0.9575 17 15.92 -2.035 -10.05 -9.096 12.93 20.95 27.89 25.97 27.89 39.98 42.97 23.94 31 45.96
3.87 -2.035 17 15.92 -13.05 -17.12 -11.01 9.934 17.95 15.92 15.92 19.99 35.91 35.91 25.97 31.96 39.98
3.875 -2.035 10.89 13.88 -15.08 -16.04 -13.05 9.934 17 5.984 1.915 7.899 31 23.94 21.9 32.91 27.89
3.88 -1.077 2.992 11.97 -15.08 -14 -17.12 9.934 12.93 1.915 -7.062 -2.035 22.98 13.88 11.97 26.93 11.97
3.885 -7.062 -5.027 5.984 -19.03 -15.08 -21.06 5.984 3.95 0 -13.05 -3.112 9.934 1.915 -2.035 17.95 -2.035
3.89 -15.08 -13.05 -2.035 -26.09 -17.12 -27.05 0.9575 -2.035 -2.035 -17.12 -3.112 0 -5.027 -5.027 4.907 -7.062
3.895 -23.1 -19.03 -7.062 -40.1 -23.1 -29.08 -9.096 -15.08 -7.062 -17.12 -1.077 -16.04 -19.03 -9.096 -7.062 -13.05
3.9 -27.05 -21.06 -15.08 -55.06 -31.12 -29.08 -17.12 -25.01 -21.06 -21.06 -2.035 -27.05 -33.03 -7.062 -17.12 -15.08
3.905 -31.12 -17.12 -15.08 -58.05 -37.1 -27.05 -17.12 -25.01 -37.1 -25.01 3.95 -29.08 -41.05 -3.112 -15.08 -13.05
3.91 -31.12 -11.01 -7.062 -51.11 -37.1 -23.1 -9.096 -17.12 -43.09 -29.08 7.899 -19.03 -41.05 -1.077 0.9575 -7.062
3.915 -29.08 -5.027 0 -37.1 -33.03 -21.06 0.9575 -5.027 -43.09 -31.12 11.97 -3.112 -31.12 -1.077 19.99 0
3.92 -27.05 -3.112 11.97 -25.01 -31.12 -21.06 7.899 0 -35.07 -27.05 15.92 7.899 -17.12 -1.077 37.94 13.88
3.925 -25.01 -5.027 19.99 -19.03 -33.03 -21.06 13.88 3.95 -27.05 -21.06 15.92 15.92 -3.112 -1.077 39.98 23.94
3.93 -23.1 -9.096 17.95 -19.03 -37.1 -17.12 13.88 3.95 -23.1 -13.05 13.88 13.88 0 -1.077 27.89 23.94
3.935 -25.01 -9.096 11.97 -19.03 -37.1 -15.08 9.934 1.915 -23.1 -5.027 7.899 3.95 -2.035 0.9575 5.984 13.88
3.94 -27.05 -1.077 5.984 -13.05 -31.12 -13.05 7.899 3.95 -21.06 -1.077 3.95 0.9575 -1.077 -1.077 -3.112 -2.035
3.945 -27.05 8.977 1.915 -7.062 -17.12 -13.05 5.984 7.899 -17.12 -1.077 3.95 -3.112 -7.062 -3.112 -7.062 -11.01
3.95 -23.1 18.91 3.95 -2.035 -3.112 -13.05 5.984 13.88 -13.05 -3.112 9.934 -3.112 -11.01 -5.027 0.9575 -19.03
3.955 -13.05 20.95 7.899 0 0 -13.05 9.934 13.88 -7.062 -7.062 17.95 0.9575 -13.05 -5.027 3.95 -17.12
3.96 -1.077 14.96 9.934 -1.077 0 -9.096 9.934 11.97 -3.112 -13.05 21.9 0.9575 -13.05 -3.112 5.984 -11.01
3.965 3.95 6.942 7.899 -7.062 -1.077 -3.112 7.899 1.915 0.9575 -19.03 17.95 -5.027 -15.08 0.9575 0 -7.062
3.97 13.88 0.9575 -2.035 -11.01 -9.096 0.9575 -2.035 -2.035 -1.077 -23.1 1.915 -8.019 -16.04 -2.035 -3.112 -9.096
3.975 19.99 -1.077 -9.096 -13.05 -17.12 0.9575 -11.01 -10.05 0 -25.01 -13.05 -14 -18.07 -2.035 -13.05 -13.05
3.98 17.95 -1.077 -21.06 -19.03 -25.01 -3.112 -23.1 -17.12 -7.062 -23.1 -31.12 -15.08 -23.1 -1.077 -19.03 -17.12
3.985 9.934 0.9575 -31.12 -21.06 -28.01 -7.062 -29.08 -20.11 -16.04 -19.03 -41.05 -12.09 -24.06 -3.112 -15.08 -15.08
3.99 -3.112 -5.027 -31.12 -27.05 -28.01 -9.096 -27.05 -24.06 -22.02 -13.05 -37.1 -4.069 -18.07 -4.069 -5.027 -5.027
3.995 -15.08 -13.05 -23.1 -27.05 -25.01 -7.062 -19.03 -19.03 -21.06 -5.027 -23.1 0 -7.062 -3.112 3.95 1.915
4 -18.07 -13.05 -13.05 -24.06 -14 0.9575 -11.01 -14 -7.062 1.915 -6.104 9.934 5.984 0 18.91 13.88
4.005 -8.019 -7.062 1.915 -18.07 -6.104 -2.035 -3.112 -3.112 0 -1.077 -1.077 13.88 19.99 1.915 26.93 17
4.01 0 -3.112 7.899 -11.01 0.9575 0 0.9575 -2.035 9.934 -2.035 3.95 15.92 21.9 0.9575 25.97 9.934
4.015 12.93 0.9575 10.89 -4.069 3.95 -2.035 1.915 3.95 12.93 1.915 6.942 17 18.91 -1.077 18.91 0.9575
4.02 8.977 -5.027 6.942 1.915 1.915 0.9575 7.899 8.977 7.899 -1.077 6.942 11.97 13.88 0 6.942 0
4.025 -1.077 -19.03 0 0 1.915 -1.077 15.92 7.899 3.95 1.915 9.934 5.984 11.97 1.915 1.915 -1.077
4.03 -16.04 -29.08 0.9575 6.942 0 -1.077 20.95 10.89 4.907 10.89 12.93 6.942 15.92 13.88 0.9575 -2.035
4.035 -23.1 -33.03 1.915 7.899 -1.077 0 24.89 14.96 9.934 13.88 15.92 7.899 21.9 20.95 1.915 5.984
4.04 -24.06 -29.08 12.93 11.97 0 -4.069 22.98 15.92 13.88 14.96 20.95 9.934 20.95 24.89 4.907 10.89
4.045 -23.1 -19.03 17.95 13.88 -4.069 -12.09 18.91 14.96 13.88 5.984 21.9 7.899 11.97 22.98 1.915 9.934
4.05 -28.01 -11.01 19.99 18.91 -5.027 -19.03 14.96 14.96 8.977 0 17 0.9575 0.9575 15.92 -4.069 3.95
4.055 -33.03 -15.08 9.934 23.94 -1.077 -27.05 5.984 7.899 3.95 -11.01 5.984 -1.077 -13.05 0 -21.06 -1.077
4.06 -34.11 -19.03 0.9575 27.89 -2.035 -27.05 0.9575 -1.077 3.95 -18.07 0 -9.096 -17.12 -5.027 -32.08 -12.09
4.065 -28.01 -29.08 -6.104 26.93 0 -25.01 -7.062 -3.112 4.907 -22.02 -14 -12.09 -16.04 -18.07 -38.06 -20.11
4.07 -15.08 -33.03 -15.08 21.9 0.9575 -21.06 -13.05 -9.096 5.984 -25.01 -27.05 -15.08 -9.096 -25.01 -37.1 -27.05
4.075 -2.035 -31.12 -16.04 18.91 -4.069 -19.03 -15.08 -7.062 5.984 -20.11 -24.06 -11.01 1.915 -22.02 -26.09 -26.09
4.08 0.9575 -27.05 -17.12 17 -8.019 -19.03 -11.01 -6.104 5.984 -16.04 -18.07 -5.027 3.95 -14 -12.09 -23.1
4.085 0.9575 -23.1 -17.12 17.95 -11.01 -17.12 -7.062 -3.112 1.915 -7.062 -9.096 0.9575 7.899 -3.112 -3.112 -13.05
4.09 -3.112 -23.1 -13.05 17.95 -4.069 -13.05 -5.027 0 2.992 -2.035 -1.077 0.9575 12.93 6.942 0.9575 -5.027
4.095 -11.01 -33.03 -13.05 11.97 0 -11.01 -9.096 -2.035 2.992 3.95 -3.112 0.9575 10.89 15.92 -3.112 0.9575
4.1 -17.12 -51.11 -17.12 0 -3.112 -9.096 -21.06 -13.05 1.915 3.95 -13.05 -1.077 1.915 21.9 -11.01 -2.035
4.105 -27.05 -69.06 -29.08 -13.05 -11.01 -9.096 -33.03 -24.06 0 -2.035 -27.05 -8.019 -4.069 17.95 -15.08 -2.035
4.11 -39.02 -89.05 -43.09 -31.12 -25.01 -11.01 -41.05 -36.03 -12.09 -3.112 -35.07 -14 -20.11 9.934 -21.06 -2.035
4.115 -53.02 -93.12 -57.09 -39.02 -41.05 -11.01 -43.09 -43.09 -29.08 -9.096 -37.1 -17.12 -29.08 1.915 -19.03 0
4.12 -59.01 -85.1 -59.01 -41.05 -49.07 -9.096 -39.02 -41.05 -39.02 -11.01 -33.03 -11.01 -27.05 -2.035 -13.05 1.915
4.125 -53.02 -67.02 -51.11 -37.1 -51.11 -1.077 -33.03 -27.05 -43.09 -9.096 -25.01 -1.077 -17.12 -2.035 -11.01 7.899
4.13 -41.05 -51.11 -35.07 -29.08 -47.04 1.915 -25.01 -15.08 -37.1 -5.027 -19.03 1.915 -3.112 1.915 -9.096 13.88
4.135 -31.12 -43.09 -23.1 -21.06 -37.1 7.899 -23.1 -7.062 -25.01 -3.112 -19.03 1.915 1.915 3.95 -9.096 15.92
4.14 -31.12 -43.09 -19.03 -21.06 -31.12 7.899 -25.01 -7.062 -13.05 -3.112 -23.1 -5.027 3.95 3.95 -17.12 13.88
4.145 -39.02 -47.04 -25.01 -21.06 -31.12 1.915 -31.12 -17.12 -7.062 -7.062 -31.12 -23.1 0.9575 -2.035 -27.05 5.984
4.15 -49.07 -49.07 -31.12 -21.06 -35.07 -1.077 -37.1 -31.12 -9.096 -15.08 -37.1 -41.05 -11.01 -3.112 -41.05 -2.035
4.155 -49.07 -47.04 -33.03 -19.03 -43.09 -9.096 -37.1 -41.05 -17.12 -21.06 -39.02 -51.11 -21.06 -7.062 -49.07 -3.112
4.16 -35.07 -39.02 -27.05 -17.12 -47.04 -9.096 -33.03 -37.1 -25.01 -23.1 -33.03 -49.07 -23.1 -5.027 -47.04 -3.112
4.165 -13.05 -33.03 -19.03 -11.01 -43.09 -5.027 -23.1 -25.01 -27.05 -21.06 -21.06 -31.12 -17.12 0 -29.08 -2.035
4.17 3.95 -27.05 -13.05 -7.062 -29.08 0 -11.01 -7.062 -17.12 -11.01 -5.027 -7.062 -3.112 13.88 0.9575 7.899
4.175 13.88 -25.01 -9.096 0 -9.096 11.97 -2.035 0 0.9575 -2.035 5.984 15.92 5.984 25.97 27.89 17.95
4.18 7.899 -23.1 -7.062 0 5.984 21.9 9.934 5.984 15.92 13.88 21.9 41.89 19.99 31.96 57.93 27.89
4.185 0.9575 -21.06 -1.077 8.977 19.99 25.97 19.99 5.984 35.91 29.92 29.92 62.96 33.99 31.96 78.99 35.91
4.19 -11.01 -17.12 3.95 20.95 25.97 23.94 27.89 7.899 49.91 39.98 31.96 72.89 43.93 29.92 84.98 41.89
4.195 -13.05 -17.12 13.88 25.97 23.94 19.99 27.89 11.97 57.93 41.89 25.97 73.97 51.94 27.89 75.88 47.99
4.2 -9.096 -23.1 19.99 21.9 17 13.88 19.99 17 55.89 37.94 15.92 62.96 54.94 29.92 54.94 47.99
4.205 -7.062 -33.03 15.92 5.984 2.992 5.984 7.899 14.96 45.96 25.97 5.984 38.9 48.95 29.92 22.98 43.93
4.21 -11.01 -39.02 5.984 -9.096 -7.062 0 0.9575 7.899 29.92 11.97 -2.035 9.934 33.99 23.94 -7.062 31.96
4.215 -23.1 -39.02 -3.112 -22.02 -22.02 -3.112 -9.096 0 8.977 0.9575 -3.112 -13.05 17 9.934 -37.1 17.95
4.22 -43.09 -33.03 -13.05 -27.05 -32.08 -9.096 -15.08 -12.09 -6.104 -15.08 -7.062 -35.07 1.915 -1.077 -53.02 0.9575
4.225 -57.09 -25.01 -21.06 -29.08 -37.1 -15.08 -15.08 -19.03 -23.1 -27.05 -9.096 -47.04 -15.08 -11.01 -59.01 -9.096
4.23 -63.08 -21.06 -23.1 -28.01 -33.03 -17.12 -15.08 -21.06 -34.11 -33.03 -13.05 -46.08 -27.05 -11.01 -48.11 -22.02
4.235 -58.05 -23.1 -23.1 -35.07 -31.12 -17.12 -15.08 -21.06 -38.06 -35.07 -13.05 -38.06 -35.07 -3.112 -34.11 -32.08
4.24 -47.04 -29.08 -19.03 -51.11 -33.03 -13.05 -13.05 -19.03 -37.1 -31.12 -11.01 -33.03 -41.05 3.95 -19.03 -39.02
4.245 -32.08 -33.03 -13.05 -66.07 -35.07 -7.062 -11.01 -18.07 -35.07 -21.06 -3.112 -29.08 -43.09 1.915 -11.01 -44.04
4.25 -20.11 -29.08 -5.027 -70.02 -38.06 -3.112 -9.096 -13.05 -37.1 -13.05 0.9575 -28.01 -42.01 -5.027 -14 -48.11
4.255 -17.12 -27.05 0 -67.02 -37.1 -2.035 -5.027 -9.096 -43.09 -5.027 1.915 -33.03 -45 -21.06 -25.01 -55.06
4.26 -14 -17.12 6.942 -51.11 -28.01 1.915 0 -1.077 -44.04 0 2.992 -35.07 -44.04 -31.12 -37.1 -59.01
4.265 -17.12 -15.08 6.942 -40.1 -15.08 7.899 0 -1.077 -45 0 -1.077 -47.04 -45 -33.03 -49.07 -58.05
4.27 -21.06 -19.03 1.915 -35.07 -7.062 9.934 -3.112 0.9575 -43.09 -3.112 -1.077 -51.11 -51.11 -29.08 -55.06 -57.09
4.275 -11.01 -21.06 1.915 -38.06 1.915 10.89 -5.027 -2.035 -38.06 -5.027 -3.112 -50.03 -47.04 -27.05 -54.1 -49.07
4.28 -1.077 -23.1 0 -44.04 -3.112 6.942 -5.027 -7.062 -34.11 -10.05 -6.104 -44.04 -51.11 -22.02 -52.06 -43.09
4.285 0 -23.1 0.9575 -50.03 -10.05 1.915 -1.077 -9.096 -33.03 -9.096 1.915 -35.07 -48.11 -20.11 -51.11 -39.02
4.29 1.915 -25.01 -1.077 -48.11 -17.12 -1.077 3.95 -9.096 -36.03 -8.019 2.992 -26.09 -47.04 -16.04 -52.06 -33.03
4.295 -5.027 -23.1 1.915 -44.04 -21.06 -1.077 9.934 -8.019 -38.06 -5.027 9.934 -26.09 -39.02 -9.096 -50.03 -27.05
4.3 -19.03 -19.03 0 -43.09 -23.1 1.915 5.984 -9.096 -37.1 -5.027 7.899 -29.08 -31.12 -3.112 -49.07 -25.01
4.305 -21.06 -15.08 4.907 -38.06 -19.03 3.95 -1.077 -8.019 -29.08 -4.069 0.9575 -29.08 -19.03 -1.077 -39.02 -22.02
4.31 -12.09 -9.096 6.942 -37.1 -16.04 3.95 -4.069 -5.027 -26.09 -2.035 -2.035 -23.1 -12.09 -9.096 -21.06 -27.05
4.315 0 -3.112 11.97 -29.08 -15.08 0 -7.062 -1.077 -23.1 0.9575 -5.027 -13.05 -7.062 -19.03 -3.112 -35.07
4.32 18.91 2.992 15.92 -20.11 -12.09 -1.077 -1.077 3.95 -21.06 0.9575 -3.112 -1.077 -4.069 -25.01 8.977 -42.01
4.325 26.93 6.942 13.88 -10.05 -11.01 -7.062 3.95 4.907 -23.1 0.9575 3.95 9.934 -11.01 -27.05 15.92 -44.04
4.33 21.9 6.942 7.899 -5.027 -9.096 -7.062 9.934 0 -29.08 -5.027 9.934 11.97 -19.03 -25.01 13.88 -47.04
4.335 10.89 -1.077 1.915 -3.112 -5.027 -5.027 9.934 -1.077 -30.04 -13.05 13.88 6.942 -27.05 -23.1 6.942 -46.08
4.34 1.915 -1.077 -2.035 -2.035 -1.077 0.9575 5.984 -1.077 -28.01 -19.03 9.934 2.992 -31.12 -21.06 1.915 -40.1
4.345 1.915 0.9575 1.915 -7.062 -3.112 1.915 3.95 -5.027 -21.06 -17.12 5.984 0 -27.05 -19.03 -3.112 -33.03
4.35 7.899 14.96 5.984 0.9575 0 7.899 3.95 0.9575 -6.104 -9.096 0 7.899 -12.09 -11.01 0.9575 -22.02
4.355 13.88 34.95 7.899 2.992 0.9575 9.934 9.934 8.977 2.992 -2.035 -2.035 15.92 2.992 -1.077 0 -9.096
4.36 17.95 50.99 3.95 11.97 5.984 9.934 13.88 13.88 11.97 5.984 0.9575 15.92 15.92 3.95 0.9575 -2.035
4.365 19.99 54.94 -2.035 17.95 10.89 7.899 9.934 10.89 13.88 5.984 -1.077 6.942 18.91 9.934 -12.09 3.95
4.37 21.9 44.88 -3.112 19.99 10.89 7.899 3.95 2.992 7.899 3.95 -3.112 -8.019 8.977 7.899 -26.09 5.984
4.375 27.89 32.91 -1.077 11.97 7.899 11.97 0.9575 0.9575 0 3.95 -3.112 -25.01 0.9575 5.984 -39.02 3.95
4.38 33.99 22.98 -2.035 6.942 5.984 15.92 -1.077 -1.077 -1.077 7.899 0.9575 -30.04 -7.062 5.984 -38.06 3.95
4.385 35.91 24.89 3.95 4.907 7.899 19.99 -2.035 -2.035 -2.035 17.95 1.915 -20.11 -5.027 9.934 -26.09 3.95
4.39 33.99 32.91 7.899 9.934 13.88 19.99 5.984 5.984 11.97 25.97 5.984 -1.077 1.915 15.92 -9.096 7.899
4.395 23.94 38.9 7.899 18.91 23.94 13.88 13.88 15.92 27.89 27.89 7.899 15.92 17.95 13.88 3.95 9.934
4.4 11.97 40.93 11.97 27.89 33.99 7.899 19.99 23.94 39.98 23.94 9.934 33.99 33.99 5.984 13.88 9.934
4.405 5.984 38.9 19.99 33.99 41.89 3.95 23.94 27.89 47.99 17.95 13.88 41.89 41.89 -2.035 21.9 9.934
4.41 7.899 34.95 27.89 35.91 45.96 0 25.97 27.89 49.91 13.88 19.99 43.93 47.99 0.9575 27.89 15.92
4.415 17.95 36.98 33.99 33.99 45.96 0 29.92 29.92 49.91 17.95 25.97 41.89 51.94 5.984 39.98 29.92
4.42 29.92 44.88 35.91 31.96 39.98 -2.035 29.92 29.92 47.99 19.99 29.92 39.98 53.98 23.94 51.94 47.99
4.425 37.94 50.99 31.96 29.92 31.96 0.9575 27.89 31.96 43.93 19.99 29.92 39.98 51.94 39.98 63.91 65.95
4.43 37.94 54.94 25.97 29.92 19.99 -5.027 23.94 31.96 33.99 15.92 27.89 39.98 45.96 45.96 67.98 77.92
4.435 27.89 52.9 21.9 33.99 13.88 -9.096 21.9 29.92 23.94 9.934 27.89 37.94 35.91 45.96 65.95 83.9
4.44 15.92 46.92 21.9 39.98 13.88 -11.01 21.9 23.94 17.95 7.899 29.92 39.98 29.92 39.98 62 83.9
4.445 9.934 42.97 27.89 47.99 25.97 -11.01 27.89 21.9 19.99 7.899 33.99 39.98 29.92 31.96 58.89 77.92
4.45 9.934 46.92 31.96 51.94 37.94 -7.062 35.91 23.94 31.96 11.97 35.91 45.96 37.94 27.89 58.89 69.9
4.455 15.92 54.94 33.99 59.96 51.94 -3.112 41.89 31.96 45.96 15.92 35.91 55.89 51.94 25.97 62 59.96
4.46 21.9 60.92 31.96 65.95 57.93 -1.077 43.93 43.93 62 17.95 33.99 63.91 63.91 19.99 58.89 46.92
4.465 25.97 62.96 27.89 67.98 59.96 -5.027 41.89 51.94 69.9 23.94 31.96 67.98 69.9 17 52.9 32.91
4.47 23.94 56.97 23.94 69.9 55.89 -9.096 39.98 55.89 73.97 29.92 33.99 65.95 75.88 13.88 39.98 23.94
4.475 23.94 48.95 26.93 71.93 57.93 -11.01 37.94 51.94 73.97 39.98 35.91 63.91 75.88 17 35.91 20.95
4.48 29.92 42.97 32.91 71.93 62 -9.096 38.9 45.96 71.93 47.99 39.98 62 73.97 22.98 35.91 31
4.485 37.94 42.97 37.94 75.88 65.95 -3.112 41.89 41.89 75.88 49.91 41.89 67.98 75.88 29.92 49.91 43.93
4.49 45.96 46.92 38.9 79.95 65.95 0.9575 46.92 41.89 75.88 45.96 44.88 75.88 75.88 40.93 72.89 69.9
4.495 39.98 46.92 32.91 75.88 55.89 0 46.92 39.98 75.88 33.99 44.88 83.9 74.92 50.99 93.95 93.95
4.5 23.94 32.91 19.99 67.98 39.98 -9.096 39.98 33.99 65.95 21.9 39.98 85.94 71.93 53.98 102 111.9
4.505 1.915 14.96 9.934 53.98 19.99 -22.02 31 23.94 50.99 11.97 36.98 81.99 68.94 57.93 102.9 119
4.51 -17.12 0.9575 5.984 41.89 11.97 -30.04 19.99 19.99 34.95 1.915 29.92 71.93 68.94 56.97 96.95 111.9
4.515 -29.08 2.992 9.934 35.91 11.97 -27.05 13.88 23.94 23.94 0 23.94 69.9 63.91 49.91 93.95 93.95
4.52 -28.01 17 18.91 44.88 25.97 -19.03 21.9 32.91 24.89 2.992 26.93 74.92 62 49.91 91.92 79.95
4.525 -15.08 42.97 28.96 58.89 42.97 -8.019 32.91 45.96 34.95 11.97 34.95 82.94 57.93 48.95 93 67.98
4.53 0 58.89 32.91 70.97 56.97 -3.112 42.97 53.98 46.92 17.95 41.89 86.89 52.9 49.91 84.98 58.89
4.535 21.9 60.92 31 74.92 64.99 -4.069 46.92 51.94 56.97 29.92 44.88 84.98 45.96 48.95 74.92 53.98
4.54 38.9 46.92 26.93 66.91 62 -5.027 43.93 42.97 54.94 34.95 40.93 70.97 39.98 43.93 53.98 45.96
4.545 47.99 31 25.97 47.99 51.94 -3.112 31.96 29.92 43.93 37.94 29.92 53.98 31.96 31.96 35.91 29.92
4.55 47.99 18.91 27.89 31.96 43.93 -1.077 23.94 21.9 31 37.94 21.9 37.94 28.96 26.93 22.98 21.9
4.555 37.94 20.95 35.91 23.94 35.91 6.942 18.91 17.95 22.98 37.94 18.91 29.92 26.93 23.94 18.91 12.93
4.56 23.94 24.89 35.91 21.9 29.92 7.899 19.99 19.99 19.99 33.99 19.99 27.89 27.89 27.89 17.95 15.92
4.565 13.88 28.96 34.95 25.97 23.94 8.977 24.89 23.94 23.94 29.92 26.93 31.96 31 34.95 23.94 21.9
4.57 7.899 20.95 26.93 33.99 19.99 3.95 26.93 27.89 27.89 27.89 31 37.94 33.99 36.98 31 23.94
4.575 5.984 12.93 17.95 41.89 15.92 5.984 23.94 27.89 27.89 25.97 27.89 39.98 37.94 35.91 25.97 19.99
4.58 7.899 8.977 10.89 45.96 17.95 11.97 18.91 23.94 29.92 29.92 21.9 35.91 39.98 28.96 19.99 10.89
4.585 11.97 12.93 8.977 47.99 23.94 19.99 9.934 17.95 29.92 33.99 11.97 27.89 37.94 26.93 5.984 4.907
4.59 13.88 20.95 5.984 45.96 27.89 25.97 5.984 9.934 25.97 37.94 1.915 15.92 29.92 27.89 -7.062 -2.035
4.595 13.88 26.93 3.95 39.98 25.97 23.94 3.95 1.915 19.99 37.94 -2.035 3.95 19.99 31 -14 1.915
4.6 9.934 18.91 1.915 25.97 11.97 17.95 1.915 -1.077 11.97 29.92 -2.035 -1.077 9.934 29.92 -12.09 1.915
4.605 3.95 0.9575 0.9575 9.934 0.9575 7.899 0 -1.077 1.915 19.99 0 -5.027 0.9575 21.9 -3.112 -1.077
4.61 -3.112 -15.08 -7.062 -2.035 -15.08 1.915 -1.077 -3.112 -5.027 9.934 1.915 0.9575 -9.096 9.934 6.942 -5.027
4.615 -13.05 -27.05 -13.05 -1.077 -23.1 1.915 -5.027 -3.112 -15.08 3.95 -2.035 3.95 -15.08 0.9575 18.91 -11.01
4.62 -19.03 -25.01 -13.05 -1.077 -21.06 7.899 -11.01 -7.062 -19.03 1.915 -5.027 9.934 -15.08 -3.112 19.99 -15.08
4.625 -13.05 -17.12 -11.01 -1.077 -11.01 15.92 -17.12 -11.01 -19.03 3.95 -13.05 5.984 -15.08 0.9575 13.88 -17.12
4.63 -3.112 -5.027 -9.096 0 -3.112 19.99 -19.03 -15.08 -19.03 9.934 -21.06 -2.035 -15.08 7.899 3.95 -13.05
4.635 5.984 -1.077 -7.062 1.915 -2.035 19.99 -17.12 -13.05 -19.03 13.88 -19.03 -5.027 -15.08 19.99 -2.035 -9.096
4.64 13.88 -1.077 -3.112 7.899 0 17.95 -9.096 -7.062 -21.06 17.95 -11.01 -9.096 -15.08 27.89 -2.035 -1.077
4.645 17.95 2.992 0 13.88 1.915 13.88 -2.035 -2.035 -19.03 19.99 0.9575 -7.062 -11.01 31.96 0 0
4.65 17.95 14.96 11.97 21.9 5.984 11.97 7.899 3.95 -13.05 19.99 5.984 -3.112 -7.062 27.89 -2.035 3.95
4.655 17.95 26.93 21.9 21.9 9.934 11.97 9.934 3.95 -3.112 13.88 9.934 -9.096 -5.027 21.9 -7.062 0
4.66 13.88 31 23.94 13.88 5.984 9.934 3.95 -2.035 -2.035 5.984 5.984 -23.1 -7.062 9.934 -27.05 -3.112
4.665 3.95 22.98 13.88 -1.077 0.9575 3.95 -3.112 -7.062 -2.035 -2.035 0.9575 -43.09 -15.08 -2.035 -51.11 -15.08
4.67 -3.112 6.942 0.9575 -13.05 -13.05 0.9575 -15.08 -17.12 -5.027 -1.077 -9.096 -59.01 -23.1 -7.062 -69.06 -23.1
4.675 -11.01 -1.077 -13.05 -20.11 -23.1 -3.112 -21.06 -21.06 -19.03 -3.112 -13.05 -67.02 -31.12 -11.01 -73.01 -29.08
4.68 -7.062 0.9575 -15.08 -20.11 -23.1 -3.112 -17.12 -21.06 -29.08 -1.077 -13.05 -63.08 -35.07 -9.096 -67.02 -29.08
4.685 5.984 8.977 -3.112 -15.08 -17.12 -2.035 -7.062 -19.03 -33.03 0.9575 -9.096 -53.02 -35.07 -2.035 -53.02 -27.05
4.69 25.97 26.93 7.899 -3.112 -8.019 5.984 -2.035 -12.09 -29.08 -2.035 -3.112 -40.1 -31.12 9.934 -37.1 -23.1
4.695 35.91 36.98 15.92 -2.035 0 9.934 5.984 -6.104 -23.1 -2.035 -2.035 -30.04 -25.01 19.99 -26.09 -17.12
4.7 25.97 32.91 13.88 3.95 0.9575 5.984 9.934 -1.077 -17.12 0.9575 1.915 -25.01 -19.03 23.94 -15.08 -9.096
4.705 3.95 22.98 5.984 8.977 1.915 -2.035 7.899 0.9575 -13.05 -3.112 1.915 -12.09 -9.096 19.99 -8.019 -1.077
4.71 -15.08 8.977 0 7.899 0 -3.112 2.992 4.907 -11.01 -9.096 0 -8.019 1.915 13.88 -2.035 1.915
4.715 -23.1 -1.077 -2.035 1.915 -5.027 -9.096 -1.077 0 -9.096 -15.08 0.9575 -7.062 0 7.899 -1.077 5.984
4.72 -11.01 -1.077 0 0 -9.096 -11.01 -8.019 0 -9.096 -21.06 -5.027 -9.096 -1.077 7.899 -2.035 1.915
4.725 3.95 -1.077 0 -9.096 -19.03 -13.05 -14 -5.027 -13.05 -27.05 -9.096 -15.08 -6.104 5.984 -9.096 -3.112
4.73 19.99 -1.077 0 -13.05 -23.1 -11.01 -13.05 -11.01 -17.12 -27.05 -7.062 -23.1 -19.03 -2.035 -17.12 -15.08
4.735 23.94 2.992 1.915 -6.104 -20.11 -5.027 -2.035 -7.062 -21.06 -24.06 -2.035 -18.07 -30.04 -5.027 -13.05 -23.1
4.74 20.95 14.96 7.899 2.992 -11.01 1.915 8.977 0.9575 -21.06 -16.04 11.97 -10.05 -34.11 -15.08 -4.069 -27.05
4.745 15.92 28.96 17.95 19.99 0 15.92 21.9 15.92 -15.08 -7.062 21.9 -2.035 -29.08 -23.1 -2.035 -25.01
4.75 22.98 44.88 25.97 39.98 20.95 23.94 27.89 25.97 -1.077 1.915 25.97 10.89 -19.03 -23.1 3.95 -21.06
4.755 32.91 54.94 29.92 43.93 34.95 23.94 26.93 31 5.984 4.907 19.99 15.92 -6.104 -15.08 1.915 -17.12
4.76 37.94 50.99 25.97 45.96 37.94 15.92 17.95 21.9 13.88 9.934 7.899 11.97 -2.035 -3.112 -13.05 -11.01
4.765 35.91 46.92 14.96 37.94 33.99 6.942 9.934 12.93 11.97 12.93 -1.077 2.992 5.984 4.907 -27.05 -7.062
4.77 21.9 40.93 4.907 31 24.89 0 0.9575 -1.077 7.899 11.97 -8.019 -3.112 9.934 15.92 -32.08 -3.112
4.775 6.942 36.98 -1.077 19.99 18.91 0.9575 1.915 0.9575 1.915 10.89 -12.09 -7.062 9.934 17.95 -26.09 -2.035
4.78 0 34.95 -1.077 8.977 17 1.915 1.915 0 0 3.95 -8.019 -7.062 13.88 21.9 -14 7.899
4.785 7.899 34.95 -1.077 0.9575 17.95 1.915 0.9575 -1.077 1.915 0.9575 -3.112 0 19.99 18.91 0.9575 19.99
4.79 19.99 28.96 0.9575 -3.112 21.9 -2.035 0.9575 3.95 7.899 -2.035 0.9575 3.95 21.9 11.97 7.899 25.97
4.795 31 24.89 -5.027 -9.096 18.91 0 1.915 4.907 13.88 1.915 -2.035 13.88 24.89 11.97 17 29.92
4.8 26.93 12.93 -7.062 -13.05 12.93 1.915 0.9575 1.915 15.92 1.915 0.9575 18.91 23.94 11.97 19.99 27.89
4.805 9.934 2.992 -9.096 -19.03 0 3.95 0.9575 -1.077 13.88 -1.077 -1.077 15.92 13.88 11.97 15.92 19.99
4.81 -2.035 2.992 -7.062 -24.06 -1.077 5.984 -2.035 -8.019 5.984 -2.035 -3.112 10.89 4.907 9.934 12.93 11.97
4.815 -13.05 -1.077 -7.062 -28.01 -4.069 7.899 -4.069 -13.05 -2.035 -2.035 -7.062 4.907 0 7.899 11.97 3.95
4.82 -9.096 -1.077 -7.062 -27.05 0.9575 9.934 -5.027 -15.08 -3.112 -2.035 -1.077 1.915 -5.027 3.95 15.92 0
4.825 -2.035 8.977 -7.062 -15.08 7.899 13.88 0 -7.062 0.9575 9.934 -2.035 7.899 1.915 5.984 27.89 -2.035
4.83 13.88 20.95 -1.077 -1.077 25.97 17.95 4.907 1.915 5.984 23.94 9.934 19.99 8.977 11.97 38.9 0
4.835 19.99 28.96 1.915 13.88 35.91 21.9 15.92 7.899 23.94 35.91 17.95 27.89 21.9 17.95 41.89 1.915
4.84 23.94 32.91 11.97 23.94 42.97 23.94 24.89 18.91 37.94 39.98 23.94 32.91 28.96 23.94 36.98 0
4.845 21.9 28.96 13.88 20.95 38.9 19.99 21.9 18.91 39.98 33.99 21.9 31 25.97 21.9 18.91 0.9575
4.85 19.99 17 7.899 7.899 23.94 11.97 13.88 11.97 29.92 17.95 11.97 17.95 13.88 13.88 -1.077 -7.062
4.855 19.99 0.9575 -1.077 -5.027 8.977 3.95 0 -1.077 11.97 -2.035 0 -1.077 -2.035 0 -20.11 -17.12
4.86 17.95 -9.096 -15.08 -17.12 -4.069 0 -9.096 -8.019 -1.077 -15.08 -9.096 -12.09 -11.01 -7.062 -29.08 -23.1
4.865 13.88 -21.06 -21.06 -27.05 -21.06 1.915 -19.03 -15.08 -13.05 -23.1 -19.03 -23.1 -19.03 -13.05 -27.05 -25.01
4.87 7.899 -27.05 -17.12 -22.02 -29.08 7.899 -19.03 -15.08 -17.12 -23.1 -23.1 -23.1 -17.12 -11.01 -17.12 -19.03
4.875 -2.035 -33.03 -5.027 -14 -29.08 15.92 -13.05 -9.096 -17.12 -13.05 -17.12 -15.08 -11.01 -3.112 -5.027 -11.01
4.88 -3.112 -37.1 0 -7.062 -21.06 19.99 -3.112 -1.077 -13.05 -1.077 -5.027 -5.027 -3.112 0 0 0.9575
4.885 -7.062 -41.05 0 -4.069 -11.01 19.99 0 0.9575 -13.05 0 1.915 -1.077 -2.035 5.984 1.915 5.984
4.89 -13.05 -47.04 -3.112 -9.096 -7.062 11.97 -2.035 -1.077 -13.05 -2.035 5.984 -5.027 -2.035 7.899 0.9575 9.934
4.895 -25.01 -53.02 -17.12 -21.06 -11.01 1.915 -9.096 -9.096 -17.12 -5.027 -2.035 -17.12 -3.112 5.984 -9.096 7.899
4.9 -39.02 -59.01 -33.03 -37.1 -19.03 -1.077 -25.01 -19.03 -19.03 -13.05 -11.01 -29.08 -11.01 1.915 -17.12 0
4.905 -53.02 -65.11 -43.09 -51.11 -29.08 -5.027 -37.1 -27.05 -21.06 -19.03 -25.01 -37.1 -17.12 0 -17.12 -3.112
4.91 -57.09 -71.09 -45 -55.06 -37.1 -7.062 -41.05 -31.12 -21.06 -25.01 -33.03 -33.03 -19.03 0.9575 -11.01 -11.01
4.915 -51.11 -75.04 -41.05 -51.11 -37.1 -9.096 -35.07 -29.08 -19.03 -27.05 -31.12 -23.1 -19.03 -1.077 0.9575 -13.05
4.92 -41.05 -73.01 -29.08 -39.02 -35.07 -13.05 -23.1 -23.1 -17.12 -31.12 -21.06 -9.096 -19.03 -3.112 5.984 -15.08
4.925 -35.07 -65.11 -17.12 -29.08 -29.08 -17.12 -13.05 -15.08 -17.12 -33.03 -9.096 0.9575 -21.06 -9.096 7.899 -15.08
4.93 -35.07 -51.11 -9.096 -21.06 -27.05 -19.03 -7.062 -9.096 -17.12 -31.12 -3.112 1.915 -25.01 -15.08 1.915 -17.12
4.935 -39.02 -37.1 -5.027 -19.03 -29.08 -17.12 -7.062 -5.027 -21.06 -23.1 -5.027 -2.035 -31.12 -21.06 -3.112 -21.06
4.94 -43.09 -33.03 -7.062 -25.01 -29.08 -11.01 -13.05 -5.027 -23.1 -13.05 -13.05 -3.112 -31.12 -27.05 -13.05 -27.05
4.945 -39.02 -37.1 -15.08 -35.07 -29.08 -3.112 -23.1 -11.01 -23.1 -3.112 -23.1 -15.08 -25.01 -27.05 -21.06 -31.12
4.95 -33.03 -47.04 -24.06 -36.03 -23.1 0 -33.03 -19.03 -13.05 0 -35.07 -25.01 -17.12 -25.01 -27.05 -37.1
4.955 -25.01 -57.09 -30.04 -32.08 -13.05 7.899 -41.05 -27.05 0.9575 5.984 -41.05 -31.12 -11.01 -17.12 -37.1 -38.06
4.96 -23.1 -55.06 -33.03 -25.01 -1.077 15.92 -43.09 -31.12 9.934 9.934 -43.09 -35.07 -5.027 -5.027 -43.09 -37.1
4.965 -17.12 -41.05 -32.08 -14 6.942 21.9 -37.1 -31.12 25.97 15.92 -40.1 -32.08 0.9575 1.915 -48.11 -32.08
4.97 -8.019 -15.08 -30.04 -2.035 18.91 25.97 -26.09 -22.02 33.99 21.9 -34.11 -26.09 1.915 12.93 -42.01 -26.09
4.975 1.915 0.9575 -31.12 0.9575 21.9 19.99 -21.06 -19.03 33.99 23.94 -29.08 -23.1 7.899 11.97 -33.03 -21.06
4.98 17 4.907 -27.05 0 20.95 7.899 -18.07 -16.04 27.89 17.95 -24.06 -20.11 6.942 4.907 -18.07 -16.04
4.985 22.98 0.9575 -27.05 -3.112 12.93 -3.112 -20.11 -18.07 17.95 3.95 -22.02 -24.06 -1.077 -4.069 -8.019 -16.04
4.99 9.934 -5.027 -17.12 -11.01 0 -15.08 -23.1 -21.06 3.95 -15.08 -21.06 -27.05 -15.08 -25.01 -3.112 -17.12
4.995 1.915 -9.096 -4.069 -16.04 -9.096 -17.12 -20.11 -20.11 -5.027 -32.08 -13.05 -27.05 -34.11 -40.1 -1.077 -17.12
5 -9.096 -7.062 0 -21.06 -21.06 -13.05 -9.096 -13.05 -20.11 -44.04 -9.096 -29.08 -54.1 -41.05 -5.027 -10.05
5.005 -17.12 -5.027 -2.035 -19.03 -27.05 -7.062 -1.077 -11.01 -33.03 -45 -1.077 -29.08 -65.11 -37.1 -5.027 -7.062
5.01 -15.08 2.992 -6.104 -15.08 -26.09 0 0 -8.019 -40.1 -34.11 0 -28.01 -64.03 -25.01 -4.069 -5.027
5.015 -14 0.9575 -21.06 -10.05 -23.1 -1.077 -4.069 -12.09 -43.09 -24.06 -5.027 -31.12 -55.06 -15.08 -9.096 -11.01
5.02 -16.04 -3.112 -31.12 -11.01 -14 1.915 -16.04 -19.03 -38.06 -16.04 -15.08 -33.03 -42.01 -8.019 -19.03 -19.03
5.025 -18.07 -9.096 -33.03 -14 -9.096 2.992 -26.09 -22.02 -29.08 -10.05 -21.06 -33.03 -27.05 -7.062 -33.03 -25.01
5.03 -17.12 -13.05 -24.06 -17.12 -4.069 2.992 -25.01 -22.02 -16.04 -8.019 -28.01 -26.09 -12.09 -7.062 -44.04 -21.06
5.035 -15.08 -17.12 -15.08 -23.1 -7.062 -2.035 -23.1 -19.03 -7.062 -9.096 -23.1 -19.03 -1.077 -9.096 -43.09 -15.08
5.04 -13.05 -21.06 -9.096 -29.08 -17.12 -7.062 -15.08 -13.05 -4.069 -8.019 -15.08 -15.08 2.992 -1.077 -33.03 0
5.045 -22.02 -29.08 -6.104 -36.03 -33.03 -19.03 -14 -14 -13.05 -12.09 -7.062 -9.096 2.992 0.9575 -19.03 3.95
5.05 -39.02 -39.02 -11.01 -43.09 -55.06 -31.12 -13.05 -17.12 -27.05 -23.1 -5.027 -17.12 0.9575 1.915 -9.096 5.984
5.055 -56.01 -41.05 -15.08 -49.07 -72.05 -39.02 -18.07 -20.11 -43.09 -35.07 -6.104 -24.06 -12.09 1.915 -4.069 0.9575
5.06 -60.08 -37.1 -13.05 -47.04 -82.11 -41.05 -20.11 -20.11 -59.01 -47.04 -6.104 -32.08 -28.01 -12.09 -4.069 -8.019
5.065 -49.07 -29.08 -11.01 -39.02 -81.03 -41.05 -17.12 -19.03 -69.06 -51.11 -3.112 -35.07 -41.05 -27.05 -5.027 -19.03
5.07 -32.08 -11.01 -4.069 -18.07 -66.07 -35.07 -8.019 -8.019 -71.09 -45 -1.077 -28.01 -47.04 -32.08 0 -20.11
5.075 -19.03 -3.112 -1.077 -1.077 -44.04 -23.1 -2.035 -2.035 -61.04 -35.07 6.942 -16.04 -41.05 -27.05 4.907 -14
5.08 -13.05 0.9575 1.915 17.95 -25.01 -9.096 7.899 7.899 -41.05 -21.06 15.92 -1.077 -23.1 -11.01 9.934 -3.112
5.085 -13.05 -1.077 6.942 32.91 -9.096 -2.035 13.88 13.88 -19.03 -9.096 17.95 5.984 -5.027 -2.035 15.92 0.9575
5.09 -15.08 0.9575 6.942 34.95 0.9575 7.899 11.97 11.97 -3.112 -3.112 9.934 9.934 3.95 1.915 7.899 0.9575
5.095 -13.05 0.9575 0 27.89 1.915 7.899 1.915 1.915 1.915 -5.027 -2.035 5.984 5.984 0.9575 0.9575 -15.08
5.1 -9.096 -1.077 -3.112 17.95 3.95 1.915 -5.027 -3.112 1.915 -9.096 -7.062 -2.035 0 -13.05 -13.05 -33.03
5.105 -7.062 -1.077 -9.096 9.934 3.95 -3.112 -11.01 -9.096 0 -13.05 -11.01 -7.062 -5.027 -25.01 -25.01 -41.05
5.11 -5.027 -1.077 -13.05 5.984 1.915 -11.01 -7.062 -9.096 0.9575 -15.08 -9.096 -7.062 -9.096 -25.01 -29.08 -33.03
5.115 -5.027 0.9575 -13.05 7.899 -3.112 -15.08 -1.077 -3.112 -1.077 -13.05 -1.077 -3.112 -5.027 -15.08 -21.06 -13.05
5.12 -5.027 -7.062 -15.08 3.95 -19.03 -17.12 -2.035 0 -3.112 -13.05 -2.035 0.9575 0 -1.077 -9.096 5.984
5.125 -11.01 -19.03 -21.06 -5.027 -39.02 -15.08 -3.112 0 -7.062 -15.08 -1.077 0.9575 3.95 3.95 -1.077 19.99
5.13 -21.06 -35.07 -25.01 -27.05 -59.01 -13.05 -17.12 -9.096 -21.06 -25.01 -13.05 -7.062 -2.035 0 0.9575 15.92
5.135 -33.03 -49.07 -29.08 -49.07 -67.02 -15.08 -35.07 -29.08 -39.02 -37.1 -29.08 -23.1 -17.12 -11.01 -1.077 0.9575
5.14 -43.09 -57.09 -29.08 -61.04 -65.11 -17.12 -47.04 -49.07 -59.01 -49.07 -41.05 -33.03 -43.09 -31.12 -5.027 -21.06
5.145 -43.09 -57.09 -23.1 -55.06 -55.06 -17.12 -47.04 -55.06 -71.09 -51.11 -45 -37.1 -63.08 -49.07 -7.062 -41.05
5.15 -31.12 -45 -19.03 -35.07 -39.02 -15.08 -37.1 -49.07 -73.01 -47.04 -41.05 -29.08 -69.06 -57.09 -5.027 -49.07
5.155 -9.096 -27.05 -15.08 -11.01 -25.01 -7.062 -25.01 -33.03 -63.08 -39.02 -33.03 -21.06 -61.04 -55.06 -7.062 -51.11
5.16 5.984 -5.027 -11.01 0 -15.08 0.9575 -15.08 -17.12 -47.04 -27.05 -25.01 -15.08 -47.04 -51.11 -15.08 -53.02
5.165 19.99 12.93 -7.062 8.977 -5.027 3.95 -9.096 -5.027 -29.08 -17.12 -19.03 -17.12 -31.12 -47.04 -29.08 -55.06
5.17 23.94 28.96 -1.077 12.93 0 9.934 -5.027 0.9575 -13.05 -7.062 -15.08 -22.02 -17.12 -41.05 -43.09 -55.06
5.175 23.94 38.9 3.95 17.95 11.97 11.97 0.9575 -2.035 0.9575 -2.035 -9.096 -27.05 -5.027 -33.03 -49.07 -45
5.18 21.9 36.98 9.934 22.98 19.99 9.934 -2.035 3.95 7.899 5.984 -3.112 -26.09 3.95 -23.1 -44.04 -25.01
5.185 19.99 26.93 9.934 21.9 21.9 7.899 0 7.899 15.92 7.899 0.9575 -24.06 15.92 -13.05 -30.04 -3.112
5.19 15.92 8.977 1.915 7.899 13.88 1.915 -1.077 3.95 17.95 1.915 0 -23.1 19.99 -9.096 -15.08 7.899
5.195 10.89 -1.077 -3.112 -3.112 1.915 -1.077 -7.062 0.9575 12.93 -7.062 0 -24.06 11.97 -13.05 0 11.97
5.2 2.992 -11.01 -9.096 -20.11 -5.027 -9.096 -13.05 -8.019 2.992 -25.01 -2.035 -29.08 -3.112 -21.06 2.992 3.95
5.205 -3.112 -13.05 -9.096 -27.05 -13.05 -13.05 -13.05 -19.03 -9.096 -39.02 -1.077 -35.07 -29.08 -27.05 1.915 -1.077
5.21 -8.019 -7.062 -6.104 -25.01 -17.12 -14 -13.05 -26.09 -20.11 -47.04 -7.062 -35.07 -49.07 -25.01 0 -9.096
5.215 -12.09 -3.112 -2.035 -26.09 -21.06 -12.09 -13.05 -28.01 -34.11 -47.04 -10.05 -32.08 -59.01 -18.07 -1.077 -9.096
5.22 -17.12 -7.062 -7.062 -27.05 -29.08 -13.05 -17.12 -27.05 -45 -45 -17.12 -29.08 -55.06 -11.01 -7.062 -9.096
5.225 -19.03 -9.096 -12.09 -30.04 -39.02 -14 -19.03 -21.06 -51.11 -41.05 -18.07 -19.03 -45 -10.05 -12.09 -11.01
5.23 -21.06 -7.062 -14 -25.01 -43.09 -16.04 -15.08 -17.12 -53.02 -36.03 -18.07 -9.096 -27.05 -12.09 -13.05 -15.08
5.235 -11.01 0.9575 -9.096 -15.08 -35.07 -15.08 -3.112 -7.062 -47.04 -25.01 -13.05 3.95 -9.096 -17.12 -9.096 -21.06
5.24 2.992 18.91 3.95 7.899 -13.05 -3.112 11.97 2.992 -24.06 -4.069 1.915 19.99 3.95 -16.04 -5.027 -23.1
5.245 23.94 44.88 21.9 32.91 13.88 7.899 27.89 19.99 1.915 14.96 15.92 29.92 19.99 -7.062 0.9575 -15.08
5.25 43.93 66.91 39.98 49.91 47.99 23.94 41.89 33.99 37.94 33.99 27.89 31.96 33.99 0 0.9575 -7.062
5.255 50.99 74.92 45.96 55.89 71.93 31.96 44.88 40.93 65.95 43.93 39.98 18.91 39.98 11.97 -3.112 -1.077
5.26 45.96 70.97 40.93 51.94 80.91 28.96 39.98 40.93 78.99 42.97 34.95 3.95 39.98 13.88 -8.019 1.915
5.265 33.99 58.89 25.97 40.93 74.92 17.95 27.89 31 74.92 31.96 24.89 -7.062 29.92 6.942 -7.062 1.915
5.27 19.99 40.93 12.93 33.99 62.96 6.942 17.95 20.95 62.96 17 10.89 -19.03 17.95 0 -4.069 3.95
5.275 12.93 22.98 3.95 27.89 43.93 0 6.942 8.977 43.93 5.984 3.95 -20.11 1.915 1.915 1.915 6.942
5.28 11.97 8.977 1.915 15.92 23.94 0.9575 0 -2.035 25.97 0 1.915 -21.06 -5.027 -2.035 15.92 9.934
5.285 9.934 -1.077 3.95 2.992 0 -5.027 0.9575 -5.027 7.899 1.915 5.984 -17.12 -15.08 1.915 27.89 11.97
5.29 4.907 -13.05 1.915 -7.062 -15.08 -9.096 0.9575 -8.019 -8.019 0 8.977 -11.01 -21.06 0.9575 29.92 7.899
5.295 -1.077 -23.1 0.9575 -19.03 -31.12 -15.08 0.9575 -7.062 -25.01 -5.027 5.984 -3.112 -21.06 -2.035 27.89 1.915
5.3 -5.027 -21.06 1.915 -17.12 -33.03 -16.04 1.915 -3.112 -35.07 0 4.907 5.984 -17.12 0 27.89 -2.035
5.305 0.9575 -9.096 2.992 -6.104 -17.12 -6.104 7.899 3.95 -25.01 1.915 2.992 27.89 -5.027 1.915 40.93 5.984
5.31 7.899 8.977 15.92 9.934 7.899 1.915 17.95 11.97 -1.077 17.95 5.984 49.91 9.934 3.95 57.93 19.99
5.315 31 36.98 34.95 38.9 41.89 14.96 27.89 26.93 32.91 37.94 17 72.89 35.91 17 77.92 39.98
5.32 46.92 56.97 40.93 55.89 67.98 22.98 33.99 38.9 64.99 47.99 25.97 87.97 59.96 25.97 85.94 53.98
5.325 53.98 64.99 33.99 57.93 71.93 21.9 33.99 43.93 81.99 53.98 27.89 89.89 75.88 29.92 75.88 57.93
5.33 52.9 56.97 19.99 54.94 63.91 17.95 27.89 42.97 78.99 49.91 23.94 77.92 79.95 27.89 50.99 47.99
5.335 46.92 42.97 7.899 49.91 45.96 15.92 21.9 38.9 60.92 45.96 15.92 52.9 73.97 21.9 14.96 31.96
5.34 43.93 32.91 5.984 43.93 31.96 13.88 15.92 27.89 37.94 41.89 9.934 21.9 57.93 13.88 -7.062 13.88
5.345 43.93 31 11.97 45.96 27.89 15.92 15.92 22.98 19.99 39.98 7.899 0.9575 35.91 7.899 -18.07 1.915
5.35 45.96 36.98 19.99 42.97 29.92 17.95 15.92 13.88 11.97 37.94 7.899 -8.019 11.97 5.984 -14 -1.077
5.355 45.96 42.97 19.99 31.96 33.99 17.95 13.88 5.984 5.984 31.96 5.984 -13.05 -5.027 3.95 -5.027 -5.027
5.36 37.94 40.93 9.934 12.93 25.97 13.88 7.899 -2.035 -2.035 21.9 3.95 -12.09 -25.01 1.915 1.915 -11.01
5.365 27.89 26.93 0.9575 -10.05 11.97 5.984 -2.035 -7.062 -7.062 9.934 -2.035 -13.05 -39.02 0 7.899 -15.08
5.37 15.92 10.89 -11.01 -31.12 -1.077 0.9575 -9.096 -15.08 -17.12 0 -3.112 -15.08 -47.04 -2.035 9.934 -19.03
5.375 3.95 0.9575 -17.12 -43.09 -13.05 -7.062 -19.03 -19.03 -23.1 0.9575 -11.01 -17.12 -43.09 0.9575 7.899 -17.12
5.38 -2.035 8.977 -17.12 -41.05 -13.05 -11.01 -23.1 -21.06 -21.06 -2.035 -17.12 -15.08 -31.12 0.9575 5.984 -11.01
5.385 0 26.93 -11.01 -27.05 -1.077 -5.027 -19.03 -17.12 -9.096 5.984 -21.06 -7.062 -9.096 0.9575 5.984 -3.112
5.39 5.984 42.97 -7.062 -5.027 17.95 0 -11.01 -9.096 3.95 17.95 -19.03 -2.035 7.899 0 7.899 3.95
5.395 15.92 50.99 -3.112 9.934 43.93 11.97 -1.077 -1.077 25.97 31.96 -13.05 7.899 29.92 5.984 9.934 15.92
5.4 27.89 44.88 0.9575 25.97 62 15.92 1.915 3.95 45.96 41.89 -5.027 11.97 43.93 15.92 11.97 27.89
5.405 35.91 31 0 35.91 69.9 7.899 9.934 9.934 62 43.93 -2.035 15.92 51.94 25.97 11.97 37.94
5.41 37.94 18.91 5.984 33.99 62 0.9575 15.92 13.88 71.93 35.91 3.95 17.95 51.94 31.96 11.97 45.96
5.415 29.92 17 13.88 28.96 43.93 -15.08 15.92 13.88 67.98 15.92 5.984 21.9 43.93 29.92 9.934 45.96
5.42 17.95 18.91 15.92 13.88 15.92 -25.01 13.88 13.88 47.99 -3.112 5.984 23.94 27.89 15.92 5.984 37.94
5.425 2.992 17 9.934 -1.077 -3.112 -25.01 5.984 10.89 15.92 -25.01 5.984 24.89 3.95 0.9575 0.9575 17.95
5.43 -6.104 4.907 -2.035 -12.09 -19.03 -17.12 0.9575 4.907 -11.01 -39.02 1.915 17 -15.08 -19.03 -4.069 -1.077
5.435 -19.03 -19.03 -13.05 -25.01 -25.01 -7.062 -13.05 -2.035 -35.07 -37.1 -1.077 3.95 -33.03 -29.08 -15.08 -21.06
5.44 -30.04 -51.11 -23.1 -32.08 -22.02 -2.035 -23.1 -8.019 -38.06 -27.05 -11.01 -8.019 -43.09 -27.05 -22.02 -37.1
5.445 -44.04 -81.03 -27.05 -35.07 -12.09 3.95 -29.08 -16.04 -28.01 -11.01 -18.07 -20.11 -40.1 -17.12 -28.01 -45
5.45 -63.08 -101 -21.06 -35.07 -7.062 3.95 -27.05 -19.03 -11.01 -1.077 -23.1 -27.05 -35.07 -9.096 -31.12 -49.07
5.455 -79.11 -105.1 -15.08 -29.08 -8.019 1.915 -21.06 -20.11 0 0.9575 -22.02 -33.03 -32.08 -7.062 -28.01 -51.11
5.46 -95.03 -105.1 -13.05 -26.09 -16.04 0.9575 -18.07 -19.03 -4.069 -6.104 -24.06 -37.1 -40.1 -15.08 -23.1 -53.02
5.465 -109 -109 -17.12 -29.08 -29.08 -7.062 -23.1 -23.1 -23.1 -19.03 -31.12 -41.05 -53.02 -23.1 -25.01 -51.11
5.47 -113.1 -113.1 -26.09 -31.12 -41.05 -15.08 -32.08 -27.05 -37.1 -28.01 -36.03 -44.04 -56.01 -25.01 -23.1 -39.02
5.475 -110.1 -119.1 -30.04 -36.03 -49.07 -19.03 -36.03 -30.04 -49.07 -30.04 -36.03 -43.09 -52.06 -17.12 -18.07 -21.06
5.48 -101 -123 -29.08 -47.04 -51.11 -19.03 -39.02 -29.08 -45 -23.1 -33.03 -39.02 -37.1 -1.077 -11.01 -2.035
5.485 -88.09 -115 -22.02 -50.03 -52.06 -15.08 -32.08 -25.01 -32.08 -16.04 -21.06 -29.08 -17.12 9.934 -3.112 18.91
5.49 -77.08 -105.1 -14 -54.1 -47.04 -9.096 -21.06 -19.03 -25.01 -11.01 -8.019 -17.12 -2.035 15.92 -1.077 26.93
5.495 -71.09 -89.05 -15.08 -51.11 -39.02 -5.027 -17.12 -17.12 -23.1 -15.08 -5.027 -15.08 -2.035 9.934 -13.05 19.99
5.5 -67.02 -73.01 -19.03 -39.02 -27.05 -1.077 -15.08 -17.12 -26.09 -18.07 -7.062 -15.08 1.915 0 -25.01 9.934
5.505 -61.04 -61.04 -20.11 -20.11 -11.01 -1.077 -16.04 -20.11 -27.05 -16.04 -15.08 -18.07 0 -5.027 -40.1 0
5.51 -46.08 -49.07 -13.05 -1.077 3.95 2.992 -16.04 -17.12 -17.12 -7.062 -21.06 -19.03 0.9575 -11.01 -47.04 -2.035
5.515 -29.08 -35.07 -4.069 18.91 15.92 8.977 -10.05 -10.05 -7.062 0.9575 -19.03 -22.02 -1.077 -9.096 -46.08 -1.077
5.52 -9.096 -23.1 5.984 27.89 25.97 15.92 -1.077 -1.077 4.907 10.89 -9.096 -21.06 0 -9.096 -41.05 -3.112
5.525 0.9575 -17.12 17.95 31.96 29.92 19.99 1.915 0 13.88 9.934 -2.035 -19.03 -1.077 -15.08 -33.03 -13.05
5.53 0 -17.12 22.98 32.91 35.91 21.9 13.88 7.899 17.95 3.95 10.89 -9.096 -8.019 -23.1 -21.06 -26.09
5.535 0 -23.1 22.98 31 34.95 19.99 17 9.934 17 -4.069 17.95 -5.027 -19.03 -35.07 -11.01 -40.1
5.54 -9.096 -39.02 15.92 23.94 21.9 15.92 17.95 11.97 7.899 -11.01 17.95 0 -27.05 -45 -2.035 -53.02
5.545 -16.04 -53.02 8.977 12.93 1.915 7.899 14.96 8.977 -1.077 -10.05 12.93 3.95 -28.01 -45 10.89 -53.02
5.55 -23.1 -57.09 0.9575 0.9575 -21.06 1.915 2.992 0 -17.12 -8.019 2.992 4.907 -26.09 -37.1 19.99 -41.05
5.555 -29.08 -57.09 -5.027 -25.01 -49.07 -1.077 -7.062 -7.062 -35.07 -9.096 -5.027 0 -21.06 -23.1 25.97 -23.1
5.56 -29.08 -49.07 -13.05 -44.04 -62.12 -7.062 -18.07 -13.05 -46.08 -8.019 -8.019 -1.077 -10.05 -7.062 25.97 -1.077
5.565 -35.07 -43.09 -15.08 -51.11 -60.08 -9.096 -23.1 -20.11 -48.11 -13.05 -10.05 -5.027 -2.035 -2.035 18.91 13.88
5.57 -39.02 -37.1 -9.096 -43.09 -43.09 -7.062 -21.06 -17.12 -41.05 -13.05 -5.027 -9.096 0.9575 1.915 5.984 25.97
5.575 -32.08 -25.01 -1.077 -21.06 -16.04 0.9575 -15.08 -8.019 -24.06 -9.096 -4.069 -12.09 -1.077 -2.035 -6.104 25.97
5.58 -18.07 -13.05 1.915 1.915 -1.077 5.984 -5.027 -2.035 -8.019 -3.112 -1.077 -18.07 0.9575 -5.027 -28.01 15.92
5.585 0 0.9575 7.899 19.99 11.97 15.92 -2.035 0 0 0 -1.077 -23.1 -3.112 -11.01 -49.07 -2.035
5.59 24.89 12.93 11.97 38.9 17.95 21.9 3.95 8.977 9.934 3.95 0.9575 -18.07 -1.077 -17.12 -54.1 -11.01
5.595 40.93 22.98 11.97 54.94 23.94 23.94 13.88 20.95 17.95 5.984 1.915 -4.069 0 -23.1 -46.08 -17.12
5.6 43.93 26.93 13.88 65.95 31.96 23.94 23.94 31.96 25.97 5.984 11.97 9.934 9.934 -27.05 -23.1 -11.01
5.605 33.99 22.98 15.92 70.97 39.98 21.9 31.96 43.93 35.91 7.899 17.95 33.99 23.94 -29.08 1.915 0.9575
5.61 17.95 18.91 17.95 69.9 45.96 23.94 35.91 47.99 45.96 15.92 21.9 51.94 35.91 -25.01 27.89 13.88
5.615 7.899 17 15.92 57.93 45.96 25.97 29.92 41.89 53.98 27.89 19.99 59.96 45.96 -15.08 43.93 27.89
5.62 9.934 14.96 9.934 39.98 39.98 25.97 19.99 29.92 57.93 39.98 17.95 57.93 51.94 -3.112 49.91 35.91
5.625 19.99 12.93 3.95 21.9 29.92 21.9 7.899 15.92 51.94 43.93 13.88 47.99 51.94 3.95 41.89 33.99
5.63 25.97 6.942 0 3.95 15.92 11.97 -2.035 3.95 39.98 37.94 9.934 33.99 43.93 9.934 29.92 23.94
5.635 21.9 0.9575 0.9575 -7.062 1.915 0 0.9575 0.9575 21.9 23.94 7.899 19.99 27.89 7.899 17.95 7.899
5.64 7.899 -9.096 -1.077 -21.06 -5.027 -5.027 -1.077 -3.112 1.915 5.984 5.984 5.984 5.984 1.915 7.899 -7.062
5.645 -5.027 -21.06 -5.027 -28.01 -13.05 -9.096 -3.112 -5.027 -9.096 -5.027 1.915 0.9575 -9.096 0.9575 1.915 -23.1
5.65 -17.12 -27.05 -11.01 -31.12 -17.12 -7.062 -9.096 -9.096 -17.12 -13.05 -2.035 -5.027 -23.1 -3.112 -2.035 -31.12
5.655 -17.12 -31.12 -15.08 -26.09 -15.08 -3.112 -13.05 -13.05 -19.03 -15.08 -3.112 -9.096 -25.01 -1.077 -2.035 -27.05
5.66 -9.096 -33.03 -17.12 -20.11 -11.01 0.9575 -17.12 -17.12 -13.05 -11.01 -9.096 -7.062 -17.12 0 0 -13.05
5.665 -1.077 -31.12 -15.08 -13.05 -5.027 -1.077 -15.08 -15.08 -3.112 -9.096 -15.08 -1.077 -1.077 3.95 3.95 0.9575
5.67 -2.035 -25.01 -11.01 -11.01 -3.112 -5.027 -13.05 -11.01 0 -11.01 -17.12 2.992 7.899 7.899 8.977 5.984
5.675 -2.035 -13.05 -11.01 -11.01 -3.112 -9.096 -11.01 -4.069 3.95 -15.08 -15.08 12.93 15.92 7.899 8.977 5.984
5.68 0.9575 0.9575 -13.05 -17.12 -5.027 -11.01 -9.096 0.9575 1.915 -19.03 -11.01 17.95 15.92 3.95 0 -2.035
5.685 0.9575 8.977 -15.08 -20.11 -2.035 -7.062 -9.096 -1.077 0.9575 -17.12 -7.062 17 11.97 0 -4.069 -7.062
5.69 0.9575 17 -15.08 -18.07 -1.077 -1.077 -5.027 -1.077 -3.112 -13.05 -5.027 8.977 5.984 -1.077 -12.09 -11.01
5.695 -1.077 17 -9.096 -13.05 5.984 0 -1.077 -1.077 -3.112 -5.027 -3.112 -2.035 0 -9.096 -21.06 -9.096
5.7 -4.069 8.977 -3.112 -10.05 10.89 3.95 0.9575 -10.05 -1.077 -1.077 -5.027 -11.01 -1.077 -17.12 -23.1 -7.062
5.705 -8.019 -1.077 0 -16.04 4.907 1.915 -5.027 -18.07 -3.112 -5.027 -11.01 -27.05 -12.09 -27.05 -31.12 -7.062
5.71 -13.05 -7.062 -9.096 -29.08 -5.027 -1.077 -13.05 -25.01 -13.05 -13.05 -15.08 -41.05 -29.08 -35.07 -37.1 -7.062
5.715 -12.09 -19.03 -22.02 -46.08 -23.1 -11.01 -22.02 -33.03 -28.01 -21.06 -21.06 -50.03 -42.01 -33.03 -40.1 -9.096
5.72 -14 -31.12 -34.11 -58.05 -39.02 -19.03 -30.04 -37.1 -44.04 -23.1 -23.1 -51.11 -48.11 -21.06 -34.11 -3.112
5.725 -19.03 -43.09 -41.05 -67.02 -49.07 -25.01 -33.03 -39.02 -53.02 -19.03 -23.1 -45 -43.09 -3.112 -19.03 0
5.73 -25.01 -51.11 -38.06 -62.12 -44.04 -26.09 -28.01 -37.1 -44.04 -11.01 -18.07 -30.04 -28.01 9.934 1.915 11.97
5.735 -22.02 -57.09 -31.12 -50.03 -31.12 -26.09 -24.06 -34.11 -28.01 -3.112 -16.04 -14 -11.01 20.95 10.89 13.88
5.74 -17.12 -51.11 -31.12 -37.1 -23.1 -25.01 -27.05 -33.03 -13.05 -1.077 -17.12 -1.077 -3.112 21.9 11.97 5.984
5.745 -12.09 -41.05 -27.05 -25.01 -13.05 -19.03 -28.01 -27.05 -2.035 -1.077 -15.08 0 1.915 18.91 3.95 -1.077
5.75 -12.09 -21.06 -26.09 -19.03 -7.062 -15.08 -21.06 -21.06 -2.035 0 -14 -1.077 0 13.88 -1.077 -6.104
5.755 -20.11 -5.027 -18.07 -3.112 0 -9.096 -12.09 -11.01 -2.035 1.915 -5.027 2.992 2.992 18.91 0.9575 -2.035
5.76 -30.04 2.992 -2.035 1.915 7.899 1.915 0 -1.077 -1.077 4.907 0.9575 12.93 15.92 23.94 11.97 8.977
5.765 -32.08 10.89 7.899 15.92 23.94 11.97 12.93 9.934 14.96 11.97 13.88 25.97 29.92 28.96 27.89 23.94
5.77 -21.06 14.96 13.88 25.97 33.99 15.92 19.99 21.9 31.96 19.99 15.92 39.98 37.94 27.89 39.98 33.99
5.775 0.9575 12.93 13.88 28.96 41.89 12.93 17 31 44.88 21.9 14.96 42.97 41.89 20.95 36.98 31.96
5.78 29.92 12.93 6.942 24.89 34.95 2.992 6.942 27.89 46.92 17.95 6.942 34.95 36.98 9.934 17 23.94
5.785 47.99 8.977 0 11.97 17.95 -3.112 -1.077 13.88 31.96 9.934 1.915 17.95 25.97 0.9575 -2.035 13.88
5.79 44.88 2.992 0 2.992 5.984 -15.08 -4.069 1.915 17 -2.035 0.9575 3.95 17 -9.096 -6.104 7.899
5.795 26.93 -1.077 -4.069 0 -3.112 -17.12 -4.069 -5.027 -1.077 -7.062 -1.077 0 8.977 -15.08 -2.035 5.984
5.8 0 -1.077 -9.096 -5.027 -9.096 -19.03 -3.112 -11.01 -5.027 -13.05 -3.112 -2.035 5.984 -19.03 5.984 7.899
5.805 -14 0.9575 -10.05 -8.019 -12.09 -17.12 -3.112 -8.019 -7.062 -13.05 -5.027 7.899 2.992 -17.12 17.95 5.984
5.81 -26.09 2.992 -17.12 -18.07 -18.07 -17.12 -7.062 -10.05 -7.062 -9.096 -11.01 15.92 0 -9.096 25.97 9.934
5.815 -29.08 2.992 -21.06 -29.08 -29.08 -21.06 -17.12 -13.05 -9.096 -7.062 -17.12 9.934 0.9575 -2.035 21.9 13.88
5.82 -33.03 -1.077 -25.01 -40.1 -38.06 -25.01 -27.05 -18.07 -15.08 -5.027 -21.06 2.992 -3.112 9.934 17 19.99
5.825 -41.05 -7.062 -27.05 -46.08 -46.08 -29.08 -33.03 -28.01 -23.1 -7.062 -23.1 0 -5.027 19.99 6.942 25.97
5.83 -49.07 -19.03 -25.01 -47.04 -51.11 -29.08 -33.03 -31.12 -31.12 -11.01 -21.06 -5.027 -3.112 23.94 0 27.89
5.835 -51.11 -29.08 -21.06 -39.02 -45 -27.05 -25.01 -28.01 -33.03 -15.08 -17.12 -6.104 0.9575 21.9 1.915 27.89
5.84 -43.09 -35.07 -17.12 -33.03 -37.1 -21.06 -17.12 -21.06 -29.08 -15.08 -15.08 -4.069 0 19.99 -2.035 27.89
5.845 -29.08 -37.1 -17.12 -37.1 -29.08 -17.12 -15.08 -15.08 -21.06 -15.08 -17.12 -7.062 1.915 13.88 -11.01 23.94
5.85 -15.08 -35.07 -19.03 -38.06 -25.01 -15.08 -21.06 -15.08 -15.08 -15.08 -25.01 -13.05 0 9.934 -23.1 17.95
5.855 -9.096 -29.08 -23.1 -40.1 -23.1 -17.12 -29.08 -19.03 -13.05 -15.08 -33.03 -21.06 -2.035 3.95 -35.07 7.899
5.86 -9.096 -19.03 -23.1 -39.02 -21.06 -23.1 -31.12 -23.1 -15.08 -15.08 -35.07 -27.05 -3.112 -2.035 -41.05 -2.035
5.865 -15.08 -9.096 -17.12 -30.04 -21.06 -29.08 -25.01 -23.1 -17.12 -19.03 -29.08 -27.05 -11.01 -1.077 -41.05 -5.027
5.87 -17.12 -1.077 -7.062 -21.06 -21.06 -31.12 -9.096 -15.08 -19.03 -23.1 -17.12 -25.01 -19.03 -3.112 -35.07 -9.096
5.875 -17.12 4.907 -1.077 -13.05 -23.1 -27.05 0 -7.062 -19.03 -23.1 -5.027 -19.03 -25.01 -5.027 -31.12 -9.096
5.88 -13.05 6.942 0.9575 -13.05 -25.01 -19.03 5.984 -3.112 -19.03 -21.06 0.9575 -15.08 -27.05 -5.027 -27.05 -9.096
5.885 -5.027 4.907 -3.112 -17.12 -25.01 -11.01 1.915 -3.112 -17.12 -13.05 0.9575 -13.05 -19.03 -7.062 -25.01 -11.01
5.89 0.9575 -1.077 -11.01 -21.06 -19.03 -5.027 -3.112 -7.062 -15.08 -1.077 -3.112 -9.096 -7.062 -11.01 -17.12 -13.05
5.895 1.915 -3.112 -15.08 -19.03 -9.096 -5.027 -11.01 -9.096 -9.096 1.915 -5.027 -1.077 0 -13.05 -3.112 -15.08
5.9 3.95 -9.096 -13.05 -15.08 -1.077 -9.096 -9.096 -5.027 -3.112 5.984 -3.112 5.984 9.934 -13.05 9.934 -13.05
5.905 3.95 -15.08 -9.096 -10.05 0.9575 -15.08 0.9575 -2.035 -2.035 5.984 0.9575 15.92 13.88 -9.096 23.94 -3.112
5.91 0.9575 -23.1 -11.01 -9.096 -5.027 -17.12 1.915 0 0 0 -1.077 17.95 11.97 -1.077 25.97 3.95
5.915 -11.01 -31.12 -17.12 -12.09 -15.08 -17.12 0 -2.035 -1.077 -1.077 -5.027 10.89 3.95 1.915 13.88 11.97
5.92 -25.01 -37.1 -29.08 -22.02 -23.1 -17.12 -9.096 -16.04 -13.05 -5.027 -17.12 1.915 -1.077 3.95 0.9575 9.934
5.925 -35.07 -41.05 -37.1 -31.12 -33.03 -19.03 -29.08 -37.1 -25.01 -13.05 -27.05 -15.08 -9.096 0 -21.06 0
5.93 -37.1 -43.09 -37.1 -36.03 -34.11 -23.1 -41.05 -44.04 -33.03 -23.1 -35.07 -26.09 -17.12 -5.027 -33.03 -9.096
5.935 -28.01 -39.02 -29.08 -33.03 -32.08 -25.01 -43.09 -42.01 -35.07 -33.03 -37.1 -32.08 -19.03 -17.12 -41.05 -23.1
5.94 -15.08 -31.12 -15.08 -29.08 -25.01 -25.01 -33.03 -29.08 -31.12 -39.02 -33.03 -29.08 -19.03 -23.1 -39.02 -29.08
5.945 -2.035 -17.12 -5.027 -17.12 -12.09 -19.03 -19.03 -8.019 -23.1 -37.1 -21.06 -21.06 -13.05 -22.02 -35.07 -27.05
5.95 1.915 0.9575 0.9575 0 -1.077 -9.096 -5.027 1.915 -11.01 -27.05 -7.062 -9.096 -1.077 -14 -25.01 -19.03
5.955 -1.077 17 0 9.934 15.92 0.9575 1.915 7.899 3.95 -9.096 5.984 0.9575 5.984 -3.112 -5.027 -5.027
5.96 -6.104 31 3.95 23.94 32.91 -1.077 11.97 9.934 21.9 -2.035 19.99 10.89 13.88 0.9575 11.97 5.984
5.965 -8.019 36.98 10.89 31 41.89 0 17 10.89 35.91 1.915 27.89 22.98 20.95 0.9575 29.92 11.97
5.97 -7.062 34.95 15.92 29.92 39.98 -13.05 19.99 9.934 41.89 -3.112 23.94 27.89 17.95 -1.077 37.94 7.899
5.975 -1.077 31 18.91 24.89 26.93 -24.06 17 9.934 31.96 -20.11 14.96 24.89 8.977 -15.08 29.92 -1.077
5.98 0 20.95 14.96 8.977 6.942 -30.04 10.89 8.977 9.934 -38.06 2.992 11.97 0 -28.01 11.97 -10.05
5.985 -5.027 10.89 5.984 -5.027 -13.05 -33.03 1.915 5.984 -11.01 -51.11 0.9575 0.9575 -17.12 -39.02 -5.027 -23.1
5.99 -13.05 0.9575 0 -16.04 -30.04 -32.08 0.9575 0.9575 -33.03 -53.02 -3.112 -12.09 -31.12 -44.04 -21.06 -23.1
5.995 -26.09 -1.077 0.9575 -25.01 -37.1 -31.12 -1.077 -1.077 -46.08 -49.07 -1.077 -21.06 -36.03 -40.1 -24.06 -25.01
6 -31.12 -5.027 -1.077 -21.06 -32.08 -30.04 1.915 1.915 -44.04 -41.05 -1.077 -26.09 -35.07 -32.08 -22.02 -25.01
6.005 -34.11 -11.01 3.95 -17.12 -25.01 -29.08 -2.035 0 -38.06 -27.05 1.915 -23.1 -32.08 -22.02 -22.02 -27.05
6.01 -37.1 -17.12 5.984 -14 -22.02 -28.01 -2.035 1.915 -31.12 -21.06 1.915 -18.07 -27.05 -16.04 -25.01 -31.12
6.015 -45 -23.1 5.984 -15.08 -23.1 -29.08 -2.035 -1.077 -29.08 -23.1 -1.077 -17.12 -23.1 -13.05 -31.12 -37.1
6.02 -52.06 -29.08 6.942 -16.04 -30.04 -28.01 1.915 0 -33.03 -26.09 0 -19.03 -24.06 -14 -45 -38.06
6.025 -55.06 -27.05 6.942 -18.07 -36.03 -30.04 1.915 -2.035 -37.1 -32.08 0 -22.02 -28.01 -13.05 -53.02 -34.11
6.03 -47.04 -15.08 3.95 -13.05 -35.07 -35.07 0 0 -41.05 -33.03 -2.035 -25.01 -29.08 -13.05 -53.02 -25.01
6.035 -34.11 0.9575 2.992 -2.035 -27.05 -34.11 0.9575 4.907 -37.1 -29.08 0.9575 -24.06 -20.11 -6.104 -45 -13.05
6.04 -24.06 6.942 -1.077 1.915 -20.11 -30.04 -2.035 0 -25.01 -21.06 -3.112 -22.02 -9.096 1.915 -35.07 -9.096
6.045 -23.1 8.977 -11.01 0 -17.12 -27.05 -5.027 -1.077 -17.12 -11.01 -9.096 -21.06 -1.077 3.95 -25.01 -7.062
6.05 -26.09 0.9575 -19.03 -2.035 -16.04 -21.06 -13.05 -9.096 -7.062 -5.027 -15.08 -19.03 -2.035 6.942 -17.12 -11.01
6.055 -32.08 -5.027 -23.1 -11.01 -20.11 -15.08 -19.03 -18.07 -7.062 -3.112 -21.06 -19.03 0.9575 2.992 -13.05 -15.08
6.06 -29.08 -11.01 -25.01 -19.03 -23.1 -11.01 -23.1 -21.06 -9.096 -5.027 -23.1 -19.03 -7.062 0.9575 -7.062 -19.03
6.065 -24.06 -9.096 -23.1 -13.05 -14 -7.062 -19.03 -14 -9.096 -7.062 -23.1 -12.09 -13.05 -5.027 0.9575 -23.1
6.07 -19.03 -5.027 -19.03 -2.035 -2.035 -3.112 -13.05 -6.104 -7.062 -11.01 -19.03 -6.104 -19.03 -7.062 1.915 -23.1
6.075 -19.03 -5.027 -13.05 5.984 1.915 -2.035 -7.062 -3.112 -1.077 -13.05 -15.08 -2.035 -21.06 -11.01 3.95 -23.1
6.08 -21.06 -9.096 -7.062 12.93 3.95 0 -3.112 0 0.9575 -15.08 -9.096 2.992 -19.03 -13.05 0 -25.01
6.085 -17.12 -13.05 0.9575 10.89 0 0.9575 -1.077 -4.069 0 -15.08 -3.112 0.9575 -13.05 -19.03 -5.027 -29.08
6.09 -7.062 -11.01 3.95 0 0.9575 -9.096 -2.035 -5.027 0 -13.05 1.915 -2.035 -5.027 -25.01 -15.08 -29.08
6.095 1.915 -1.077 9.934 1.915 -3.112 -23.1 5.984 -1.077 0 -9.096 9.934 -2.035 0 -27.05 -19.03 -23.1
6.1 7.899 4.907 13.88 0.9575 -3.112 -33.03 15.92 3.95 0 -5.027 13.88 1.915 11.97 -23.1 -13.05 -11.01
6.105 3.95 8.977 15.92 1.915 -1.077 -37.1 23.94 11.97 0 -5.027 13.88 9.934 19.99 -17.12 -1.077 0
6.11 -5.027 6.942 15.92 7.899 -5.027 -33.03 23.94 15.92 -2.035 -9.096 11.97 15.92 17.95 -11.01 9.934 13.88
6.115 -17.12 0.9575 15.92 5.984 -11.01 -27.05 19.99 13.88 -3.112 -13.05 9.934 13.88 5.984 -9.096 23.94 19.99
6.12 -23.1 0.9575 15.92 0.9575 -19.03 -21.06 13.88 7.899 -11.01 -17.12 13.88 7.899 -5.027 -9.096 27.89 15.92
6.125 -19.03 -1.077 15.92 -9.096 -19.03 -17.12 9.934 3.95 -15.08 -15.08 17.95 0 -15.08 -9.096 25.97 3.95
6.13 -11.01 4.907 13.88 -13.05 -13.05 -13.05 13.88 5.984 -13.05 -5.027 21.9 0.9575 -13.05 -3.112 13.88 -3.112
6.135 -5.027 10.89 11.97 -7.062 -3.112 -9.096 17.95 13.88 -3.112 3.95 23.94 -1.077 -3.112 3.95 -2.035 -11.01
6.14 -5.027 12.93 11.97 0 1.915 -5.027 17.95 17.95 3.95 15.92 17.95 -3.112 3.95 13.88 -15.08 -11.01
6.145 -3.112 10.89 9.934 10.89 7.899 -1.077 13.88 17.95 13.88 21.9 9.934 -11.01 9.934 21.9 -33.03 -9.096
6.15 0.9575 8.977 7.899 12.93 9.934 0.9575 5.984 11.97 15.92 17.95 1.915 -21.06 5.984 21.9 -43.09 -3.112
6.155 1.915 6.942 7.899 11.97 5.984 -1.077 -2.035 3.95 9.934 7.899 -2.035 -33.03 0.9575 17.95 -45 0.9575
6.16 7.899 6.942 11.97 9.934 1.915 -3.112 -2.035 0.9575 0 -1.077 -2.035 -35.07 -11.01 11.97 -33.03 0
6.165 9.934 6.942 19.99 7.899 -1.077 -3.112 3.95 -2.035 -3.112 -11.01 5.984 -27.05 -17.12 3.95 -11.01 1.915
6.17 9.934 8.977 29.92 7.899 0.9575 -3.112 13.88 5.984 -5.027 -15.08 15.92 -7.062 -19.03 -2.035 9.934 7.899
6.175 9.934 10.89 37.94 10.89 -2.035 -1.077 23.94 14.96 -5.027 -13.05 25.97 7.899 -13.05 -3.112 33.99 11.97
6.18 11.97 14.96 41.89 12.93 -2.035 -1.077 27.89 24.89 -1.077 -9.096 33.99 24.89 -5.027 -7.062 49.91 17
6.185 15.92 20.95 39.98 9.934 -3.112 -3.112 27.89 25.97 0.9575 -3.112 33.99 33.99 0 -9.096 53.98 17.95
6.19 18.91 26.93 33.99 9.934 1.915 -7.062 27.89 28.96 0.9575 -1.077 33.99 34.95 7.899 -4.069 48.95 17
6.195 18.91 31 29.92 10.89 1.915 -9.096 31.96 28.96 0.9575 -2.035 32.91 34.95 15.92 -1.077 42.97 14.96
6.2 15.92 26.93 31.96 11.97 0.9575 -9.096 35.91 27.89 -1.077 1.915 33.99 35.91 21.9 5.984 35.91 9.934
6.205 14.96 18.91 35.91 14.96 0.9575 -5.027 37.94 31.96 0.9575 9.934 34.95 36.98 21.9 12.93 32.91 8.977
6.21 12.93 12.93 37.94 17.95 -1.077 0.9575 38.9 27.89 -2.035 13.88 34.95 35.91 22.98 10.89 28.96 8.977
6.215 9.934 12.93 35.91 19.99 3.95 -2.035 31.96 23.94 3.95 17.95 29.92 25.97 19.99 7.899 25.97 11.97
6.22 11.97 17 31.96 18.91 7.899 0 24.89 20.95 9.934 17 26.93 17.95 18.91 9.934 21.9 21.9
6.225 7.899 26.93 25.97 13.88 6.942 0 17 13.88 9.934 12.93 21.9 10.89 17 11.97 26.93 34.95
6.23 9.934 38.9 21.9 7.899 0 -2.035 13.88 9.934 3.95 5.984 15.92 9.934 13.88 15.92 37.94 45.96
6.235 15.92 44.88 17.95 7.899 -1.077 0.9575 13.88 10.89 0 0 17 13.88 7.899 15.92 50.99 53.98
6.24 24.89 44.88 18.91 5.984 -5.027 -3.112 13.88 10.89 -1.077 -2.035 17 22.98 8.977 14.96 60.92 49.91
6.245 28.96 42.97 17 9.934 -2.035 -5.027 14.96 10.89 -3.112 -7.062 17.95 31 7.899 8.977 58.89 37.94
6.25 31 31 17 19.99 0 -3.112 13.88 12.93 -3.112 -10.05 12.93 28.96 6.942 4.907 46.92 25.97
6.255 31.96 24.89 15.92 23.94 5.984 0.9575 15.92 10.89 -3.112 -5.027 8.977 19.99 1.915 1.915 28.96 11.97
6.26 27.89 18.91 13.88 17.95 5.984 -2.035 13.88 7.899 -3.112 -1.077 0 7.899 0.9575 3.95 7.899 1.915
6.265 23.94 17 9.934 7.899 -1.077 3.95 8.977 3.95 -7.062 -1.077 1.915 1.915 -6.104 3.95 -2.035 -1.077
6.27 21.9 17 5.984 0 -5.027 5.984 0.9575 2.992 -15.08 2.992 0 -9.096 -12.09 5.984 -15.08 0.9575
6.275 13.88 17 0.9575 -13.05 -19.03 3.95 -7.062 -1.077 -19.03 1.915 -5.027 -17.12 -17.12 1.915 -21.06 -1.077
