    T[sec]  O1  O2  P3  P4  C3  C4  F3  F4 Fp2 Fp1  T5  T6  T3  T4  F7  F8
41 164.1 164.1 164.1 164.1 164.1 164.1 164.1 164.1 164.1 164.1 164.1 164.1 164.1 164.1 164.1 164.1
0 16.98 43.98 6.97 15.94 -4.006 5.929 -13.06 -1.042 -11.06 -9.053 1.923 20.99 5.929 5.929 9.935 -47.03
0.005 8.973 29.96 7.932 7.932 0.9614 -2.003 -3.044 -1.042 0.9614 -5.047 -1.042 9.935 9.935 3.926 21.95 -57.04
0.01 -5.047 17.95 5.929 1.923 3.926 -1.042 0 -5.047 13.94 -5.047 -3.044 7.932 3.926 3.926 25.96 -55.04
0.015 -7.05 22.99 5.929 7.932 5.929 0 5.929 0.9614 23.96 -7.05 -1.042 11.94 3.926 3.926 27.96 -51.03
0.02 -1.042 28.92 7.932 17.95 6.97 -1.042 9.935 0.9614 29.96 -5.047 -3.044 20.99 3.926 5.929 35.97 -49.03
0.025 -1.042 35.97 12.98 23.96 12.98 7.932 18.99 6.97 33.97 -2.003 3.926 14.98 10.98 13.94 41.98 -41.02
0.03 6.97 27.96 17.95 21.95 21.95 15.94 29.96 15.94 37.98 1.923 9.935 0 15.94 11.94 45.99 -41.02
0.035 6.97 8.973 17.95 15.94 28.92 16.98 37.98 18.99 41.98 9.935 0 -2.003 11.94 3.926 49.99 -45.03
0.04 -1.042 0 22.99 11.94 32.93 12.98 44.95 13.94 45.99 11.94 0.9614 0 6.97 0 45.99 -43.02
0.045 -1.042 2.964 23.96 14.98 36.93 5.929 41.98 6.97 40.94 0.9614 -7.05 0.9614 3.926 -1.042 39.98 -46.07
0.05 -1.042 6.97 21.95 25 29.96 3.926 33.97 4.967 37.98 4.967 -9.053 15.94 -1.042 3.926 31.97 -47.03
0.055 14.98 19.95 25.96 44.95 27 18.99 33.97 15.94 38.94 18.99 1.923 25 3.926 18.99 25.96 -34.05
0.06 22.99 25 27 52 31.97 37.98 31.97 35.97 36.93 25.96 9.935 25 3.926 33.97 29.96 -23.07
0.065 20.99 22.99 21.95 58.97 27.96 55.92 36.93 47.99 36.93 25.96 7.932 21.95 2.964 40.94 33.97 -12.02
0.07 20.99 25 25 59.93 28.92 56.96 40.94 54 39.98 27 5.929 17.95 10.98 42.94 33.97 -6.009
0.075 4.967 12.98 11.94 42.94 25 45.99 35.97 48.95 40.94 16.98 0.9614 8.973 5.929 34.93 35.97 -10.01
0.08 -1.042 8.973 2.964 33.97 18.99 34.93 30.93 43.98 41.98 17.95 -5.047 10.98 1.923 27 31.97 -8.012
0.085 8.973 18.99 14.98 33.97 15.94 29.96 27 43.98 46.95 30.93 0 16.98 0.9614 25 25.96 -3.044
0.09 6.97 21.95 17.95 30.93 14.98 25 21.95 32.93 44.95 21.95 0.9614 19.95 3.926 16.98 33.97 -12.02
0.095 6.97 27 12.98 27.96 17.95 19.95 25 23.96 38.94 10.98 0 10.98 8.973 16.98 37.98 -9.053
0.1 6.97 28.92 14.98 25.96 18.99 14.98 28.92 17.95 35.97 15.94 1.923 6.97 16.98 14.98 41.98 -6.009
0.105 0.9614 14.98 5.929 18.99 22.99 9.935 27.96 16.98 38.94 16.98 0 8.973 15.94 10.98 45.99 -2.003
0.11 2.964 8.973 4.967 19.95 34.93 8.973 44.95 25.96 45.99 25 0.9614 7.932 14.98 8.973 43.98 0.9614
0.115 2.964 4.967 15.94 12.98 41.98 15.94 50.95 33.97 52.96 35.97 -13.06 5.929 12.98 6.97 41.98 2.964
0.12 -9.053 1.923 6.97 3.926 33.97 15.94 39.98 23.96 46.95 25.96 -25.08 8.973 5.929 3.926 35.97 -7.05
0.125 -15.06 1.923 1.923 10.98 20.99 6.97 33.97 13.94 36.93 10.98 -27.08 0.9614 1.923 0.9614 29.96 -12.02
0.13 -13.06 10.98 3.926 12.98 9.935 3.926 19.95 10.98 31.97 8.973 -27.08 1.923 -1.042 1.923 25.96 -9.053
0.135 -11.06 14.98 5.929 18.99 0 5.929 5.929 6.97 20.99 0.9614 -17.06 8.973 3.926 0.9614 19.95 -8.012
0.14 -1.042 27.96 14.98 31.97 4.967 10.98 10.98 9.935 15.94 1.923 -5.047 14.98 12.98 3.926 23.96 0.9614
0.145 4.967 38.94 19.95 27.96 18.99 22.99 17.95 20.99 23.96 13.94 -7.05 16.98 17.95 9.935 29.96 1.923
0.15 10.98 39.98 17.95 27.96 21.95 21.95 25.96 27.96 27.96 13.94 -3.044 17.95 17.95 11.94 29.96 -2.003
0.155 22.99 43.98 28.92 31.97 40.94 15.94 38.94 28.92 29.96 15.94 -2.003 14.98 20.99 11.94 35.97 -2.003
0.16 16.98 34.93 35.97 17.95 46.95 25 37.98 32.93 29.96 15.94 -1.042 8.973 17.95 7.932 39.98 0
0.165 8.973 28.92 39.98 17.95 39.98 27 31.97 27.96 23.96 7.932 -1.042 5.929 15.94 1.923 31.97 -2.003
0.17 4.967 27.96 41.98 25.96 35.97 17.95 23.96 21.95 15.94 0 0.9614 9.935 15.94 3.926 25.96 0.9614
0.175 2.964 31.97 31.97 23.96 31.97 19.95 17.95 21.95 17.95 7.932 -1.042 11.94 7.932 7.932 21.95 -2.003
0.18 12.98 41.98 27 23.96 25 15.94 23.96 20.99 25.96 13.94 1.923 14.98 11.94 11.94 19.95 0
0.185 25 36.93 27.96 29.96 31.97 6.97 29.96 16.98 29.96 15.94 15.94 19.95 19.95 15.94 25.96 1.923
0.19 22.99 30.93 19.95 25.96 34.93 15.94 31.97 16.98 29.96 11.94 15.94 22.99 15.94 17.95 29.96 0
0.195 27 34.93 19.95 27.96 30.93 18.99 29.96 18.99 29.96 7.932 11.94 20.99 17.95 19.95 29.96 1.923
0.2 34.93 35.97 31.97 37.98 35.97 21.95 27.96 21.95 33.97 13.94 11.94 17.95 25.96 23.96 37.98 9.935
0.205 38.94 40.94 45.99 39.98 45.99 32.93 33.97 31.97 35.97 19.95 9.935 11.94 29.96 21.95 43.98 13.94
0.21 50.95 39.98 59.93 37.98 55.92 33.97 43.98 29.96 43.98 23.96 15.94 1.923 39.98 17.95 49.99 19.95
0.215 46.95 23.96 57.92 31.97 57.92 27.96 41.98 19.95 43.98 15.94 17.95 1.923 43.98 9.935 45.99 15.94
0.22 27 18.99 33.97 25 49.99 19.95 33.97 14.98 29.96 8.973 4.967 10.98 29.96 6.97 35.97 6.97
0.225 4.967 14.98 7.932 13.94 27.96 11.94 19.95 6.97 17.95 4.967 -7.05 7.932 11.94 8.973 19.95 4.967
0.23 -7.05 0 -2.003 4.967 5.929 0.9614 6.97 0.9614 9.935 0.9614 -10.01 4.967 -1.042 3.926 6.97 0.9614
0.235 -3.044 2.964 -1.042 3.926 3.926 -2.003 4.967 -7.05 5.929 -7.05 -2.003 1.923 0.9614 0.9614 6.97 1.923
0.24 10.98 17.95 17.95 8.973 11.94 -1.042 9.935 -6.009 13.94 -4.006 8.973 1.923 13.94 0 14.98 0.9614
0.245 28.92 18.99 28.92 17.95 22.99 -1.042 16.98 -1.042 29.96 -3.044 11.94 0 20.99 -3.044 20.99 0
0.25 30.93 33.97 33.97 25.96 41.98 11.94 33.97 9.935 41.98 3.926 3.926 1.923 21.95 0.9614 31.97 1.923
0.255 27 33.97 35.97 25.96 47.99 27.96 41.98 19.95 43.98 11.94 -2.003 0.9614 19.95 1.923 37.98 3.926
0.26 18.99 25 35.97 27 39.98 27.96 37.98 14.98 33.97 2.964 4.967 -2.003 17.95 -1.042 32.93 0
0.265 30.93 40.94 48.95 36.93 45.99 20.99 34.93 5.929 25.96 0 27 1.923 38.94 0.9614 34.93 -1.042
0.27 44.95 45.99 52.96 37.98 44.95 22.99 27 2.964 19.95 1.923 43.98 -3.044 48.95 1.923 32.93 0
0.275 38.94 31.97 39.98 25.96 35.97 15.94 15.94 1.923 21.95 -1.042 35.97 -3.044 43.98 -1.042 27.96 0.9614
0.28 36.93 32.93 38.94 20.99 39.98 12.98 28.92 13.94 37.98 7.932 30.93 0.9614 48.95 0 38.94 13.94
0.285 32.93 16.98 34.93 0.9614 40.94 14.98 40.94 18.99 43.98 14.98 29.96 -1.042 42.94 -1.042 49.99 20.99
0.29 30.93 2.964 34.93 -17.06 33.97 3.926 42.94 15.94 42.94 8.973 25 0.9614 38.94 0.9614 48.95 14.98
0.295 48.95 19.95 47.99 -2.003 39.98 0 45.99 10.98 49.99 9.935 35.97 14.98 54 1.923 58.97 15.94
0.3 58.97 23.96 54.96 9.935 49.99 10.98 46.95 13.94 46.95 10.98 45.99 18.99 59.93 9.935 59.93 13.94
0.305 54.96 28.92 58.97 23.96 50.95 17.95 35.97 13.94 34.93 0.9614 33.97 18.99 52 13.94 54.96 4.967
0.31 56.96 42.94 60.97 47.99 52 30.93 33.97 14.98 32.93 1.923 32.93 17.95 56.96 25 54 16.98
0.315 46.95 42.94 49.99 49.99 46.95 44.95 33.97 15.94 25.96 0.9614 27 15.94 45.99 25.96 43.98 21.95
0.32 36.93 38.94 37.98 43.98 29.96 37.98 18.99 15.94 14.98 0 6.97 12.98 34.93 25.96 30.93 18.99
0.325 36.93 37.98 22.99 44.95 20.99 29.96 12.98 19.95 19.95 3.926 -1.042 21.95 33.97 29.96 31.97 27.96
0.33 32.93 31.97 14.98 36.93 22.99 33.97 17.95 31.97 27.96 8.973 0 21.95 22.99 20.99 31.97 23.96
0.335 38.94 25.96 27 27 31.97 28.92 25.96 33.97 27 5.929 2.964 19.95 20.99 15.94 31.97 9.935
0.34 40.94 23.96 36.93 22.99 40.94 27.96 25.96 25.96 23.96 1.923 9.935 13.94 32.93 16.98 37.98 5.929
0.345 34.93 9.935 34.93 14.98 40.94 29.96 27 11.94 11.94 -9.053 8.973 7.932 35.97 7.932 31.97 -1.042
0.35 20.99 12.98 27.96 17.95 31.97 17.95 10.98 3.926 1.923 -18.03 -4.006 0.9614 27 7.932 22.99 -8.012
0.355 2.964 6.97 3.926 11.94 4.967 2.964 -9.053 -7.05 -11.06 -23.07 -22.03 0.9614 11.94 1.923 11.94 -3.044
0.36 -5.047 0 -12.02 1.923 -15.06 0 -25.08 -18.03 -12.02 -23.07 -22.03 -5.047 1.923 -6.009 1.923 -4.006
0.365 0.9614 -6.009 -8.012 -3.044 -14.02 -11.06 -21.07 -23.07 -2.003 -22.03 -15.06 -8.012 -2.003 -7.05 2.964 0
0.37 2.964 -19.07 0 -17.06 -1.042 -20.03 -8.012 -29 0.9614 -18.03 -3.044 -16.02 7.932 -11.06 11.94 0.9614
0.375 -1.042 -39.02 -2.003 -26.04 7.932 -22.03 3.926 -26.04 11.94 -15.06 0.9614 -14.02 19.95 -21.07 22.99 -13.06
0.38 -1.042 -32.05 8.973 -11.06 23.96 -19.07 12.98 -11.06 12.98 -14.02 1.923 -8.012 27 -15.06 27 -8.012
0.385 -7.05 -14.02 6.97 -7.05 22.99 -10.01 12.98 -8.012 1.923 -16.02 -1.042 -2.003 22.99 -10.01 25.96 -8.012
0.39 -1.042 -6.009 0.9614 -6.009 7.932 -2.003 4.967 -9.053 0.9614 -23.07 -1.042 -2.003 14.98 -9.053 20.99 -15.06
0.395 8.973 1.923 7.932 0 3.926 0.9614 0.9614 -9.053 -2.003 -25.08 3.926 -5.047 13.94 -3.044 23.96 -7.05
0.4 18.99 11.94 16.98 3.926 0.9614 -1.042 1.923 -10.01 1.923 -18.03 7.932 0.9614 12.98 0.9614 28.92 0
0.405 16.98 6.97 14.98 4.967 -2.003 1.923 0 -9.053 11.94 -17.06 4.967 -1.042 18.99 1.923 28.92 -1.042
0.41 16.98 10.98 15.94 10.98 3.926 -1.042 -1.042 -10.01 17.95 -14.02 4.967 2.964 25.96 0.9614 25 -1.042
0.415 18.99 19.95 13.94 9.935 15.94 0.9614 0 -11.06 13.94 -13.06 9.935 7.932 31.97 1.923 19.95 -1.042
0.42 22.99 19.95 11.94 0 21.95 1.923 1.923 -13.06 9.935 -11.06 15.94 0 37.98 -2.003 19.95 -7.05
0.425 34.93 18.99 22.99 5.929 28.92 2.964 4.967 -9.053 13.94 -13.06 23.96 0 40.94 0.9614 22.99 -5.047
0.43 44.95 31.97 27.96 12.98 35.97 3.926 13.94 0 19.95 -10.01 22.99 2.964 35.97 0.9614 30.93 -2.003
0.435 32.93 32.93 25 11.94 35.97 12.98 27 1.923 27.96 -13.06 10.98 3.926 36.93 1.923 32.93 0.9614
0.44 20.99 33.97 20.99 6.97 33.97 10.98 28.92 1.923 35.97 -5.047 0.9614 4.967 32.93 1.923 30.93 1.923
0.445 20.99 46.95 17.95 9.935 35.97 5.929 31.97 6.97 37.98 1.923 0.9614 5.929 29.96 4.967 33.97 -1.042
0.45 18.99 42.94 17.95 8.973 29.96 7.932 29.96 8.973 39.98 0.9614 -8.012 -1.042 33.97 4.967 27.96 -1.042
0.455 25 25.96 25.96 5.929 27.96 5.929 19.95 5.929 39.98 0 -5.047 -7.05 35.97 0 25.96 -2.003
0.46 30.93 17.95 25.96 5.929 27.96 3.926 11.94 5.929 33.97 0.9614 -3.044 -13.06 33.97 1.923 27.96 0
0.465 10.98 0.9614 11.94 0.9614 17.95 6.97 1.923 1.923 21.95 -3.044 -13.06 -17.06 23.96 0 17.95 1.923
0.47 -1.042 -7.05 3.926 -5.047 5.929 0 -7.05 -1.042 9.935 -3.044 -11.06 -11.06 9.935 -1.042 7.932 0.9614
0.475 -1.042 0.9614 0.9614 -2.003 2.964 0.9614 -9.053 0 3.926 -3.044 -5.047 -5.047 0.9614 -1.042 0 0.9614
0.48 -1.042 -1.042 -8.012 0.9614 1.923 9.935 -4.006 2.964 5.929 -1.042 -9.053 -1.042 -5.047 0 -7.05 1.923
0.485 6.97 0 -9.053 -2.003 0.9614 6.97 0 12.98 17.95 0.9614 -7.05 1.923 -1.042 1.923 -3.044 0
0.49 10.98 3.926 -6.009 1.923 0.9614 5.929 12.98 14.98 21.95 -3.044 -5.047 1.923 -1.042 0.9614 1.923 -1.042
0.495 0.9614 -1.042 -9.053 -9.053 -2.003 5.929 13.94 5.929 17.95 -13.06 -17.06 -3.044 1.923 -5.047 1.923 -9.053
0.5 -3.044 -3.044 0.9614 -13.06 0.9614 -1.042 5.929 -7.05 13.94 -19.07 -7.05 0.9614 11.94 -15.06 13.94 -19.07
0.505 6.97 4.967 7.932 -7.05 1.923 -4.006 -1.042 -24.04 5.929 -31.01 3.926 -1.042 19.95 -21.07 11.94 -25.08
0.51 10.98 0 0.9614 -13.06 -1.042 -7.05 -19.07 -40.06 -3.044 -45.03 0 -11.06 15.94 -29 1.923 -31.01
0.515 8.973 -2.003 1.923 -22.03 -10.01 -25.08 -36.05 -51.03 -11.06 -53.04 3.926 -9.053 12.98 -32.05 0 -37.01
0.52 8.973 -5.047 -5.047 -31.01 -19.07 -33.01 -45.03 -59.05 -19.07 -57.04 5.929 -15.06 9.935 -31.01 -9.053 -37.01
0.525 -1.042 -21.07 -18.03 -43.02 -26.04 -29 -49.03 -58 -25.08 -59.05 -1.042 -29 -2.003 -33.01 -13.06 -43.02
0.53 -15.06 -42.06 -26.04 -52.08 -28.04 -40.06 -40.06 -49.03 -6.009 -49.03 -1.042 -21.07 0 -34.05 0 -35.01
0.535 -7.05 -44.06 -22.03 -48.07 -14.02 -38.06 -20.03 -35.01 9.935 -31.01 -1.042 -13.06 0 -31.01 -1.042 -20.03
0.54 -5.047 -47.03 -13.06 -38.06 1.923 -25.08 -6.009 -20.03 14.98 -19.07 -2.003 -20.03 7.932 -29 3.926 -14.02
0.545 2.964 -39.02 -1.042 -21.07 10.98 -16.02 3.926 -8.012 27 -9.053 -1.042 -10.01 19.95 -19.07 19.95 -3.044
0.55 14.98 -14.02 19.95 0 29.96 -1.042 19.95 3.926 33.97 -3.044 7.932 -4.006 32.93 0 18.99 2.964
0.555 14.98 1.923 23.96 11.94 33.97 22.99 13.94 14.98 25 -7.05 -1.042 -6.009 25.96 3.926 13.94 0
0.56 2.964 -2.003 13.94 3.926 22.99 22.99 0 16.98 23.96 -5.047 -3.044 1.923 8.973 6.97 6.97 4.967
0.565 0.9614 -6.009 0 0 6.97 16.98 -4.006 11.94 25.96 -3.044 -2.003 -1.042 -2.003 3.926 -3.044 8.973
0.57 0.9614 -13.06 -16.02 -16.02 -4.006 13.94 -20.03 -1.042 14.98 -13.06 -7.05 -10.01 -2.003 -4.006 -4.006 -3.044
0.575 6.97 -15.06 -15.06 -14.02 -15.06 1.923 -20.03 -10.01 13.94 -18.03 1.923 0 -2.003 -13.06 0.9614 -10.01
0.58 28.92 3.926 -1.042 0 -12.02 0.9614 -9.053 -5.047 17.95 -18.03 14.98 5.929 1.923 -4.006 8.973 -9.053
0.585 38.94 23.96 11.94 14.98 0.9614 2.964 -4.006 0.9614 13.94 -20.03 13.94 4.967 4.967 -1.042 14.98 -10.01
0.59 36.93 17.95 18.99 22.99 6.97 9.935 2.964 4.967 16.98 -15.06 11.94 4.967 2.964 -1.042 18.99 -7.05
0.595 34.93 16.98 18.99 27 16.98 20.99 16.98 7.932 29.96 -5.047 12.98 0 5.929 0 15.94 0
0.6 28.92 16.98 11.94 15.94 18.99 25 21.95 6.97 27.96 -13.06 3.926 0.9614 10.98 -2.003 12.98 -4.006
0.605 18.99 2.964 0.9614 0.9614 3.926 10.98 17.95 -4.006 28.92 -17.06 1.923 0.9614 1.923 -17.06 7.932 -7.05
0.61 4.967 0 -15.06 -25.08 -5.047 -4.006 3.926 -19.07 25.96 -19.07 -1.042 2.964 -10.01 -24.04 1.923 -2.003
0.615 -7.05 -17.06 -26.04 -51.03 -16.02 -30.04 -7.05 -38.06 6.97 -33.01 -10.01 -2.003 -11.06 -33.01 -7.05 -11.06
0.62 -27.08 -55.04 -31.01 -72.03 -18.03 -53.04 -28.04 -58 -4.006 -45.03 -22.03 -12.02 -17.06 -43.02 -13.06 -14.02
0.625 -35.01 -68.02 -28.04 -72.03 -16.02 -60.01 -36.05 -65.06 -9.053 -49.03 -30.04 -23.07 -27.08 -45.03 -15.06 -16.02
0.63 -29 -60.01 -22.03 -62.01 -10.01 -52.08 -34.05 -51.03 -14.02 -57.04 -41.02 -37.01 -18.03 -42.06 -8.012 -21.07
0.635 -29 -63.05 -30.04 -63.05 -18.03 -43.02 -41.02 -50.07 -13.06 -51.03 -45.03 -35.01 -19.07 -47.03 -7.05 -13.06
0.64 -39.02 -61.05 -39.02 -59.05 -33.01 -37.01 -43.02 -51.03 -7.05 -37.01 -39.02 -37.01 -23.07 -41.02 -7.05 -5.047
0.645 -35.01 -58 -38.06 -52.08 -32.05 -39.02 -34.05 -41.02 -1.042 -33.01 -31.01 -39.02 -12.02 -36.05 -4.006 -1.042
0.65 -35.01 -63.05 -34.05 -49.03 -24.04 -35.01 -27.08 -38.06 3.926 -23.07 -19.07 -33.01 -13.06 -39.02 -2.003 1.923
0.655 -35.01 -62.01 -21.07 -35.01 -13.06 -22.03 -11.06 -26.04 13.94 -15.06 -7.05 -39.02 -11.06 -29 5.929 0.9614
0.66 -11.06 -43.02 -7.05 -17.06 3.926 -3.044 7.932 -7.05 23.96 -7.05 1.923 -39.02 0 -25.08 11.94 -7.05
0.665 -1.042 -31.01 -1.042 -9.053 7.932 3.926 5.929 -3.044 25.96 -7.05 13.94 -29 9.935 -29 11.94 -11.06
0.67 0.9614 -25.08 -2.003 -10.01 0.9614 5.929 0 -6.009 15.94 -17.06 17.95 -23.07 14.98 -30.04 4.967 -19.07
0.675 2.964 -12.02 -2.003 -9.053 -3.044 1.923 -7.05 -8.012 11.94 -21.07 13.94 -17.06 17.95 -27.08 0 -21.07
0.68 12.98 1.923 1.923 -4.006 -10.01 -3.044 -12.02 -6.009 13.94 -17.06 11.94 0.9614 15.94 -17.06 3.926 -5.047
0.685 18.99 5.929 -1.042 -5.047 -6.009 0.9614 -3.044 1.923 11.94 -11.06 3.926 0 19.95 -1.042 3.926 5.929
0.69 30.93 14.98 1.923 -5.047 3.926 9.935 1.923 7.932 9.935 -11.06 0.9614 -7.05 19.95 -1.042 -2.003 9.935
0.695 32.93 16.98 5.929 -3.044 17.95 8.973 0 5.929 9.935 -9.053 0 -9.053 21.95 -11.06 -2.003 9.935
0.7 22.99 11.94 5.929 -9.053 19.95 1.923 -2.003 0.9614 7.932 -13.06 -2.003 -17.06 25.96 -21.07 3.926 0
0.705 8.973 7.932 0 -11.06 11.94 -5.047 -1.042 -9.053 5.929 -15.06 -11.06 -21.07 19.95 -23.07 7.932 -5.047
0.71 0.9614 -1.042 -11.06 -11.06 -3.044 -17.06 -7.05 -18.03 5.929 -14.02 -16.02 -8.012 11.94 -20.03 9.935 -2.003
0.715 -7.05 0 -23.07 -11.06 -17.06 -13.06 -7.05 -17.06 3.926 -20.03 -19.07 0.9614 5.929 -15.06 7.932 -3.044
0.72 -9.053 -2.003 -29 -12.02 -20.03 -9.053 -11.06 -14.02 0.9614 -27.08 -22.03 0 0.9614 -12.02 0 -8.012
0.725 -7.05 -1.042 -27.08 -12.02 -26.04 -11.06 -17.06 -16.02 -1.042 -35.01 -9.053 1.923 -2.003 -15.06 0 -9.053
0.73 -3.044 0 -27.08 -18.03 -27.08 -11.06 -17.06 -22.03 -7.05 -44.06 0 1.923 -1.042 -22.03 -1.042 -16.02
0.735 -5.047 -12.02 -28.04 -35.01 -22.03 -19.07 -21.07 -31.01 -25.08 -57.04 -11.06 -15.06 -6.009 -25.08 -8.012 -21.07
0.74 -9.053 -39.02 -33.01 -51.03 -29 -35.01 -31.01 -45.03 -33.01 -61.05 -13.06 -23.07 -3.044 -35.01 -17.06 -25.08
0.745 -3.044 -45.03 -25.08 -57.04 -23.07 -45.03 -33.01 -45.03 -27.08 -53.04 -2.003 -21.07 1.923 -35.01 -15.06 -21.07
0.75 0.9614 -34.05 -15.06 -54.08 -5.047 -39.02 -31.01 -36.05 -21.07 -38.06 4.967 -18.03 7.932 -32.05 -9.053 -14.02
0.755 0.9614 -33.01 -13.06 -46.07 -6.009 -27.08 -27.08 -26.04 -7.05 -27.08 12.98 -16.02 12.98 -32.05 -4.006 -12.02
0.76 2.964 -21.07 -8.012 -35.01 -2.003 -15.06 -17.06 -15.06 -2.003 -22.03 17.95 -17.06 14.98 -27.08 0 -15.06
0.765 -1.042 -21.07 -7.05 -33.01 1.923 -3.044 -9.053 -13.06 0.9614 -25.08 0 -23.07 1.923 -27.08 -5.047 -17.06
0.77 -1.042 -39.02 -11.06 -38.06 0.9614 -3.044 -7.05 -14.02 1.923 -23.07 -14.02 -30.04 -2.003 -32.05 -12.02 -16.02
0.775 -5.047 -47.03 -6.009 -35.01 -1.042 -7.05 -5.047 -11.06 14.98 -16.02 -17.06 -24.04 0 -30.04 -6.009 -6.009
0.78 -15.06 -41.02 -5.047 -30.04 -2.003 1.923 -6.009 -6.009 13.94 -7.05 -23.07 -20.03 -4.006 -24.04 0 1.923
0.785 -23.07 -57.04 -15.06 -38.06 -8.012 0 -15.06 -6.009 8.973 -7.05 -30.04 -24.04 -6.009 -22.03 -4.006 -1.042
0.79 -19.07 -66.02 -13.06 -40.06 -12.02 -8.012 -14.02 -3.044 4.967 -15.06 -17.06 -16.02 -1.042 -12.02 0 -2.003
0.795 -17.06 -58 -11.06 -36.05 1.923 -8.012 -8.012 -10.01 1.923 -23.07 -7.05 -6.009 1.923 -12.02 0.9614 -10.01
0.8 -13.06 -51.03 -11.06 -30.04 -1.042 -12.02 0 -12.02 0.9614 -28.04 -8.012 0.9614 1.923 -21.07 -1.042 -19.07
0.805 -3.044 -27.08 0.9614 -12.02 9.935 -8.012 5.929 -10.01 17.95 -13.06 0.9614 0 10.98 -11.06 10.98 -11.06
0.81 -1.042 -7.05 0 1.923 15.94 1.923 14.98 -2.003 33.97 -1.042 -1.042 -2.003 4.967 -4.006 16.98 -2.003
0.815 -9.053 -9.053 -4.006 1.923 13.94 8.973 15.94 0.9614 42.94 5.929 -16.02 -17.06 1.923 -5.047 12.98 3.926
0.82 -7.05 -10.01 -3.044 1.923 13.94 9.935 25 14.98 47.99 8.973 -14.02 -20.03 4.967 1.923 18.99 9.935
0.825 -7.05 -1.042 -6.009 -2.003 8.973 15.94 19.95 13.94 30.93 0.9614 -10.01 -19.07 5.929 0.9614 17.95 2.964
0.83 -7.05 0 -15.06 1.923 1.923 13.94 4.967 2.964 5.929 -18.03 -14.02 -14.02 -2.003 0.9614 0.9614 0
0.835 0.9614 5.929 -20.03 -1.042 -5.047 8.973 -7.05 -2.003 -4.006 -27.08 -20.03 0.9614 -6.009 0.9614 -2.003 0.9614
0.84 -5.047 1.923 -35.01 -6.009 -25.08 5.929 -24.04 -16.02 -17.06 -37.01 -29 1.923 -22.03 -6.009 -16.02 1.923
0.845 -11.06 -9.053 -49.03 -18.03 -39.02 1.923 -31.01 -18.03 -27.08 -41.02 -39.02 -2.003 -34.05 -13.06 -28.04 1.923
0.85 -7.05 -13.06 -45.03 -36.05 -44.06 -10.01 -32.05 -28.04 -26.04 -46.07 -40.06 0.9614 -25.08 -17.06 -23.07 -9.053
0.855 -15.06 -26.04 -41.02 -58 -50.07 -22.03 -42.06 -50.07 -28.04 -59.05 -33.01 -2.003 -21.07 -20.03 -19.07 -28.04
0.86 -23.07 -34.05 -43.02 -62.01 -52.08 -42.06 -50.07 -69.06 -32.05 -65.06 -33.01 -6.009 -24.04 -34.05 -20.03 -42.06
0.865 -25.08 -33.01 -45.03 -62.01 -50.07 -56 -47.03 -78.03 -30.04 -57.04 -34.05 -10.01 -18.03 -48.07 -16.02 -50.07
0.87 -33.01 -43.02 -43.02 -60.01 -49.03 -61.05 -42.06 -78.03 -19.07 -51.03 -25.08 -20.03 -16.02 -50.07 -16.02 -48.07
0.875 -19.07 -47.03 -28.04 -53.04 -34.05 -61.05 -27.08 -59.05 -6.009 -32.05 -9.053 -28.04 -6.009 -46.07 -2.003 -34.05
0.88 -5.047 -47.03 -15.06 -50.07 -16.02 -47.03 -9.053 -40.06 3.926 -19.07 0 -38.06 4.967 -40.06 4.967 -22.03
0.885 -11.06 -57.04 -5.047 -51.03 -9.053 -37.01 0 -29 17.95 -15.06 -1.042 -41.02 5.929 -39.02 11.94 -23.07
0.89 -19.07 -57.04 -6.009 -45.03 1.923 -27.08 13.94 -13.06 23.96 -10.01 -5.047 -39.02 2.964 -35.01 16.98 -25.08
0.895 -21.07 -49.03 -11.06 -40.06 1.923 -15.06 21.95 -6.009 19.95 -15.06 -12.02 -38.06 0.9614 -34.05 14.98 -32.05
0.9 -21.07 -40.06 -11.06 -28.04 -2.003 -7.05 21.95 -2.003 15.94 -18.03 -6.009 -30.04 -2.003 -20.03 15.94 -38.06
0.905 -15.06 -25.08 0.9614 -15.06 5.929 0.9614 21.95 -2.003 17.95 -15.06 3.926 -17.06 0 -7.05 19.95 -31.01
0.91 -5.047 -17.06 7.932 -9.053 13.94 3.926 17.95 -1.042 11.94 -19.07 3.926 -15.06 1.923 -7.05 11.94 -31.01
0.915 -9.053 -20.03 6.97 -7.05 16.98 1.923 7.932 -7.05 0 -25.08 1.923 -13.06 0.9614 -11.06 4.967 -39.02
0.92 -21.07 -20.03 0 -16.02 15.94 0.9614 0.9614 -12.02 -5.047 -34.05 0 -10.01 -2.003 -16.02 1.923 -44.06
0.925 -19.07 -20.03 -5.047 -26.04 6.97 -5.047 -11.06 -20.03 -13.06 -39.02 -5.047 -13.06 1.923 -15.06 -2.003 -43.02
0.93 -19.07 -27.08 -15.06 -38.06 1.923 -17.06 -13.06 -18.03 -15.06 -29 -4.006 -10.01 0.9614 -16.02 -5.047 -36.05
0.935 -19.07 -26.04 -17.06 -41.02 -5.047 -25.08 -9.053 -15.06 -7.05 -22.03 0.9614 -5.047 -3.044 -15.06 -3.044 -21.07
0.94 -5.047 -24.04 -17.06 -29 -11.06 -23.07 0.9614 -6.009 0.9614 -16.02 0 1.923 -7.05 -6.009 -3.044 -8.012
0.945 -3.044 -17.06 -19.07 -19.07 -15.06 -13.06 0 0.9614 0.9614 -17.06 -7.05 3.926 -7.05 -2.003 3.926 -11.06
0.95 -7.05 -9.053 -15.06 -9.053 -9.053 -5.047 0.9614 -1.042 -1.042 -27.08 -7.05 9.935 -5.047 1.923 15.94 -17.06
0.955 -3.044 -6.009 -9.053 -9.053 -7.05 -6.009 -5.047 -10.01 -9.053 -37.01 -11.06 9.935 -5.047 3.926 13.94 -29
0.96 -7.05 -17.06 -11.06 -25.08 -9.053 -13.06 -15.06 -23.07 -25.08 -45.03 -13.06 9.935 -7.05 0.9614 7.932 -43.02
0.965 -11.06 -22.03 -16.02 -29 -20.03 -18.03 -32.05 -38.06 -45.03 -59.05 -11.06 7.932 -15.06 -9.053 -5.047 -49.03
0.97 -13.06 -21.07 -26.04 -27.08 -36.05 -27.08 -50.07 -46.07 -55.04 -69.06 -11.06 4.967 -20.03 -11.06 -21.07 -54.08
0.975 -17.06 -22.03 -37.01 -31.01 -45.03 -32.05 -59.05 -46.07 -51.03 -67.06 -7.05 5.929 -25.08 -11.06 -19.07 -65.06
0.98 -5.047 -9.053 -22.03 -23.07 -32.05 -35.01 -50.07 -43.02 -37.01 -65.06 1.923 2.964 -14.02 -17.06 -7.05 -70.02
0.985 8.973 -7.05 -1.042 -19.07 -11.06 -39.02 -31.01 -43.02 -19.07 -57.04 17.95 -3.044 -3.044 -23.07 -2.003 -79.08
0.99 22.99 -21.07 7.932 -31.01 0 -39.02 -11.06 -45.03 -3.044 -47.03 23.96 -11.06 -2.003 -33.01 7.932 -83
0.995 30.93 -18.03 17.95 -25.08 5.929 -36.05 -3.044 -44.06 -2.003 -43.02 29.96 -23.07 0 -37.01 11.94 -77.07
1 30.93 -8.012 20.99 -13.06 4.967 -30.04 1.923 -38.06 1.923 -35.01 35.97 -27.08 5.929 -27.08 11.94 -71.06
1.005 32.93 -1.042 22.99 -7.05 6.97 -19.07 2.964 -23.07 11.94 -24.04 45.99 -12.02 12.98 -18.03 25 -66.02
1.01 48.95 27.96 37.98 11.94 21.95 -1.042 17.95 -9.053 17.95 -21.07 61.93 0.9614 21.95 -9.053 37.98 -69.06
1.015 62.97 48.95 48.95 25.96 32.93 10.98 30.93 1.923 19.95 -19.07 63.93 6.97 31.97 -1.042 41.98 -70.02
1.02 52.96 42.94 40.94 16.98 32.93 14.98 34.93 -1.042 19.95 -12.02 45.99 10.98 27 -6.009 42.94 -68.02
1.025 38.94 39.98 30.93 13.94 23.96 2.964 23.96 -4.006 16.98 -15.06 27.96 8.973 18.99 -11.06 37.98 -68.02
1.03 22.99 33.97 21.95 10.98 8.973 -2.003 8.973 -11.06 8.973 -26.04 20.99 8.973 12.98 -10.01 31.97 -70.02
1.035 12.98 27 8.973 2.964 -1.042 -8.012 0 -17.06 4.967 -33.01 21.95 11.94 5.929 -7.05 19.95 -69.06
1.04 14.98 36.93 4.967 15.94 -2.003 -7.05 -6.009 -14.02 1.923 -31.01 25 18.99 -1.042 -1.042 9.935 -64.01
1.045 12.98 52 0 27 -14.02 -2.003 -4.006 -2.003 6.97 -18.03 15.94 19.95 -1.042 4.967 5.929 -51.03
1.05 4.967 52.96 0 29.96 -16.02 12.98 0.9614 9.935 13.94 0 4.967 20.99 -3.044 12.98 0.9614 -32.05
1.055 10.98 47.99 2.964 39.98 -9.053 22.99 0.9614 28.92 14.98 3.926 3.926 22.99 -2.003 25.96 3.926 -24.04
1.06 8.973 40.94 6.97 38.94 -1.042 33.97 -3.044 34.93 9.935 1.923 9.935 27 -2.003 34.93 0.9614 -20.03
1.065 8.973 30.93 2.964 25.96 1.923 31.97 -12.02 19.95 3.926 -8.012 13.94 19.95 0.9614 28.92 0.9614 -23.07
1.07 -1.042 25.96 0 21.95 -6.009 15.94 -13.06 2.964 0 -19.07 7.932 22.99 -5.047 15.94 -1.042 -36.05
1.075 -3.044 30.93 -1.042 25.96 -16.02 0 -12.02 -13.06 3.926 -22.03 0.9614 23.96 -13.06 8.973 0 -49.03
1.08 2.964 36.93 6.97 30.93 -11.06 -1.042 0.9614 -12.02 21.95 -8.012 -2.003 25 -10.01 8.973 10.98 -44.06
1.085 22.99 35.97 22.99 43.98 3.926 0.9614 19.95 0.9614 40.94 3.926 15.94 28.92 -2.003 17.95 29.96 -38.06
1.09 34.93 34.93 33.97 41.98 22.99 12.98 35.97 15.94 45.99 4.967 30.93 28.92 0 18.99 40.94 -32.05
1.095 38.94 33.97 35.97 30.93 25 15.94 32.93 14.98 30.93 -2.003 37.98 21.95 13.94 12.98 37.98 -31.01
1.1 42.94 38.94 44.95 33.97 25 15.94 20.99 8.973 9.935 -17.06 34.93 32.93 18.99 17.95 27.96 -44.06
1.105 40.94 54.96 48.95 46.95 22.99 12.98 4.967 3.926 0.9614 -21.07 29.96 43.98 7.932 25.96 19.95 -51.03
1.11 46.95 52 47.99 54.96 22.99 12.98 0.9614 3.926 16.98 -8.012 34.93 46.95 12.98 27 17.95 -38.06
1.115 64.98 43.98 46.95 57.92 31.97 20.99 17.95 12.98 40.94 13.94 39.98 42.94 14.98 27.96 25.96 -26.04
1.12 54.96 44.95 40.94 56.96 36.93 25 30.93 17.95 47.99 18.99 37.98 30.93 14.98 20.99 32.93 -18.03
1.125 30.93 34.93 28.92 47.99 27 22.99 20.99 20.99 37.98 3.926 27.96 17.95 11.94 13.94 25.96 -16.02
1.13 18.99 31.97 19.95 43.98 17.95 25.96 9.935 23.96 21.95 -3.044 13.94 23.96 0 19.95 15.94 -29
1.135 12.98 33.97 18.99 52.96 22.99 35.97 2.964 27.96 17.95 -4.006 7.932 38.94 -6.009 30.93 8.973 -26.04
1.14 14.98 28.92 22.99 52 25 45.99 6.97 30.93 25.96 0 11.94 41.98 0.9614 35.97 7.932 -13.06
1.145 25 30.93 33.97 49.99 33.97 54.96 23.96 40.94 35.97 19.95 9.935 45.99 1.923 39.98 11.94 -1.042
1.15 16.98 35.97 37.98 55.92 37.98 54 27.96 39.98 31.97 19.95 -2.003 43.98 0 43.98 11.94 0.9614
1.155 0.9614 23.96 23.96 45.99 17.95 43.98 9.935 29.96 9.935 -2.003 -9.053 37.98 -5.047 33.97 3.926 -7.05
1.16 -11.06 9.935 2.964 27.96 1.923 29.96 -4.006 17.95 -1.042 -9.053 -17.06 30.93 -20.03 25.96 0.9614 -18.03
1.165 -15.06 1.923 -1.042 25.96 -7.05 18.99 -7.05 14.98 5.929 0.9614 -17.06 27.96 -27.08 29.96 -2.003 -15.06
1.17 -7.05 -7.05 4.967 31.97 1.923 27.96 8.973 34.93 25.96 17.95 -5.047 25 -10.01 39.98 3.926 0.9614
1.175 0.9614 0.9614 16.98 41.98 14.98 44.95 34.93 64.98 39.98 39.98 0.9614 23.96 0.9614 45.99 9.935 17.95
1.18 -1.042 17.95 23.96 57.92 25.96 57.92 43.98 75.95 37.98 37.98 -1.042 27.96 -2.003 52 17.95 21.95
1.185 0.9614 14.98 11.94 52 7.932 60.97 23.96 54.96 9.935 3.926 -1.042 25.96 -3.044 41.98 13.94 -2.003
1.19 -3.044 9.935 -7.05 27.96 -15.06 35.97 -3.044 5.929 -13.06 -25.08 -7.05 21.95 -19.07 19.95 1.923 -31.01
1.195 -1.042 5.929 -11.06 13.94 -27.08 3.926 -17.06 -21.07 -15.06 -35.01 -7.05 17.95 -29 9.935 0.9614 -49.03
1.2 8.973 6.97 0.9614 14.98 -25.08 -1.042 -9.053 -24.04 -5.047 -26.04 0 22.99 -17.06 14.98 -3.044 -42.06
1.205 12.98 20.99 5.929 19.95 -13.06 0 0.9614 -15.06 -5.047 -16.02 -3.044 25.96 -13.06 11.94 -7.05 -29
1.21 20.99 35.97 14.98 32.93 -2.003 6.97 1.923 0 -11.06 -15.06 -4.006 25 -14.02 18.99 -6.009 -22.03
1.215 20.99 42.94 20.99 37.98 1.923 12.98 -4.006 0 -25.08 -29 -1.042 23.96 -12.02 19.95 -4.006 -25.08
1.22 8.973 45.99 21.95 32.93 1.923 9.935 -11.06 -1.042 -33.01 -36.05 -4.006 27 -9.053 10.98 -2.003 -30.04
1.225 14.98 46.95 32.93 33.97 11.94 2.964 -1.042 3.926 -13.06 -26.04 -1.042 27.96 1.923 11.94 -1.042 -31.01
1.23 20.99 43.98 35.97 29.96 21.95 9.935 17.95 11.94 0 -13.06 0 29.96 3.926 11.94 3.926 -27.08
1.235 20.99 27.96 25.96 21.95 15.94 11.94 15.94 0 0 -11.06 -2.003 31.97 0.9614 1.923 -2.003 -19.07
1.24 20.99 20.99 13.94 20.99 9.935 0 1.923 -2.003 -7.05 -18.03 0 25 -7.05 4.967 -1.042 -20.03
1.245 8.973 25 6.97 20.99 0 -1.042 -4.006 1.923 -17.06 -19.07 -6.009 27 -14.02 6.97 -8.012 -18.03
1.25 -9.053 17.95 1.923 17.95 -7.05 2.964 -8.012 4.967 -15.06 -10.01 -15.06 33.97 -16.02 7.932 -14.02 -9.053
1.255 -7.05 31.97 0 29.96 -1.042 9.935 0 23.96 -7.05 0.9614 -19.07 35.97 -7.05 19.95 -15.06 -1.042
1.26 0.9614 44.95 8.973 40.94 3.926 27 10.98 45.99 -3.044 7.932 -14.02 38.94 -4.006 32.93 -18.03 2.964
1.265 -1.042 27 10.98 42.94 7.932 38.94 4.967 46.95 -3.044 10.98 -9.053 38.94 -5.047 34.93 -13.06 6.97
1.27 4.967 27 19.95 49.99 16.98 38.94 6.97 44.95 0 10.98 -1.042 29.96 0 38.94 -6.009 10.98
1.275 8.973 35.97 27.96 57.92 25.96 38.94 15.94 45.99 1.923 16.98 0 36.93 -2.003 40.94 -2.003 12.98
1.28 4.967 35.97 21.95 60.97 27 46.95 23.96 46.95 12.98 32.93 -7.05 46.95 -1.042 36.93 -1.042 16.98
1.285 14.98 52.96 25.96 66.98 28.92 52 29.96 48.95 10.98 31.97 -3.044 37.98 1.923 41.98 -3.044 16.98
1.29 27 54.96 32.93 59.93 22.99 45.99 22.99 38.94 2.964 19.95 0 27.96 -1.042 33.97 -9.053 9.935
1.295 34.93 27 35.97 38.94 12.98 30.93 8.973 18.99 7.932 6.97 11.94 23.96 -1.042 18.99 1.923 1.923
1.3 46.95 22.99 45.99 31.97 20.99 12.98 16.98 6.97 8.973 0.9614 21.95 11.94 16.98 12.98 12.98 0
1.305 50.95 27.96 54 30.93 33.97 4.967 33.97 7.932 15.94 2.964 27 11.94 29.96 11.94 29.96 -5.047
1.31 52.96 29.96 54 32.93 52 13.94 52 18.99 32.93 16.98 25 20.99 38.94 11.94 44.95 0.9614
1.315 44.95 44.95 54.96 39.98 64.98 27 63.93 35.97 35.97 22.99 18.99 15.94 37.98 9.935 38.94 -1.042
1.32 36.93 37.98 47.99 28.92 47.99 29.96 49.99 28.92 27 10.98 20.99 8.973 27 7.932 14.98 0.9614
1.325 38.94 33.97 49.99 14.98 29.96 16.98 25.96 9.935 19.95 4.967 30.93 11.94 19.95 5.929 7.932 -3.044
1.33 36.93 42.94 37.98 5.929 22.99 2.964 16.98 -2.003 12.98 1.923 21.95 9.935 12.98 0.9614 2.964 -16.02
1.335 14.98 28.92 15.94 0 10.98 -4.006 10.98 -10.01 7.932 -2.003 7.932 5.929 2.964 1.923 1.923 -21.07
1.34 2.964 16.98 6.97 1.923 8.973 -9.053 20.99 -8.012 16.98 1.923 0 9.935 0 0.9614 15.94 -15.06
1.345 2.964 12.98 7.932 4.967 18.99 -5.047 33.97 1.923 14.98 0 -3.044 7.932 6.97 1.923 21.95 -14.02
1.35 4.967 9.935 13.94 4.967 22.99 1.923 35.97 -1.042 12.98 -1.042 3.926 6.97 13.94 0.9614 19.95 -16.02
1.355 34.93 31.97 39.98 19.95 37.98 4.967 35.97 1.923 11.94 1.923 25 8.973 27 4.967 25 -16.02
1.36 48.95 56.96 54 31.97 50.95 14.98 36.93 8.973 8.973 -2.003 23.96 11.94 34.93 2.964 27 -20.03
1.365 34.93 50.95 42.94 22.99 37.98 16.98 27 4.967 0 -8.012 13.94 8.973 29.96 1.923 21.95 -20.03
1.37 22.99 38.94 30.93 14.98 21.95 6.97 16.98 0.9614 -1.042 -15.06 14.98 4.967 28.92 0 22.99 -18.03
1.375 16.98 21.95 17.95 3.926 7.932 -7.05 11.94 -11.06 -3.044 -17.06 11.94 3.926 27.96 -5.047 25.96 -13.06
1.38 16.98 11.94 12.98 -5.047 -2.003 -16.02 6.97 -16.02 -5.047 -8.012 15.94 -2.003 25 -7.05 25 -11.06
1.385 18.99 14.98 14.98 0 -2.003 -16.02 6.97 -11.06 -1.042 -9.053 14.98 -2.003 22.99 -8.012 22.99 -14.02
1.39 16.98 12.98 25.96 2.964 15.94 -13.06 13.94 -8.012 5.929 -12.02 8.973 -6.009 19.95 -8.012 19.95 -24.04
1.395 16.98 5.929 33.97 3.926 31.97 -7.05 19.95 -7.05 3.926 -17.06 11.94 -7.05 19.95 -7.05 15.94 -35.01
1.4 16.98 5.929 35.97 3.926 39.98 -1.042 15.94 -5.047 -3.044 -29 15.94 -7.05 25.96 -1.042 13.94 -35.01
1.405 22.99 2.964 36.93 1.923 35.97 -4.006 12.98 -5.047 -3.044 -24.04 13.94 -1.042 27 -3.044 14.98 -15.06
1.41 16.98 1.923 29.96 -12.02 23.96 -11.06 7.932 -4.006 -5.047 -10.01 2.964 -4.006 17.95 -8.012 16.98 -4.006
1.415 0.9614 -12.02 12.98 -23.07 3.926 -12.02 2.964 -5.047 -9.053 -13.06 -3.044 -17.06 6.97 -17.06 12.98 -3.044
1.42 -7.05 -31.01 2.964 -32.05 -1.042 -24.04 -1.042 -8.012 0.9614 -5.047 -8.012 -20.03 2.964 -24.04 14.98 1.923
1.425 -5.047 -32.05 1.923 -27.08 -2.003 -31.01 5.929 -3.044 1.923 1.923 -7.05 -11.06 9.935 -19.07 17.95 -1.042
1.43 -7.05 -22.03 0.9614 -20.03 3.926 -23.07 7.932 0 -1.042 -6.009 -10.01 -8.012 9.935 -12.02 9.935 -8.012
1.435 -15.06 -25.08 -3.044 -19.07 -2.003 -19.07 0.9614 -3.044 -7.05 -11.06 -19.07 -7.05 0 -13.06 -1.042 -7.05
1.44 -13.06 -15.06 -1.042 -11.06 -3.044 -13.06 -7.05 -7.05 -11.06 -11.06 -21.07 -3.044 -11.06 -11.06 -11.06 -11.06
1.445 -19.07 -12.02 -5.047 -7.05 -13.06 -6.009 -19.07 -9.053 -15.06 -17.06 -15.06 -7.05 -23.07 -9.053 -17.06 -13.06
1.45 -21.07 -24.04 -15.06 -15.06 -25.08 -15.06 -33.01 -13.06 -17.06 -17.06 -15.06 -7.05 -27.08 -11.06 -23.07 -9.053
1.455 -13.06 -27.08 -20.03 -25.08 -29 -26.04 -37.01 -14.02 -21.07 -19.07 -21.07 -1.042 -25.08 -11.06 -19.07 -11.06
1.46 -21.07 -33.01 -34.05 -36.05 -36.05 -27.08 -41.02 -20.03 -29 -27.08 -31.01 -11.06 -31.01 -14.02 -21.07 -11.06
1.465 -37.01 -42.06 -47.03 -39.02 -45.03 -36.05 -45.03 -24.04 -31.01 -31.01 -37.01 -21.07 -39.02 -19.07 -27.08 -11.06
1.47 -27.08 -33.01 -36.05 -30.04 -38.06 -33.01 -31.01 -18.03 -17.06 -23.07 -25.08 -13.06 -37.01 -16.02 -19.07 -11.06
1.475 -23.07 -27.08 -25.08 -27.08 -27.08 -25.08 -15.06 -9.053 -1.042 -11.06 -17.06 -15.06 -29 -17.06 -9.053 0.9614
1.48 -25.08 -33.01 -29 -29 -21.07 -23.07 -11.06 -9.053 -1.042 -3.044 -23.07 -15.06 -23.07 -19.07 -11.06 1.923
1.485 -21.07 -24.04 -31.01 -31.01 -19.07 -24.04 -15.06 -12.02 -11.06 -5.047 -25.08 -9.053 -21.07 -17.06 -7.05 1.923
1.49 -19.07 -17.06 -28.04 -27.08 -25.08 -22.03 -23.07 -16.02 -21.07 -11.06 -27.08 -11.06 -25.08 -11.06 -7.05 11.94
1.495 -27.08 -22.03 -26.04 -22.03 -26.04 -27.08 -33.01 -19.07 -29 -23.07 -27.08 -13.06 -25.08 -2.003 -15.06 10.98
1.5 -17.06 -17.06 -9.053 -19.07 -13.06 -27.08 -31.01 -19.07 -29 -23.07 -13.06 -1.042 -13.06 1.923 -9.053 3.926
1.505 -1.042 -3.044 8.973 -19.07 0 -20.03 -23.07 -18.03 -29 -23.07 -5.047 -1.042 0 1.923 -9.053 3.926
1.51 -1.042 -8.012 6.97 -24.04 4.967 -26.04 -29 -27.08 -39.02 -35.01 -7.05 -9.053 0 -8.012 -17.06 -2.003
1.515 6.97 -3.044 6.97 -26.04 4.967 -33.01 -29 -37.01 -49.03 -48.07 0 -6.009 0 -10.01 -16.02 -19.07
1.52 10.98 2.964 5.929 -22.03 0.9614 -31.01 -28.04 -43.02 -50.07 -46.07 1.923 -11.06 -3.044 -8.012 -14.02 -7.05
1.525 6.97 -1.042 0.9614 -23.07 -5.047 -34.05 -34.05 -40.06 -45.03 -41.02 1.923 -14.02 -6.009 -11.06 -17.06 -3.044
1.53 16.98 -2.003 6.97 -22.03 0 -34.05 -32.05 -30.04 -34.05 -19.07 17.95 -9.053 -1.042 -3.044 -9.053 -2.003
1.535 28.92 2.964 9.935 -9.053 3.926 -21.07 -20.03 -15.06 -27.08 -5.047 21.95 -8.012 4.967 1.923 -7.05 15.94
1.54 20.99 0 5.929 -11.06 0.9614 -20.03 -27.08 -5.047 -28.04 0 9.935 -8.012 -1.042 -7.05 -12.02 10.98
1.545 6.97 -5.047 0.9614 -10.01 0 -21.07 -29 -7.05 -33.01 -2.003 5.929 -1.042 0 -4.006 -16.02 9.935
1.55 2.964 0.9614 1.923 -6.009 -6.009 -16.02 -32.05 -12.02 -35.01 -11.06 -7.05 2.964 -8.012 -2.003 -25.08 14.98
1.555 -7.05 -7.05 -6.009 -12.02 -20.03 -21.07 -44.06 -25.08 -35.01 -22.03 -14.02 1.923 -23.07 -14.02 -34.05 6.97
1.56 -3.044 -6.009 -1.042 -14.02 -18.03 -29 -40.06 -32.05 -25.08 -22.03 -8.012 3.926 -24.04 -10.01 -33.01 5.929
1.565 6.97 1.923 1.923 0 0 -19.07 -24.04 -17.06 -27.08 -26.04 -10.01 2.964 -25.08 -2.003 -28.04 0.9614
1.57 4.967 5.929 1.923 1.923 0 -12.02 -24.04 -6.009 -31.01 -25.08 -19.07 6.97 -28.04 0 -29 -1.042
1.575 2.964 11.94 4.967 4.967 0 -7.05 -25.08 0 -27.08 -14.02 -15.06 18.99 -26.04 4.967 -30.04 9.935
1.58 0.9614 14.98 5.929 11.94 -3.044 2.964 -23.07 11.94 -26.04 -6.009 -15.06 16.98 -24.04 9.935 -36.05 25
1.585 2.964 4.967 1.923 9.935 -7.05 7.932 -28.04 3.926 -23.07 -1.042 -13.06 4.967 -20.03 5.929 -35.01 25
1.59 -1.042 -1.042 4.967 8.973 1.923 2.964 -24.04 1.923 -12.02 1.923 -9.053 3.926 -11.06 5.929 -21.07 25.96
1.595 -1.042 -1.042 0.9614 7.932 7.932 -1.042 -16.02 -2.003 -19.07 -11.06 -21.07 2.964 -10.01 5.929 -19.07 15.94
1.6 -23.07 -10.01 -5.047 0 1.923 -9.053 -24.04 -13.06 -26.04 -18.03 -43.02 0.9614 -25.08 0.9614 -26.04 5.929
1.605 -31.01 -19.07 -18.03 -16.02 -20.03 -21.07 -35.01 -23.07 -25.08 -16.02 -43.02 0.9614 -38.06 1.923 -30.04 9.935
1.61 -45.03 -38.06 -40.06 -38.06 -42.06 -32.05 -45.03 -21.07 -31.01 -17.06 -45.03 -1.042 -57.04 -12.02 -39.02 14.98
1.615 -59.05 -59.05 -58 -61.05 -61.05 -46.07 -49.03 -28.04 -31.01 -11.06 -53.04 -15.06 -65.06 -25.08 -37.01 21.95
1.62 -55.04 -59.05 -55.04 -67.06 -53.04 -57.04 -41.02 -25.08 -17.06 -2.003 -41.02 -17.06 -51.03 -25.08 -19.07 27.96
1.625 -45.03 -46.07 -44.06 -58 -32.05 -55.04 -21.07 -15.06 -11.06 5.929 -39.02 -17.06 -41.02 -20.03 -5.047 32.93
1.63 -45.03 -39.02 -34.05 -53.04 -19.07 -54.08 -13.06 -18.03 -7.05 7.932 -43.02 -19.07 -37.01 -19.07 -5.047 33.97
1.635 -23.07 -28.04 -15.06 -39.02 -5.047 -50.07 -11.06 -18.03 -3.044 5.929 -23.07 -13.06 -19.07 -11.06 -3.044 31.97
1.64 -5.047 -11.06 -2.003 -23.07 1.923 -37.01 -9.053 -17.06 -15.06 0.9614 -11.06 -9.053 -9.053 -5.047 -9.053 25.96
1.645 -9.053 -5.047 -2.003 -17.06 1.923 -27.08 -15.06 -21.07 -25.08 -9.053 -15.06 -7.05 -9.053 0 -21.07 25.96
1.65 -1.042 -2.003 8.973 -6.009 6.97 -13.06 -13.06 -12.02 -25.08 -11.06 -3.044 0.9614 -3.044 8.973 -19.07 27.96
1.655 8.973 0.9614 17.95 -7.05 15.94 -2.003 0.9614 1.923 -27.08 -11.06 -3.044 -5.047 -3.044 1.923 -11.06 27.96
1.66 2.964 -15.06 8.973 -18.03 16.98 -7.05 -1.042 1.923 -25.08 -3.044 -17.06 -17.06 -7.05 -6.009 -9.053 31.97
1.665 -1.042 -21.07 8.973 -27.08 19.95 -16.02 -3.044 -1.042 -13.06 5.929 -5.047 -15.06 3.926 -13.06 0.9614 35.97
1.67 0.9614 -18.03 7.932 -33.01 17.95 -19.07 -5.047 -1.042 -7.05 5.929 0.9614 -17.06 7.932 -13.06 -2.003 33.97
1.675 -13.06 -30.04 -5.047 -43.02 1.923 -26.04 -17.06 -15.06 -13.06 -2.003 -3.044 -19.07 -1.042 -13.06 -15.06 29.96
1.68 -13.06 -33.01 -15.06 -39.02 -9.053 -29 -21.07 -17.06 -15.06 -5.047 -1.042 -5.047 -13.06 -9.053 -23.07 23.96
1.685 -5.047 -27.08 -19.07 -31.01 -13.06 -25.08 -15.06 -17.06 -15.06 -13.06 -9.053 0.9614 -17.06 -7.05 -19.07 15.94
1.69 -19.07 -30.04 -31.01 -32.05 -13.06 -25.08 -13.06 -20.03 -15.06 -16.02 -28.04 -4.006 -21.07 -10.01 -21.07 10.98
1.695 -31.01 -32.05 -31.01 -37.01 -7.05 -29 -11.06 -23.07 -9.053 -8.012 -29 -7.05 -17.06 -15.06 -13.06 15.94
1.7 -25.08 -37.01 -19.07 -42.06 -2.003 -34.05 -15.06 -24.04 -5.047 -1.042 -16.02 -16.02 -10.01 -11.06 -6.009 20.99
1.705 -17.06 -48.07 -17.06 -51.03 -4.006 -40.06 -27.08 -23.07 -17.06 -3.044 -14.02 -27.08 -16.02 -13.06 -24.04 25.96
1.71 -15.06 -44.06 -23.07 -48.07 -17.06 -47.03 -39.02 -18.03 -23.07 -1.042 -12.02 -20.03 -25.08 -14.02 -37.01 32.93
1.715 -13.06 -26.04 -27.08 -33.01 -30.04 -42.06 -44.06 -13.06 -21.07 -1.042 -7.05 -9.053 -26.04 -11.06 -36.05 33.97
1.72 -15.06 -7.05 -33.01 -23.07 -31.01 -35.01 -41.02 -13.06 -23.07 0.9614 -15.06 -9.053 -29 -9.053 -39.02 27.96
1.725 -19.07 -2.003 -29 -21.07 -17.06 -31.01 -23.07 -17.06 -21.07 -1.042 -13.06 -11.06 -27.08 -13.06 -25.08 19.95
1.73 -11.06 -8.012 -11.06 -22.03 -1.042 -29 -11.06 -26.04 -21.07 -12.02 1.923 -18.03 -17.06 -14.02 -15.06 2.964
1.735 2.964 -17.06 0.9614 -20.03 6.97 -34.05 -7.05 -32.05 -27.08 -21.07 10.98 -20.03 -2.003 -19.07 -14.02 -2.003
1.74 4.967 -11.06 0.9614 -19.07 10.98 -36.05 -10.01 -29 -23.07 -18.03 21.95 -11.06 1.923 -20.03 -12.02 0
1.745 6.97 0.9614 1.923 -13.06 -2.003 -35.01 -21.07 -21.07 -23.07 -15.06 25.96 -3.044 -1.042 -11.06 -15.06 5.929
1.75 20.99 7.932 1.923 -2.003 0 -30.04 -25.08 -10.01 -21.07 -5.047 27 -1.042 -1.042 -3.044 -14.02 14.98
1.755 30.93 9.935 8.973 0 2.964 -22.03 -10.01 -4.006 -13.06 2.964 17.95 -1.042 0.9614 -2.003 -12.02 25
1.76 22.99 3.926 13.94 0.9614 11.94 -14.02 -5.047 1.923 -13.06 4.967 8.973 0.9614 0 0 -14.02 22.99
1.765 18.99 0.9614 11.94 0.9614 11.94 -5.047 -1.042 -1.042 -17.06 -1.042 5.929 0.9614 0.9614 -3.044 -15.06 20.99
1.77 14.98 0 9.935 -2.003 8.973 -4.006 -1.042 -1.042 -13.06 0 7.932 -1.042 1.923 -7.05 -11.06 20.99
1.775 6.97 4.967 6.97 -5.047 0.9614 -4.006 -11.06 -6.009 -24.04 -19.07 9.935 1.923 -3.044 -8.012 -12.02 6.97
1.78 10.98 5.929 0 -13.06 -4.006 -17.06 -29 -25.08 -35.01 -29 6.97 -1.042 1.923 -10.01 -16.02 0.9614
1.785 12.98 1.923 1.923 -28.04 -11.06 -33.01 -37.01 -33.01 -31.01 -24.04 9.935 -6.009 0.9614 -13.06 -16.02 5.929
1.79 6.97 1.923 -3.044 -37.01 -9.053 -44.06 -41.02 -32.05 -25.08 -18.03 8.973 -9.053 -1.042 -16.02 -22.03 8.973
1.795 0.9614 -13.06 -12.02 -48.07 -13.06 -48.07 -38.06 -29 -19.07 -14.02 4.967 -14.02 -9.053 -19.07 -27.08 9.935
1.8 -1.042 -27.08 -9.053 -55.04 -17.06 -52.08 -25.08 -28.04 -8.012 -8.012 2.964 -7.05 -15.06 -22.03 -28.04 6.97
1.805 -3.044 -22.03 -8.012 -42.06 -8.012 -41.02 -18.03 -29 -19.07 -17.06 1.923 -8.012 -18.03 -22.03 -31.01 -1.042
1.81 -11.06 -23.07 -7.05 -35.01 -5.047 -34.05 -23.07 -36.05 -34.05 -26.04 -4.006 -19.07 -25.08 -28.04 -30.04 -12.02
1.815 -15.06 -29 -10.01 -36.05 -1.042 -38.06 -34.05 -37.01 -43.02 -30.04 -8.012 -24.04 -25.08 -31.01 -27.08 -7.05
1.82 -15.06 -21.07 -19.07 -39.02 -3.044 -42.06 -39.02 -36.05 -41.02 -28.04 -14.02 -29 -25.08 -32.05 -22.03 0
1.825 -33.01 -21.07 -32.05 -42.06 -17.06 -43.02 -35.01 -35.01 -33.01 -24.04 -29 -34.05 -26.04 -29 -20.03 -2.003
1.83 -37.01 -35.01 -35.01 -47.03 -26.04 -42.06 -35.01 -29 -25.08 -19.07 -32.05 -29 -24.04 -26.04 -18.03 -2.003
1.835 -31.01 -40.06 -30.04 -37.01 -26.04 -36.05 -33.01 -24.04 -26.04 -23.07 -35.01 -25.08 -23.07 -20.03 -22.03 1.923
1.84 -39.02 -40.06 -25.08 -28.04 -22.03 -30.04 -33.01 -24.04 -37.01 -24.04 -37.01 -30.04 -26.04 -15.06 -29 0
1.845 -37.01 -45.03 -21.07 -25.08 -17.06 -29 -37.01 -18.03 -45.03 -26.04 -41.02 -23.07 -28.04 -13.06 -33.01 1.923
1.85 -31.01 -33.01 -25.08 -25.08 -13.06 -28.04 -37.01 -18.03 -51.03 -30.04 -44.06 -17.06 -29 -10.01 -36.05 4.967
1.855 -41.02 -27.08 -32.05 -28.04 -20.03 -32.05 -40.06 -24.04 -57.04 -36.05 -51.03 -22.03 -32.05 -10.01 -38.06 0.9614
1.86 -45.03 -43.02 -43.02 -44.06 -28.04 -42.06 -45.03 -34.05 -61.05 -45.03 -42.06 -30.04 -36.05 -17.06 -30.04 -14.02
1.865 -29 -49.03 -43.02 -49.03 -35.01 -51.03 -49.03 -47.03 -59.05 -57.04 -29 -33.01 -35.01 -25.08 -31.01 -27.08
1.87 -19.07 -43.02 -42.06 -41.02 -34.05 -52.08 -48.07 -55.04 -49.03 -54.08 -23.07 -35.01 -30.04 -28.04 -30.04 -23.07
1.875 -23.07 -49.03 -37.01 -36.05 -32.05 -46.07 -41.02 -46.07 -39.02 -43.02 -18.03 -28.04 -26.04 -25.08 -26.04 -16.02
1.88 -21.07 -38.06 -31.01 -32.05 -25.08 -35.01 -41.02 -34.05 -31.01 -30.04 -18.03 -22.03 -21.07 -22.03 -21.07 -2.003
1.885 -29 -39.02 -29 -37.01 -13.06 -29 -39.02 -27.08 -25.08 -25.08 -21.07 -31.01 -19.07 -25.08 -21.07 0.9614
1.89 -33.01 -59.05 -29 -51.03 -9.053 -35.01 -35.01 -33.01 -27.08 -33.01 -13.06 -45.03 -23.07 -33.01 -19.07 -15.06
1.895 -19.07 -58 -25.08 -51.03 -10.01 -46.07 -30.04 -43.02 -29 -38.06 -7.05 -39.02 -24.04 -41.02 -18.03 -25.08
1.9 -7.05 -50.07 -19.07 -44.06 -11.06 -47.03 -27.08 -50.07 -29 -34.05 -6.009 -38.06 -17.06 -40.06 -19.07 -22.03
1.905 -1.042 -42.06 -11.06 -33.01 -12.02 -46.07 -19.07 -43.02 -27.08 -33.01 0.9614 -35.01 -6.009 -35.01 -12.02 -25.08
1.91 6.97 -25.08 0 -24.04 -4.006 -44.06 -15.06 -28.04 -21.07 -29 8.973 -26.04 1.923 -27.08 -4.006 -24.04
1.915 18.99 -16.02 7.932 -21.07 9.935 -37.01 -13.06 -21.07 -9.053 -24.04 17.95 -29 5.929 -20.03 -2.003 -19.07
1.92 22.99 -22.03 9.935 -18.03 17.95 -33.01 -5.047 -12.02 -1.042 -20.03 28.92 -28.04 11.94 -16.02 -2.003 -18.03
1.925 22.99 -15.06 9.935 -17.06 17.95 -29 0.9614 -15.06 0.9614 -13.06 19.95 -19.07 9.935 -17.06 -2.003 -11.06
1.93 12.98 -13.06 0 -19.07 17.95 -21.07 -1.042 -23.07 0.9614 -7.05 3.926 -17.06 3.926 -19.07 0.9614 -5.047
1.935 0.9614 -18.03 -7.05 -27.08 7.932 -26.04 -5.047 -27.08 -5.047 -13.06 -1.042 -19.07 -2.003 -25.08 -1.042 -9.053
1.94 -11.06 -16.02 -15.06 -31.01 0.9614 -37.01 -13.06 -29 -19.07 -23.07 -17.06 -13.06 -11.06 -25.08 -5.047 -15.06
1.945 -15.06 -15.06 -24.04 -33.01 -9.053 -40.06 -25.08 -32.05 -25.08 -27.08 -25.08 -13.06 -22.03 -17.06 -13.06 -15.06
1.95 -17.06 -23.07 -26.04 -31.01 -17.06 -40.06 -25.08 -24.04 -19.07 -17.06 -13.06 -9.053 -20.03 -11.06 -17.06 -12.02
1.955 -11.06 -18.03 -19.07 -13.06 -11.06 -26.04 -15.06 -10.01 -9.053 0.9614 -5.047 0 -21.07 0.9614 -15.06 -5.047
1.96 2.964 -13.06 -10.01 1.923 4.967 -1.042 1.923 0.9614 0 7.932 -9.053 1.923 -18.03 6.97 -5.047 -1.042
1.965 2.964 -7.05 0.9614 7.932 17.95 5.929 9.935 7.932 7.932 3.926 -3.044 0.9614 -9.053 5.929 5.929 -1.042
1.97 10.98 0.9614 11.94 9.935 27.96 5.929 19.95 1.923 1.923 -1.042 -5.047 -7.05 0.9614 -2.003 17.95 -9.053
1.975 16.98 -1.042 23.96 1.923 27.96 -1.042 21.95 -4.006 0 -13.06 -7.05 -15.06 3.926 -1.042 17.95 -17.06
1.98 12.98 -1.042 32.93 -5.047 27.96 -2.003 19.95 -8.012 0 -19.07 1.923 -19.07 8.973 -3.044 17.95 -25.08
1.985 10.98 -4.006 30.93 0.9614 28.92 -1.042 20.99 -3.044 -1.042 -14.02 3.926 -20.03 6.97 -2.003 11.94 -26.04
1.99 12.98 -3.044 21.95 1.923 31.97 0 17.95 -1.042 -3.044 -15.06 0.9614 -17.06 -3.044 -2.003 3.926 -27.08
1.995 8.973 1.923 20.99 9.935 31.97 4.967 15.94 -1.042 -2.003 -13.06 -1.042 -11.06 -12.02 -2.003 3.926 -27.08
2 12.98 10.98 25 19.95 30.93 5.929 14.98 -1.042 0.9614 -10.01 0 -4.006 -10.01 -1.042 6.97 -24.04
2.005 16.98 25.96 33.97 27 31.97 12.98 11.94 -3.044 0 -7.05 2.964 0 -2.003 3.926 7.932 -22.03
2.01 16.98 29.96 38.94 31.97 35.97 21.95 13.94 7.932 3.926 -6.009 6.97 1.923 -1.042 13.94 6.97 -23.07
2.015 14.98 35.97 38.94 42.94 43.98 31.97 17.95 16.98 0 -7.05 8.973 0 0.9614 13.94 10.98 -25.08
2.02 27 41.98 37.98 47.99 48.95 37.98 25 20.99 5.929 -11.06 13.94 5.929 2.964 20.99 12.98 -21.07
2.025 34.93 42.94 48.95 50.95 61.93 40.94 37.98 29.96 13.94 -2.003 13.94 9.935 6.97 29.96 12.98 -15.06
2.03 36.93 45.99 52.96 52.96 65.94 41.98 47.99 31.97 21.95 0.9614 20.99 8.973 7.932 28.92 15.94 -11.06
2.035 27 39.98 45.99 56.96 67.94 50.95 47.99 35.97 27.96 7.932 20.99 9.935 9.935 29.96 19.95 -8.012
2.04 10.98 35.97 33.97 60.97 58.97 60.97 44.95 52.96 29.96 18.99 7.932 10.98 0.9614 42.94 12.98 -2.003
2.045 0.9614 36.93 15.94 59.93 40.94 60.97 36.93 54 21.95 14.98 2.964 15.94 -4.006 47.99 11.94 -3.044
2.05 -1.042 27.96 -1.042 48.95 25.96 52 23.96 40.94 14.98 1.923 0 11.94 -6.009 36.93 10.98 -5.047
2.055 6.97 25 0.9614 39.98 12.98 36.93 14.98 31.97 5.929 1.923 1.923 5.929 -12.02 29.96 1.923 -7.05
2.06 18.99 35.97 1.923 32.93 2.964 20.99 6.97 20.99 5.929 -1.042 3.926 8.973 -18.03 18.99 2.964 -8.012
2.065 18.99 45.99 3.926 34.93 3.926 18.99 11.94 19.95 15.94 9.935 12.98 9.935 -11.06 17.95 13.94 -4.006
2.07 18.99 52 8.973 38.94 13.94 23.96 23.96 33.97 31.97 25 10.98 16.98 -5.047 30.93 17.95 0
2.075 18.99 58.97 12.98 40.94 21.95 27 29.96 35.97 35.97 30.93 5.929 21.95 0 35.97 20.99 1.923
2.08 14.98 42.94 9.935 31.97 16.98 25.96 22.99 32.93 31.97 31.97 1.923 7.932 -1.042 27 25 1.923
2.085 14.98 29.96 6.97 25 11.94 15.94 11.94 28.92 27.96 35.97 2.964 7.932 1.923 25.96 16.98 1.923
2.09 18.99 31.97 0.9614 23.96 0 5.929 9.935 29.96 31.97 36.93 6.97 21.95 -3.044 25.96 12.98 3.926
2.095 18.99 33.97 5.929 28.92 1.923 10.98 19.95 35.97 37.98 43.98 6.97 19.95 1.923 31.97 23.96 14.98
2.1 16.98 27 12.98 33.97 16.98 19.95 34.93 47.99 47.99 48.95 7.932 22.99 0.9614 42.94 28.92 25
2.105 18.99 29.96 22.99 41.98 31.97 36.93 45.99 60.97 55.92 47.99 3.926 21.95 0.9614 43.98 31.97 17.95
2.11 8.973 19.95 23.96 39.98 35.97 43.98 47.99 63.93 57.92 49.99 -5.047 11.94 1.923 39.98 35.97 25.96
2.115 -1.042 0.9614 27 31.97 38.94 43.98 46.95 65.94 59.93 58.97 -1.042 8.973 4.967 34.93 33.97 28.92
2.12 -3.044 0.9614 25 29.96 37.98 42.94 47.99 66.98 61.93 52 0.9614 5.929 6.97 27.96 31.97 15.94
2.125 -3.044 0 27.96 27.96 41.98 40.94 54 64.98 55.92 49.99 -1.042 0 11.94 21.95 33.97 7.932
2.13 -1.042 -5.047 33.97 29.96 52 41.98 49.99 59.93 45.99 45.99 13.94 -2.003 17.95 17.95 35.97 3.926
2.135 10.98 1.923 37.98 35.97 55.92 49.99 41.98 59.93 37.98 33.97 21.95 3.926 13.94 15.94 25.96 -1.042
2.14 18.99 9.935 34.93 35.97 48.95 45.99 34.93 52.96 29.96 29.96 13.94 1.923 8.973 17.95 15.94 1.923
2.145 4.967 -2.003 25.96 15.94 29.96 30.93 23.96 34.93 21.95 27.96 11.94 -1.042 1.923 9.935 9.935 -1.042
2.15 -5.047 -21.07 16.98 0.9614 15.94 20.99 15.94 20.99 15.94 13.94 1.923 -15.06 0 -3.044 9.935 -22.03
2.155 -9.053 -25.08 6.97 -9.053 9.935 6.97 15.94 12.98 11.94 5.929 0.9614 -23.07 -2.003 -9.053 13.94 -33.01
2.16 -9.053 -22.03 7.932 -9.053 7.932 0 13.94 5.929 5.929 1.923 11.94 -23.07 0 -5.047 19.95 -31.01
2.165 -1.042 -8.012 9.935 0.9614 7.932 8.973 5.929 7.932 3.926 0.9614 9.935 -21.07 0 -3.044 19.95 -33.01
2.17 0.9614 0.9614 7.932 0 7.932 0 5.929 1.923 5.929 0.9614 -1.042 -15.06 -7.05 -1.042 15.94 -27.08
2.175 -15.06 -13.06 5.929 -3.044 1.923 -5.047 7.932 -5.047 9.935 3.926 -15.06 -19.07 -17.06 -7.05 11.94 -21.07
2.18 -37.01 -22.03 -1.042 -7.05 0.9614 -5.047 9.935 -5.047 15.94 8.973 -26.04 -24.04 -27.08 -14.02 13.94 -18.03
2.185 -43.02 -20.03 -13.06 -7.05 -2.003 -5.047 23.96 3.926 17.95 12.98 -27.08 -19.07 -33.01 -9.053 11.94 -9.053
2.19 -35.01 -15.06 -17.06 0 1.923 0.9614 23.96 12.98 11.94 11.94 -16.02 -16.02 -25.08 1.923 6.97 -6.009
2.195 -33.01 -19.07 -17.06 0 -8.012 -2.003 11.94 10.98 -2.003 0 -21.07 -20.03 -23.07 0 2.964 -16.02
2.2 -43.02 -28.04 -23.07 -14.02 -19.07 -7.05 1.923 0.9614 -5.047 -4.006 -38.06 -24.04 -37.01 -6.009 -2.003 -20.03
2.205 -61.05 -40.06 -31.01 -22.03 -24.04 -15.06 -1.042 -8.012 0.9614 -2.003 -41.02 -29 -42.06 -9.053 1.923 -13.06
2.21 -67.06 -39.02 -31.01 -17.06 -23.07 -9.053 0.9614 -5.047 11.94 13.94 -39.02 -27.08 -37.01 -9.053 3.926 -5.047
2.215 -57.04 -31.01 -27.08 -15.06 -15.06 -5.047 3.926 1.923 17.95 21.95 -35.01 -17.06 -37.01 -3.044 0 -2.003
2.22 -43.02 -24.04 -27.08 -10.01 -11.06 -9.053 -2.003 0.9614 7.932 18.99 -20.03 -6.009 -33.01 -1.042 -5.047 0
2.225 -23.07 -9.053 -17.06 -6.009 -14.02 -11.06 -9.053 -4.006 -1.042 7.932 -14.02 -1.042 -33.01 -1.042 -8.012 -10.01
2.23 -19.07 -8.012 -18.03 -22.03 -22.03 -23.07 -19.07 -13.06 -15.06 -6.009 -17.06 1.923 -40.06 -7.05 -10.01 -17.06
2.235 -35.01 -17.06 -39.02 -31.01 -35.01 -39.02 -29 -31.01 -17.06 -17.06 -15.06 -7.05 -47.03 -19.07 -11.06 -21.07
2.24 -35.01 -9.053 -45.03 -28.04 -40.06 -47.03 -29 -34.05 -5.047 -7.05 -12.02 -4.006 -43.02 -18.03 -4.006 -16.02
2.245 -39.02 -17.06 -46.07 -35.01 -44.06 -53.04 -29 -31.01 -3.044 -4.006 -23.07 -7.05 -36.05 -21.07 -4.006 -19.07
2.25 -47.03 -35.01 -57.04 -38.06 -57.04 -60.01 -40.06 -41.02 -11.06 -5.047 -25.08 -16.02 -49.03 -28.04 -15.06 -24.04
2.255 -39.02 -39.02 -52.08 -34.05 -56 -59.05 -45.03 -43.02 -11.06 -4.006 -16.02 -13.06 -51.03 -25.08 -17.06 -24.04
2.26 -29 -41.02 -37.01 -43.02 -46.07 -58 -34.05 -36.05 -11.06 -5.047 -9.053 -15.06 -45.03 -27.08 -10.01 -27.08
2.265 -37.01 -53.04 -41.02 -50.07 -42.06 -60.01 -31.01 -41.02 -13.06 -11.06 -3.044 -25.08 -42.06 -37.01 -10.01 -28.04
2.27 -35.01 -51.03 -32.05 -45.03 -32.05 -58 -24.04 -39.02 -7.05 -6.009 -1.042 -20.03 -33.01 -30.04 -4.006 -18.03
2.275 -29 -48.07 -21.07 -49.03 -23.07 -49.03 -22.03 -36.05 -5.047 -2.003 0 -19.07 -30.04 -24.04 0.9614 -20.03
2.28 -29 -53.04 -23.07 -44.06 -27.08 -48.07 -28.04 -37.01 -9.053 -5.047 1.923 -28.04 -35.01 -32.05 0.9614 -28.04
2.285 -17.06 -42.06 -8.012 -33.01 -19.07 -49.03 -26.04 -37.01 -1.042 -7.05 8.973 -26.04 -30.04 -24.04 3.926 -24.04
2.29 0.9614 -24.04 5.929 -23.07 -5.047 -44.06 -11.06 -32.05 6.97 -1.042 18.99 -22.03 -23.07 -19.07 11.94 -22.03
2.295 4.967 -10.01 6.97 -14.02 -1.042 -39.02 -2.003 -20.03 11.94 1.923 16.98 -17.06 -16.02 -18.03 10.98 -24.04
2.3 4.967 0.9614 7.932 -5.047 11.94 -30.04 11.94 -8.012 14.98 1.923 18.99 -4.006 -9.053 -3.044 7.932 -12.02
2.305 6.97 6.97 10.98 -2.003 21.95 -11.06 16.98 0 15.94 11.94 25 0.9614 -12.02 4.967 15.94 -2.003
2.31 12.98 13.94 15.94 8.973 23.96 -1.042 20.99 15.94 17.95 23.96 23.96 -1.042 -7.05 6.97 19.95 -1.042
2.315 25 22.99 31.97 25.96 37.98 7.932 28.92 27.96 33.97 32.93 31.97 3.926 4.967 16.98 31.97 14.98
2.32 42.94 31.97 54.96 49.99 52.96 27 44.95 35.97 45.99 42.94 38.94 16.98 11.94 28.92 46.95 22.99
2.325 52.96 57.92 63.93 66.98 66.98 46.95 55.92 52 49.99 47.99 35.97 27.96 12.98 37.98 46.95 20.99
2.33 50.95 67.94 65.94 65.94 68.98 58.97 54.96 56.96 43.98 47.99 29.96 29.96 15.94 45.99 32.93 11.94
2.335 44.95 54 54.96 56.96 56.96 54 35.97 39.98 25.96 32.93 28.92 23.96 1.923 37.98 15.94 -1.042
2.34 44.95 59.93 43.98 44.95 37.98 42.94 16.98 27.96 13.94 21.95 21.95 18.99 -3.044 30.93 5.929 -2.003
2.345 36.93 55.92 27 33.97 25 29.96 7.932 17.95 13.94 18.99 13.94 11.94 -2.003 23.96 0.9614 -3.044
2.35 22.99 49.99 13.94 34.93 12.98 21.95 5.929 16.98 17.95 25.96 4.967 10.98 -23.07 28.92 2.964 0.9614
2.355 16.98 57.92 1.923 41.98 9.935 27.96 13.94 29.96 27.96 39.98 0 11.94 -31.01 33.97 9.935 13.94
2.36 8.973 54.96 0 42.94 2.964 33.97 21.95 41.98 33.97 46.95 -2.003 21.95 -28.04 39.98 12.98 15.94
2.365 0.9614 41.98 -1.042 38.94 -2.003 31.97 11.94 28.92 23.96 31.97 0 30.93 -33.01 32.93 6.97 8.973
2.37 -1.042 46.95 0.9614 32.93 -7.05 23.96 0 14.98 11.94 10.98 -2.003 34.93 -35.01 27 0.9614 -1.042
2.375 -15.06 35.97 -7.05 19.95 -11.06 9.935 -5.047 0.9614 0 1.923 -7.05 31.97 -39.02 17.95 -9.053 -9.053
2.38 -35.01 13.94 -23.07 5.929 -21.07 0.9614 -13.06 -7.05 -3.044 3.926 -19.07 21.95 -55.04 9.935 -17.06 -7.05
2.385 -41.02 -1.042 -33.01 1.923 -24.04 -3.044 -11.06 0 0.9614 15.94 -21.07 5.929 -54.08 3.926 -10.01 5.929
2.39 -47.03 -20.03 -43.02 -12.02 -29 -7.05 -3.044 2.964 3.926 25 -20.03 0 -49.03 0 -5.047 4.967
2.395 -45.03 -39.02 -45.03 -16.02 -34.05 -11.06 -3.044 2.964 1.923 15.94 -17.06 0 -45.03 -12.02 1.923 0
2.4 -31.01 -23.07 -37.01 -6.009 -28.04 -7.05 -9.053 2.964 -1.042 3.926 -12.02 1.923 -43.02 -8.012 1.923 -2.003
2.405 -21.07 -4.006 -31.01 1.923 -29 -5.047 -19.07 -2.003 -11.06 1.923 -5.047 3.926 -43.02 0 -9.053 -5.047
2.41 -21.07 0 -31.01 5.929 -33.01 -5.047 -31.01 -7.05 -17.06 -4.006 -4.006 6.97 -47.03 2.964 -21.07 -8.012
2.415 -15.06 -1.042 -23.07 1.923 -27.08 -9.053 -31.01 -11.06 -19.07 -5.047 0.9614 3.926 -47.03 -2.003 -27.08 -1.042
2.42 -3.044 -1.042 -11.06 -2.003 -21.07 -17.06 -19.07 -15.06 -5.047 1.923 -2.003 0 -43.02 -2.003 -23.07 0
2.425 -1.042 -8.012 -11.06 0.9614 -13.06 -14.02 0.9614 -6.009 7.932 15.94 -11.06 -2.003 -43.02 0.9614 -9.053 3.926
2.43 -15.06 -12.02 -17.06 0.9614 -1.042 -3.044 15.94 9.935 17.95 27.96 -27.08 -1.042 -45.03 0.9614 0 15.94
2.435 -31.01 -13.06 -25.08 0.9614 -3.044 0.9614 19.95 22.99 17.95 29.96 -35.01 -3.044 -45.03 0.9614 7.932 15.94
2.44 -41.02 -25.08 -37.01 -5.047 -13.06 1.923 7.932 16.98 11.94 13.94 -37.01 -5.047 -37.01 -2.003 9.935 0.9614
2.445 -43.02 -38.06 -35.01 -17.06 -13.06 0 3.926 6.97 0 -2.003 -25.08 -11.06 -29 -15.06 11.94 -5.047
2.45 -23.07 -27.08 -14.02 -16.02 -9.053 -7.05 5.929 1.923 0 -2.003 -7.05 -3.044 -21.07 -6.009 15.94 0
2.455 -17.06 -11.06 -2.003 -1.042 7.932 -3.044 17.95 3.926 19.95 13.94 -7.05 3.926 -9.053 1.923 19.95 7.932
2.46 -29 -7.05 -2.003 5.929 23.96 9.935 37.98 31.97 35.97 35.97 -7.05 7.932 -7.05 11.94 23.96 23.96
2.465 -35.01 0 -2.003 7.932 23.96 25 41.98 48.95 35.97 45.99 -5.047 7.932 -13.06 21.95 19.95 31.97
2.47 -33.01 -3.044 -3.044 7.932 19.95 34.93 29.96 42.94 23.96 25.96 -11.06 3.926 -17.06 18.99 7.932 19.95
2.475 -23.07 -10.01 -14.02 -1.042 8.973 29.96 9.935 31.97 -1.042 -1.042 -5.047 -3.044 -27.08 8.973 0 4.967
2.48 -9.053 -5.047 -17.06 -3.044 -13.06 11.94 -11.06 13.94 -31.01 -21.07 0 -1.042 -35.01 1.923 -9.053 -5.047
2.485 -3.044 5.929 -19.07 -3.044 -25.08 -1.042 -29 2.964 -41.02 -33.01 3.926 1.923 -33.01 -1.042 -11.06 -15.06
2.49 -1.042 10.98 -26.04 -4.006 -28.04 1.923 -24.04 3.926 -33.01 -24.04 9.935 1.923 -33.01 0 -4.006 -18.03
2.495 0.9614 -1.042 -29 -15.06 -31.01 -7.05 -21.07 1.923 -30.04 -17.06 15.94 0.9614 -30.04 -8.012 -3.044 -16.02
2.5 0.9614 -7.05 -23.07 -25.08 -28.04 -16.02 -26.04 -13.06 -34.05 -21.07 9.935 0 -25.08 -16.02 -14.02 -17.06
2.505 -3.044 -9.053 -25.08 -31.01 -25.08 -24.04 -34.05 -19.07 -46.07 -27.08 7.932 -10.01 -26.04 -18.03 -28.04 -13.06
2.51 -5.047 -20.03 -30.04 -44.06 -33.01 -39.02 -50.07 -35.01 -69.06 -39.02 1.923 -16.02 -34.05 -23.07 -37.01 -11.06
2.515 -17.06 -26.04 -33.01 -47.03 -40.06 -49.03 -60.01 -44.06 -76.03 -45.03 -5.047 -16.02 -36.05 -27.08 -40.06 -23.07
2.52 -25.08 -25.08 -38.06 -40.06 -44.06 -48.07 -57.04 -41.02 -65.06 -40.06 -11.06 -17.06 -39.02 -20.03 -33.01 -17.06
2.525 -29 -35.01 -43.02 -39.02 -43.02 -43.02 -49.03 -36.05 -56 -33.01 -13.06 -19.07 -42.06 -20.03 -25.08 -8.012
2.53 -39.02 -43.02 -44.06 -36.05 -40.06 -35.01 -44.06 -30.04 -45.03 -28.04 -19.07 -14.02 -45.03 -24.04 -22.03 -8.012
2.535 -35.01 -32.05 -38.06 -30.04 -36.05 -26.04 -39.02 -17.06 -33.01 -16.02 -21.07 -7.05 -43.02 -20.03 -17.06 0.9614
2.54 -29 -30.04 -30.04 -25.08 -31.01 -18.03 -38.06 -15.06 -26.04 -7.05 -16.02 -12.02 -41.02 -17.06 -12.02 1.923
2.545 -23.07 -24.04 -30.04 -26.04 -28.04 -20.03 -29 -21.07 -27.08 -10.01 -19.07 -15.06 -29 -22.03 -11.06 -3.044
2.55 -15.06 -19.07 -28.04 -26.04 -30.04 -27.08 -22.03 -26.04 -23.07 -12.02 -19.07 -16.02 -27.08 -16.02 -12.02 -1.042
2.555 -13.06 -23.07 -27.08 -27.08 -27.08 -29 -21.07 -32.05 -22.03 -15.06 -17.06 -17.06 -26.04 -18.03 -17.06 0
2.56 -13.06 -21.07 -22.03 -18.03 -28.04 -20.03 -15.06 -21.07 -15.06 -10.01 -11.06 -9.053 -31.01 -16.02 -17.06 -9.053
2.565 0.9614 -4.006 -1.042 0.9614 -20.03 -7.05 -6.009 0.9614 -4.006 1.923 -5.047 2.964 -28.04 -2.003 -10.01 1.923
2.57 8.973 1.923 8.973 10.98 -5.047 7.932 0.9614 21.95 3.926 17.95 -3.044 0.9614 -20.03 7.932 -3.044 11.94
2.575 8.973 -1.042 9.935 9.935 3.926 14.98 22.99 33.97 18.99 31.97 -3.044 0 -10.01 6.97 -1.042 13.94
2.58 6.97 -17.06 5.929 -3.044 6.97 4.967 34.93 25.96 28.92 33.97 -3.044 -14.02 -3.044 6.97 8.973 21.95
2.585 0.9614 -36.05 1.923 -17.06 5.929 -2.003 37.98 18.99 36.93 31.97 -3.044 -25.08 1.923 -2.003 19.95 14.98
2.59 2.964 -30.04 8.973 -10.01 14.98 0 50.95 17.95 47.99 34.93 1.923 -28.04 9.935 -12.02 38.94 4.967
2.595 8.973 -21.07 15.94 -9.053 23.96 1.923 54 22.99 45.99 27.96 9.935 -33.01 15.94 -10.01 47.99 3.926
2.6 4.967 -27.08 11.94 -9.053 19.95 -2.003 43.98 17.95 33.97 21.95 9.935 -35.01 17.95 -19.07 37.98 -1.042
2.605 2.964 -12.02 1.923 -10.01 10.98 -2.003 33.97 13.94 19.95 25 7.932 -23.07 11.94 -18.03 25 -2.003
2.61 -7.05 -9.053 -17.06 -17.06 0.9614 -1.042 17.95 10.98 7.932 19.95 1.923 -19.07 -3.044 -10.01 3.926 -2.003
2.615 -17.06 -18.03 -33.01 -19.07 -21.07 -2.003 0 4.967 1.923 11.94 0.9614 -7.05 -21.07 -13.06 -9.053 3.926
2.62 -17.06 -5.047 -33.01 -13.06 -29 -3.044 -2.003 5.929 3.926 15.94 -5.047 1.923 -23.07 -3.044 -5.047 17.95
2.625 -19.07 -11.06 -29 -17.06 -23.07 -1.042 -1.042 7.932 3.926 13.94 -13.06 -3.044 -29 1.923 1.923 31.97
2.63 -23.07 -29 -30.04 -26.04 -31.01 -3.044 -15.06 3.926 0 11.94 -17.06 -3.044 -33.01 0.9614 1.923 34.93
2.635 -13.06 -10.01 -17.06 -11.06 -23.07 1.923 -5.047 8.973 3.926 23.96 -9.053 -2.003 -21.07 9.935 5.929 35.97
2.64 0.9614 0 -3.044 1.923 -1.042 11.94 7.932 25 9.935 23.96 -5.047 -3.044 -17.06 14.98 11.94 38.94
2.645 6.97 0 0.9614 0 3.926 16.98 13.94 22.99 9.935 17.95 -1.042 -3.044 -11.06 2.964 9.935 33.97
2.65 10.98 8.973 0 -2.003 7.932 11.94 11.94 9.935 5.929 13.94 0.9614 -3.044 -3.044 0 9.935 25.96
2.655 -1.042 4.967 -3.044 -11.06 -2.003 4.967 3.926 -1.042 -2.003 0 -7.05 -13.06 -11.06 -1.042 5.929 11.94
2.66 -13.06 -5.047 -19.07 -29 -23.07 -13.06 -13.06 -19.07 -9.053 -7.05 -15.06 -15.06 -25.08 -9.053 -1.042 1.923
2.665 -9.053 -2.003 -23.07 -23.07 -31.01 -25.08 -21.07 -27.08 -17.06 -5.047 -7.05 -5.047 -25.08 -7.05 -1.042 0
2.67 -7.05 0.9614 -21.07 -12.02 -23.07 -21.07 -11.06 -20.03 -19.07 -8.012 -6.009 -4.006 -23.07 -6.009 1.923 -1.042
2.675 -7.05 0 -23.07 -15.06 -15.06 -17.06 -5.047 -17.06 -17.06 -4.006 -11.06 -5.047 -19.07 -9.053 9.935 3.926
2.68 -1.042 1.923 -17.06 -6.009 -7.05 -15.06 0 -10.01 -9.053 7.932 -2.003 -2.003 -10.01 1.923 18.99 14.98
2.685 2.964 6.97 -6.009 1.923 0.9614 -5.047 16.98 0.9614 0 13.94 -2.003 -1.042 -4.006 3.926 22.99 11.94
2.69 4.967 4.967 -9.053 1.923 0 -3.044 23.96 6.97 7.932 18.99 -6.009 -4.006 -11.06 4.967 15.94 6.97
2.695 8.973 4.967 0 1.923 4.967 -7.05 22.99 7.932 9.935 21.95 1.923 0.9614 -8.012 3.926 8.973 13.94
2.7 6.97 -2.003 -2.003 1.923 5.929 -1.042 21.95 7.932 7.932 19.95 -5.047 -2.003 -11.06 1.923 0 15.94
2.705 -1.042 -1.042 -9.053 3.926 0.9614 -2.003 9.935 13.94 5.929 21.95 -17.06 5.929 -25.08 13.94 -13.06 25.96
2.71 -1.042 0 -13.06 12.98 -15.06 3.926 0 16.98 5.929 34.93 -16.02 12.98 -37.01 27 -33.01 42.94
2.715 8.973 3.926 -11.06 25 -19.07 17.95 -2.003 28.92 0 43.98 -16.02 14.98 -42.06 30.93 -36.05 48.95
2.72 8.973 11.94 -12.02 23.96 -18.03 25.96 1.923 37.98 -5.047 38.94 -17.06 13.94 -50.07 27.96 -44.06 47.99
2.725 0.9614 7.932 -13.06 9.935 -21.07 15.94 -9.053 25.96 -11.06 35.97 -9.053 13.94 -45.03 15.94 -49.03 49.99
2.73 2.964 7.932 -11.06 0.9614 -19.07 5.929 -15.06 16.98 -11.06 31.97 -2.003 8.973 -32.05 4.967 -34.05 52.96
2.735 -1.042 0 -18.03 -9.053 -22.03 -3.044 -14.02 1.923 -9.053 20.99 -11.06 -1.042 -32.05 0 -26.04 38.94
2.74 2.964 -2.003 -18.03 -16.02 -31.01 -17.06 -16.02 -6.009 0 15.94 -2.003 -3.044 -27.08 -10.01 -21.07 23.96
2.745 14.98 0.9614 -12.02 -12.02 -19.07 -14.02 -4.006 -8.012 -1.042 13.94 -1.042 -7.05 -18.03 -16.02 -4.006 21.95
2.75 2.964 -1.042 -17.06 -13.06 -19.07 -12.02 -1.042 -5.047 -1.042 5.929 0.9614 -4.006 -24.04 -14.02 -6.009 14.98
2.755 -9.053 -4.006 -24.04 -18.03 -34.05 -16.02 -8.012 -17.06 0.9614 0.9614 1.923 1.923 -23.07 -22.03 -14.02 4.967
2.76 -11.06 -6.009 -27.08 -16.02 -29 -14.02 -17.06 -14.02 -3.044 0.9614 -2.003 -3.044 -12.02 -19.07 -14.02 9.935
2.765 -9.053 -19.07 -28.04 -20.03 -28.04 -15.06 -24.04 -14.02 -11.06 0.9614 -12.02 -10.01 -14.02 -17.06 -15.06 4.967
2.77 -3.044 -26.04 -26.04 -26.04 -27.08 -21.07 -22.03 -16.02 -16.02 1.923 -8.012 -17.06 -5.047 -24.04 -17.06 -3.044
2.775 -1.042 -23.07 -20.03 -26.04 -14.02 -16.02 -14.02 -10.01 -19.07 1.923 -4.006 -20.03 -3.044 -25.08 -11.06 -1.042
2.78 -9.053 -26.04 -25.08 -28.04 -24.04 -12.02 -23.07 -7.05 -25.08 -1.042 -10.01 -14.02 -19.07 -16.02 -16.02 8.973
2.785 -17.06 -17.06 -28.04 -23.07 -39.02 -10.01 -28.04 -2.003 -24.04 1.923 -4.006 -4.006 -20.03 -7.05 -23.07 2.964
2.79 -9.053 -4.006 -27.08 -6.009 -28.04 0 -31.01 -2.003 -21.07 4.967 0 4.967 -9.053 0.9614 -18.03 12.98
2.795 -1.042 1.923 -14.02 -1.042 -18.03 6.97 -26.04 -1.042 -23.07 5.929 -1.042 16.98 0.9614 15.94 -15.06 25
2.8 12.98 12.98 1.923 4.967 -7.05 15.94 -10.01 -2.003 -12.02 11.94 12.98 29.96 7.932 25 -9.053 27.96
2.805 27 17.95 8.973 2.964 2.964 17.95 0 -2.003 -3.044 17.95 20.99 36.93 10.98 29.96 1.923 36.93
2.81 22.99 18.99 9.935 0.9614 1.923 12.98 -9.053 0 -9.053 12.98 22.99 31.97 1.923 33.97 -4.006 39.98
2.815 22.99 20.99 2.964 2.964 -12.02 2.964 -20.03 0.9614 -5.047 10.98 22.99 27 -3.044 32.93 -8.012 22.99
2.82 16.98 10.98 -3.044 5.929 -21.07 1.923 -29 1.923 -4.006 7.932 15.94 20.99 -6.009 22.99 -8.012 10.98
2.825 4.967 -1.042 -14.02 4.967 -31.01 -4.006 -26.04 -1.042 -8.012 7.932 8.973 15.94 -10.01 12.98 -8.012 19.95
2.83 0.9614 0 -14.02 4.967 -29 0 -8.012 0.9614 -1.042 19.95 10.98 9.935 -3.044 14.98 1.923 23.96
2.835 -3.044 -15.06 -14.02 0.9614 -14.02 0 0.9614 3.926 11.94 30.93 5.929 2.964 0.9614 10.98 25 30.93
2.84 -17.06 -27.08 -21.07 -6.009 -11.06 -1.042 5.929 0.9614 15.94 33.97 2.964 -2.003 2.964 2.964 30.93 34.93
2.845 -23.07 -31.01 -21.07 -11.06 -11.06 -7.05 5.929 -9.053 17.95 25.96 0 -11.06 5.929 -1.042 27.96 29.96
2.85 -25.08 -45.03 -22.03 -19.07 -14.02 -17.06 1.923 -23.07 11.94 12.98 1.923 -13.06 6.97 -13.06 22.99 21.95
2.855 -21.07 -49.03 -21.07 -22.03 -15.06 -25.08 -2.003 -24.04 7.932 13.94 4.967 -8.012 4.967 -18.03 14.98 25
2.86 -5.047 -36.05 -7.05 -14.02 -5.047 -19.07 5.929 -14.02 15.94 22.99 18.99 0 5.929 -6.009 17.95 25
2.865 -1.042 -33.01 0 -15.06 3.926 -7.05 17.95 -1.042 23.96 27.96 23.96 -1.042 9.935 0.9614 27.96 23.96
2.87 8.973 -29 1.923 -17.06 11.94 -1.042 25.96 5.929 27.96 33.97 27.96 -1.042 13.94 -1.042 29.96 23.96
2.875 14.98 -26.04 6.97 -11.06 12.98 0.9614 22.99 1.923 23.96 31.97 31.97 1.923 12.98 5.929 25 21.95
2.88 12.98 -30.04 5.929 -12.02 1.923 -1.042 11.94 -2.003 21.95 27 30.93 -1.042 15.94 4.967 23.96 18.99
2.885 20.99 -18.03 6.97 -4.006 -1.042 -5.047 8.973 0 25.96 35.97 38.94 5.929 22.99 11.94 25 21.95
2.89 27 -13.06 9.935 0.9614 0.9614 -3.044 7.932 -1.042 27.96 39.98 40.94 10.98 18.99 20.99 27 22.99
2.895 18.99 -14.02 11.94 -2.003 -2.003 -2.003 9.935 -2.003 29.96 38.94 35.97 3.926 17.95 17.95 27.96 19.95
2.9 30.93 -6.009 17.95 4.967 3.926 0 17.95 8.973 33.97 46.95 38.94 8.973 27.96 25 33.97 28.92
2.905 38.94 0 25.96 17.95 13.94 5.929 23.96 17.95 39.98 54 35.97 19.95 21.95 37.98 33.97 37.98
2.91 38.94 19.95 33.97 31.97 15.94 17.95 29.96 33.97 52 65.94 35.97 27.96 21.95 41.98 37.98 43.98
2.915 48.95 44.95 39.98 45.99 17.95 30.93 35.97 50.95 61.93 73.95 37.98 33.97 31.97 52 39.98 49.99
2.92 44.95 44.95 39.98 54 21.95 43.98 33.97 55.92 54 69.94 33.97 33.97 25.96 55.92 29.96 47.99
2.925 32.93 37.98 31.97 54 19.95 50.95 25.96 46.95 37.98 57.92 35.97 29.96 17.95 49.99 23.96 35.97
2.93 34.93 41.98 27.96 52 13.94 47.99 20.99 29.96 27.96 46.95 35.97 29.96 7.932 46.95 21.95 30.93
2.935 38.94 50.95 23.96 54 11.94 42.94 15.94 20.99 19.95 33.97 35.97 33.97 -25.08 47.99 19.95 23.96
2.94 36.93 61.93 19.95 57.92 3.926 41.98 4.967 21.95 7.932 25 31.97 34.93 -61.05 42.94 13.94 16.98
2.945 30.93 61.93 17.95 49.99 -7.05 35.97 -3.044 19.95 -2.003 15.94 25.96 31.97 -69.06 41.98 11.94 15.94
2.95 20.99 43.98 11.94 37.98 -13.06 27.96 -11.06 11.94 -7.05 5.929 17.95 31.97 -69.06 37.98 5.929 15.94
2.955 4.967 27 3.926 29.96 -15.06 16.98 -11.06 2.964 -13.06 5.929 15.94 35.97 -61.05 31.97 11.94 13.94
2.96 12.98 0.9614 18.99 -2.003 47.99 2.964 77.95 47.99 85.97 93.98 18.99 1.923 10.98 10.98 37.98 52.96
2.965 -1.042 1.923 15.94 -17.06 39.98 -6.009 76.99 37.98 81.96 86.93 9.935 -4.006 9.935 0 29.96 42.94
2.97 -9.053 -2.003 4.967 -24.04 30.93 -11.06 57.92 29.96 69.94 79.96 -6.009 -7.05 0.9614 -4.006 19.95 37.98
2.975 -23.07 -20.03 -5.047 -29 9.935 -14.02 37.98 25.96 56.96 74.99 -20.03 -8.012 -17.06 -6.009 7.932 35.97
2.98 -41.02 -33.01 -18.03 -28.04 -11.06 -9.053 17.95 16.98 42.94 66.98 -25.08 -8.012 -30.04 -3.044 -3.044 34.93
2.985 -31.01 -27.08 -23.07 -19.07 -25.08 -2.003 1.923 16.98 27 54 -18.03 0.9614 -35.01 4.967 -10.01 31.97
2.99 -9.053 -12.02 -17.06 -7.05 -28.04 2.964 -9.053 21.95 15.94 46.95 -2.003 0.9614 -31.01 14.98 -19.07 34.93
2.995 -7.05 0 -13.06 -1.042 -27.08 11.94 -11.06 25.96 17.95 41.98 -5.047 0 -23.07 15.94 -17.06 31.97
3 -9.053 3.926 -13.06 1.923 -17.06 10.98 -7.05 28.92 28.92 50.95 -12.02 4.967 -19.07 20.99 -6.009 40.94
3.005 -13.06 1.923 -17.06 1.923 -12.02 10.98 1.923 27.96 37.98 64.98 -8.012 8.973 -21.07 14.98 0.9614 42.94
3.01 -23.07 0.9614 -27.08 7.932 -8.012 9.935 11.94 29.96 43.98 70.98 -15.06 4.967 -25.08 15.94 0.9614 39.98
3.015 -23.07 5.929 -31.01 17.95 -9.053 13.94 17.95 39.98 52 73.95 -13.06 3.926 -27.08 23.96 1.923 41.98
3.02 -21.07 3.926 -29 9.935 -11.06 15.94 23.96 43.98 54 75.95 -3.044 1.923 -25.08 19.95 5.929 45.99
3.025 -23.07 -6.009 -27.08 0 -14.02 4.967 23.96 38.94 48.95 64.98 1.923 -4.006 -23.07 10.98 6.97 40.94
3.03 -13.06 -22.03 -11.06 -1.042 -14.02 -9.053 15.94 23.96 35.97 56.96 5.929 -8.012 -11.06 1.923 7.932 37.98
3.035 2.964 -18.03 7.932 -3.044 -2.003 -16.02 13.94 10.98 30.93 58.97 25 -4.006 -2.003 1.923 12.98 34.93
3.04 18.99 4.967 27.96 7.932 14.98 -8.012 17.95 15.94 35.97 62.97 20.99 0 13.94 4.967 19.95 36.93
3.045 27 21.95 37.98 23.96 29.96 0 25.96 29.96 43.98 63.93 9.935 1.923 19.95 19.95 27.96 41.98
3.05 4.967 9.935 23.96 15.94 21.95 7.932 29.96 35.97 47.99 65.94 -1.042 5.929 5.929 17.95 27.96 45.99
3.055 -21.07 -9.053 0.9614 7.932 9.935 5.929 29.96 29.96 43.98 52 -21.07 0 -7.05 11.94 15.94 35.97
3.06 -39.02 -27.08 -13.06 3.926 -2.003 -2.003 21.95 23.96 33.97 35.97 -23.07 0 -13.06 9.935 0 19.95
3.065 -43.02 -28.04 -15.06 0.9614 -3.044 -3.044 15.94 13.94 25.96 31.97 -15.06 0 -15.06 1.923 -5.047 17.95
3.07 -33.01 -20.03 -11.06 -2.003 -2.003 -3.044 17.95 11.94 27.96 33.97 -13.06 0 -15.06 1.923 -7.05 27.96
3.075 -13.06 -11.06 0.9614 1.923 3.926 -2.003 15.94 20.99 27.96 41.98 -6.009 7.932 -10.01 8.973 -6.009 37.98
3.08 -3.044 -6.009 18.99 0.9614 5.929 0.9614 9.935 25 23.96 49.99 -6.009 11.94 -2.003 2.964 -2.003 43.98
3.085 0.9614 0 23.96 7.932 11.94 8.973 5.929 27 23.96 47.99 -11.06 5.929 -1.042 0 -3.044 39.98
3.09 -3.044 2.964 16.98 20.99 11.94 14.98 0 30.93 22.99 43.98 -18.03 0 1.923 6.97 0 35.97
3.095 -21.07 -2.003 0 15.94 0.9614 19.95 -2.003 33.97 25.96 49.99 -27.08 -1.042 -5.047 1.923 -3.044 39.98
3.1 -33.01 -9.053 -17.06 7.932 -11.06 19.95 7.932 29.96 31.97 52 -25.08 -7.05 -21.07 1.923 -7.05 45.99
3.105 -27.08 -8.012 -21.07 3.926 -3.044 10.98 11.94 27 29.96 54 -17.06 -3.044 -23.07 5.929 -11.06 43.98
3.11 -11.06 0.9614 1.923 0.9614 5.929 2.964 17.95 16.98 23.96 52 -2.003 0.9614 -8.012 6.97 -8.012 41.98
3.115 0.9614 10.98 16.98 -2.003 17.95 1.923 19.95 7.932 20.99 37.98 1.923 -1.042 -4.006 -1.042 -4.006 29.96
3.12 -1.042 5.929 11.94 -11.06 19.95 -7.05 11.94 -1.042 11.94 19.95 -9.053 -7.05 -3.044 -3.044 -3.044 19.95
3.125 -19.07 -11.06 4.967 -23.07 9.935 -16.02 5.929 -8.012 15.94 19.95 -20.03 -21.07 -6.009 -10.01 0 17.95
3.13 -35.01 -25.08 -2.003 -20.03 -2.003 -15.06 3.926 0.9614 25 27.96 -20.03 -31.01 -16.02 -12.02 1.923 25.96
3.135 -33.01 -25.08 -7.05 -6.009 -1.042 -7.05 2.964 9.935 23.96 34.93 -17.06 -25.08 -13.06 1.923 0 36.93
3.14 -23.07 -15.06 4.967 0.9614 -1.042 3.926 5.929 13.94 15.94 35.97 -3.044 -17.06 -1.042 3.926 0.9614 41.98
3.145 -5.047 -7.05 16.98 1.923 1.923 14.98 -2.003 12.98 1.923 18.99 0 -13.06 1.923 2.964 -6.009 32.93
3.15 -7.05 -8.012 4.967 -5.047 1.923 4.967 -16.02 0.9614 -8.012 5.929 -1.042 -10.01 -1.042 0 -15.06 17.95
3.155 -29 -22.03 -6.009 -15.06 -4.006 -11.06 -18.03 -11.06 0.9614 22.99 -20.03 -13.06 -12.02 0 -15.06 20.99
3.16 -39.02 -16.02 -24.04 -9.053 -12.02 -15.06 -3.044 8.973 25 54.96 -37.01 -6.009 -29 2.964 -9.053 38.94
3.165 -43.02 -2.003 -39.02 8.973 -16.02 -2.003 16.98 41.98 52 81 -53.04 3.926 -36.05 25.96 -6.009 60.97
3.17 -39.02 10.98 -29 30.93 -18.03 25 41.98 63.93 70.98 96.94 -49.03 21.95 -37.01 41.98 1.923 79
3.175 -17.06 34.93 -12.02 48.95 -5.047 52 61.93 87.97 72.99 93.98 -44.06 28.92 -30.04 48.95 1.923 84.92
3.18 -9.053 37.98 -1.042 54 11.94 67.94 59.93 91.97 59.93 81 -38.06 25 -17.06 49.99 3.926 77.95
3.185 -7.05 33.97 18.99 62.97 23.96 69.94 57.92 75.95 42.94 83.96 -24.04 27 -6.009 52.96 0 74.99
3.19 2.964 44.95 37.98 84.92 34.93 72.99 41.98 73.95 36.93 84.92 -3.044 25.96 5.929 55.92 1.923 79
3.195 18.99 56.96 55.92 98.94 47.99 81.96 28.92 61.93 27.96 74.99 11.94 29.96 20.99 57.92 0 66.98
3.2 30.93 68.98 74.99 93.98 58.97 83.96 21.95 46.95 18.99 64.98 31.97 34.93 27.96 52.96 -1.042 56.96
3.205 46.95 64.98 74.99 69.94 62.97 63.93 20.99 33.97 17.95 44.95 32.93 25.96 28.92 34.93 -7.05 50.95
3.21 46.95 36.93 58.97 21.95 56.96 30.93 10.98 13.94 10.98 33.97 27.96 14.98 19.95 11.94 -9.053 41.98
3.215 36.93 11.94 36.93 -9.053 36.93 -2.003 10.98 0 7.932 38.94 31.97 11.94 11.94 1.923 -6.009 40.94
3.22 20.99 0.9614 4.967 -28.04 2.964 -29 0.9614 -11.06 11.94 45.99 21.95 1.923 0 -7.05 -9.053 52
3.225 0.9614 -19.07 -13.06 -36.05 -20.03 -37.01 -14.02 -11.06 19.95 56.96 1.923 1.923 -9.053 -3.044 -12.02 60.97
3.23 -17.06 -11.06 -20.03 -18.03 -31.01 -23.07 -7.05 7.932 30.93 71.95 -10.01 13.94 -16.02 8.973 -12.02 67.94
3.235 -21.07 -11.06 -22.03 0 -31.01 -6.009 0 34.93 43.98 81.96 -26.04 11.94 -24.04 22.99 -12.02 81.96
3.24 -25.08 -17.06 -15.06 15.94 -21.07 11.94 11.94 52 52 91.97 -25.08 11.94 -21.07 25.96 -3.044 85.97
3.245 -13.06 -8.012 -4.006 27 -7.05 35.97 31.97 63.93 50.95 89.97 -12.02 11.94 -6.009 30.93 -1.042 77.95
3.25 -9.053 -11.06 -8.012 23.96 -9.053 38.94 27.96 50.95 39.98 73.95 -6.009 -3.044 1.923 20.99 0.9614 67.94
3.255 -9.053 -20.03 -9.053 15.94 -11.06 32.93 13.94 30.93 33.97 63.93 -5.047 -9.053 0 9.935 7.932 57.92
3.26 -5.047 -7.05 0.9614 15.94 -1.042 21.95 19.95 23.96 31.97 59.93 -3.044 -3.044 5.929 9.935 7.932 54
3.265 0.9614 0.9614 3.926 9.935 3.926 7.932 21.95 21.95 31.97 65.94 0.9614 -9.053 13.94 5.929 5.929 59.93
3.27 2.964 -4.006 12.98 1.923 15.94 -1.042 19.95 20.99 38.94 73.95 2.964 -7.05 18.99 0.9614 4.967 69.94
3.275 2.964 -4.006 17.95 -13.06 23.96 -4.006 29.96 20.99 41.98 73.95 5.929 -3.044 17.95 -3.044 0.9614 69.94
3.28 10.98 -12.02 14.98 -30.04 21.95 -18.03 25.96 12.98 37.98 69.94 6.97 -9.053 16.98 -12.02 -4.006 65.94
3.285 18.99 -13.06 10.98 -37.01 15.94 -32.05 19.95 12.98 39.98 71.95 6.97 -9.053 6.97 -14.02 -4.006 65.94
3.29 25 0.9614 5.929 -31.01 11.94 -37.01 25.96 17.95 43.98 75.95 3.926 -1.042 -2.003 -13.06 -7.05 65.94
3.295 18.99 12.98 -1.042 -25.08 0 -35.01 19.95 25.96 35.97 75.95 -1.042 -1.042 -5.047 -9.053 -17.06 65.94
3.3 -1.042 3.926 -19.07 -21.07 -15.06 -27.08 1.923 27.96 21.95 69.94 -15.06 -1.042 -21.07 -3.044 -33.01 65.94
3.305 -7.05 7.932 -31.01 -13.06 -37.01 -15.06 -5.047 17.95 11.94 57.92 -17.06 1.923 -35.01 0.9614 -47.03 59.93
3.31 -1.042 20.99 -27.08 -1.042 -41.02 -9.053 -13.06 9.935 5.929 50.95 -15.06 10.98 -33.01 4.967 -47.03 56.96
3.315 12.98 31.97 -5.047 7.932 -27.08 0.9614 -1.042 13.94 17.95 52.96 -7.05 19.95 -19.07 19.95 -29 60.97
3.32 18.99 45.99 3.926 22.99 -8.012 5.929 13.94 22.99 41.98 67.94 0 25 -5.047 22.99 -7.05 69.94
3.325 2.964 27.96 0.9614 14.98 -2.003 7.932 27.96 27 55.92 83.96 -12.02 13.94 -6.009 11.94 -2.003 77.95
3.33 -21.07 -2.003 -19.07 0.9614 -13.06 3.926 33.97 30.93 63.93 103 -28.04 0.9614 -25.08 8.973 -1.042 94.94
3.335 -31.01 -21.07 -45.03 -1.042 -32.05 5.929 31.97 36.93 69.94 113 -36.05 0 -50.07 7.932 -9.053 106
3.34 -33.01 -21.07 -47.03 5.929 -31.01 15.94 37.98 49.99 75.95 113.9 -45.03 5.929 -55.04 11.94 -11.06 113.9
3.345 -17.06 -7.05 -21.07 21.95 -3.044 27.96 59.93 67.94 81.96 108 -33.01 11.94 -35.01 29.96 -1.042 113.9
3.35 0.9614 0.9614 5.929 31.97 23.96 33.97 69.94 68.98 81.96 98.94 -16.02 6.97 -7.05 28.92 7.932 111
3.355 2.964 -1.042 27.96 18.99 48.95 23.96 69.94 50.95 67.94 89.97 -10.01 -4.006 9.935 12.98 21.95 97.98
3.36 14.98 -14.02 44.95 -1.042 60.97 5.929 57.92 27.96 47.99 76.99 1.923 -23.07 30.93 3.926 27.96 82.92
3.365 30.93 -23.07 55.92 -5.047 55.92 -1.042 33.97 5.929 29.96 61.93 19.95 -21.07 45.99 -2.003 23.96 69.94
3.37 34.93 -15.06 69.94 -4.006 50.95 -1.042 11.94 10.98 17.95 55.92 28.92 -8.012 52 1.923 11.94 65.94
3.375 34.93 1.923 76.99 9.935 44.95 1.923 1.923 23.96 11.94 55.92 31.97 0.9614 52.96 5.929 0 66.98
3.38 28.92 6.97 65.94 22.99 31.97 12.98 0.9614 33.97 18.99 64.98 25.96 3.926 40.94 11.94 0 74.99
3.385 14.98 3.926 42.94 18.99 18.99 18.99 3.926 41.98 34.93 79.96 1.923 0.9614 15.94 14.98 0 84.92
3.39 4.967 1.923 27.96 13.94 18.99 20.99 19.95 44.95 43.98 88.93 -5.047 0.9614 7.932 23.96 10.98 96.94
3.395 -1.042 -1.042 21.95 18.99 19.95 20.99 30.93 42.94 52 89.97 -2.003 9.935 15.94 32.93 18.99 105
3.4 0.9614 18.99 22.99 33.97 28.92 30.93 33.97 45.99 45.99 75.95 -1.042 18.99 23.96 34.93 18.99 97.98
3.405 -1.042 42.94 17.95 34.93 32.93 37.98 29.96 47.99 28.92 61.93 0 17.95 29.96 34.93 14.98 88.93
3.41 0.9614 40.94 19.95 28.92 25.96 28.92 13.94 37.98 14.98 55.92 1.923 21.95 25 33.97 4.967 82.92
3.415 18.99 45.99 30.93 19.95 27.96 25.96 3.926 36.93 7.932 54.96 0 10.98 18.99 30.93 -3.044 81
3.42 22.99 35.97 35.97 8.973 31.97 27 0.9614 37.98 4.967 59.93 0 -1.042 13.94 23.96 -11.06 79.96
3.425 10.98 15.94 28.92 1.923 27 18.99 -3.044 28.92 7.932 59.93 -3.044 -2.003 12.98 20.99 -22.03 72.99
3.43 0.9614 17.95 13.94 14.98 19.95 20.99 0 27.96 6.97 49.99 -16.02 0.9614 1.923 15.94 -33.01 61.93
3.435 -11.06 11.94 -6.009 11.94 5.929 21.95 -2.003 18.99 1.923 32.93 -35.01 0 -6.009 6.97 -33.01 48.95
3.44 -23.07 1.923 -21.07 6.97 -3.044 8.973 0 0 8.973 21.95 -29 3.926 -16.02 0 -24.04 44.95
3.445 -15.06 0.9614 -19.07 4.967 -1.042 5.929 13.94 0.9614 10.98 15.94 -22.03 0.9614 -21.07 -4.006 -16.02 44.95
3.45 -15.06 -2.003 -18.03 -9.053 10.98 -1.042 21.95 -1.042 9.935 21.95 -17.06 -12.02 -15.06 -10.01 -6.009 43.98
3.455 -31.01 -16.02 -23.07 -34.05 7.932 -12.02 16.98 -6.009 13.94 35.97 -12.02 -9.053 -5.047 -12.02 0 44.95
3.46 -37.01 -29 -29 -45.03 4.967 -22.03 13.94 -2.003 9.935 34.93 -18.03 -15.06 -3.044 -15.06 -6.009 52.96
3.465 -47.03 -43.02 -34.05 -48.07 0 -24.04 9.935 9.935 10.98 37.98 -27.08 -10.01 -7.05 -14.02 -15.06 56.96
3.47 -41.02 -38.06 -25.08 -30.04 -3.044 -14.02 1.923 29.96 18.99 50.95 -23.07 1.923 -6.009 1.923 -18.03 72.99
3.475 -31.01 -26.04 -14.02 -3.044 4.967 9.935 11.94 54 21.95 61.93 -27.08 -1.042 -10.01 3.926 -19.07 82.92
3.48 -33.01 -21.07 -9.053 6.97 14.98 35.97 29.96 62.97 31.97 69.94 -38.06 -4.006 -15.06 6.97 -13.06 83.96
3.485 -43.02 -15.06 -9.053 11.94 17.95 43.98 39.98 55.92 43.98 71.95 -43.02 -5.047 -17.06 7.932 0.9614 79.96
3.49 -43.02 -16.02 -14.02 10.98 18.99 35.97 52 43.98 43.98 64.98 -46.07 -17.06 -14.02 0 3.926 79
3.495 -35.01 -11.06 -15.06 2.964 10.98 21.95 54 28.92 39.98 57.92 -40.06 -12.02 -9.053 0.9614 5.929 69.94
3.5 -13.06 0.9614 -3.044 3.926 7.932 11.94 29.96 16.98 23.96 50.95 -26.04 -4.006 -1.042 6.97 0 68.98
3.505 0.9614 0 -5.047 -5.047 -2.003 0 0 -2.003 0.9614 33.97 -25.08 -13.06 -5.047 -5.047 -15.06 59.93
3.51 -5.047 -11.06 -15.06 -29 -23.07 -15.06 -23.07 -15.06 -15.06 23.96 -27.08 -13.06 -13.06 -23.07 -31.01 47.99
3.515 -3.044 -15.06 -25.08 -38.06 -44.06 -35.01 -51.03 -24.04 -23.07 22.99 -22.03 -9.053 -20.03 -27.08 -41.02 45.99
3.52 -5.047 -22.03 -41.02 -48.07 -65.06 -47.03 -65.06 -26.04 -27.08 16.98 -22.03 -20.03 -27.08 -36.05 -47.03 44.95
3.525 -9.053 -21.07 -47.03 -48.07 -78.03 -53.04 -69.06 -26.04 -27.08 13.94 -28.04 -11.06 -28.04 -29 -49.03 39.98
3.53 -7.05 -9.053 -43.02 -32.05 -76.03 -51.03 -67.06 -22.03 -25.08 19.95 -28.04 -4.006 -29 -20.03 -49.03 52
3.535 -11.06 -6.009 -47.03 -29 -67.06 -41.02 -57.04 -21.07 -23.07 18.99 -27.08 -15.06 -27.08 -15.06 -45.03 50.95
3.54 -13.06 -10.01 -43.02 -33.01 -53.04 -37.01 -39.02 -19.07 -13.06 12.98 -15.06 -12.02 -23.07 -14.02 -37.01 40.94
3.545 0.9614 -9.053 -33.01 -25.08 -37.01 -25.08 -35.01 -17.06 -13.06 9.935 1.923 -11.06 -17.06 -17.06 -31.01 39.98
3.55 12.98 -5.047 -23.07 -15.06 -29 -11.06 -37.01 -23.07 -19.07 0 17.95 -17.06 -11.06 -25.08 -29 29.96
3.555 16.98 -1.042 -15.06 -9.053 -29 -10.01 -39.02 -26.04 -17.06 1.923 19.95 -13.06 -7.05 -29 -31.01 22.99
3.56 10.98 0.9614 -13.06 -7.05 -31.01 -13.06 -47.03 -27.08 -11.06 9.935 17.95 -13.06 -7.05 -33.01 -31.01 31.97
3.565 12.98 1.923 -7.05 -12.02 -27.08 -20.03 -41.02 -22.03 -2.003 25 13.94 -25.08 -5.047 -30.04 -25.08 46.95
3.57 14.98 -5.047 -3.044 -20.03 -17.06 -27.08 -24.04 -5.047 7.932 34.93 5.929 -19.07 0 -24.04 -22.03 54
3.575 -1.042 -18.03 -11.06 -27.08 -23.07 -26.04 -25.08 0 0 34.93 -2.003 -13.06 -9.053 -22.03 -27.08 54.96
3.58 -3.044 -16.02 -20.03 -18.03 -35.01 -17.06 -22.03 -5.047 -1.042 33.97 0 -7.05 -14.02 -12.02 -30.04 57.92
3.585 -13.06 -7.05 -33.01 -5.047 -33.01 -11.06 -5.047 0 3.926 41.98 -13.06 3.926 -17.06 -2.003 -25.08 57.92
3.59 -33.01 -5.047 -47.03 -3.044 -37.01 -5.047 -1.042 5.929 15.94 54 -23.07 7.932 -27.08 3.926 -17.06 67.94
3.595 -31.01 0 -47.03 -1.042 -31.01 0 3.926 12.98 27.96 56.96 -23.07 7.932 -27.08 7.932 -5.047 81
3.6 -17.06 3.926 -45.03 0 -17.06 -1.042 15.94 21.95 21.95 42.94 -31.01 3.926 -21.07 4.967 -7.05 70.98
3.605 -31.01 0 -52.08 -12.02 -25.08 0.9614 -2.003 4.967 -2.003 23.96 -38.06 0 -32.05 0 -22.03 49.99
3.61 -29 -1.042 -47.03 -9.053 -35.01 -1.042 -17.06 -5.047 -9.053 17.95 -31.01 -2.003 -35.01 -1.042 -31.01 45.99
3.615 -15.06 5.929 -35.01 0 -25.08 0.9614 -13.06 1.923 -7.05 32.93 -33.01 3.926 -27.08 -1.042 -23.07 56.96
3.62 -27.08 0 -32.05 -8.012 -21.07 3.926 -12.02 2.964 0 45.99 -34.05 7.932 -34.05 0.9614 -10.01 69.94
3.625 -25.08 -5.047 -27.08 -13.06 -15.06 5.929 0 4.967 11.94 50.95 -21.07 7.932 -26.04 -4.006 1.923 83.96
3.63 -15.06 -8.012 -23.07 -19.07 4.967 7.932 12.98 9.935 15.94 45.99 -23.07 -2.003 -14.02 -12.02 1.923 76.99
3.635 -25.08 -17.06 -19.07 -32.05 11.94 -1.042 19.95 3.926 13.94 42.94 -21.07 -7.05 -11.06 -23.07 0.9614 55.92
3.64 -17.06 -20.03 -5.047 -32.05 27 -8.012 38.94 8.973 21.95 50.95 -8.012 -15.06 0.9614 -18.03 2.964 55.92
3.645 2.964 -14.02 3.926 -26.04 52 0.9614 52 20.99 27.96 56.96 -5.047 -17.06 11.94 -13.06 7.932 69.94
3.65 -11.06 -17.06 0.9614 -27.08 38.94 0.9614 35.97 20.99 25.96 65.94 -4.006 -13.06 -1.042 -16.02 1.923 77.95
3.655 -13.06 -25.08 -11.06 -23.07 3.926 0.9614 20.99 18.99 13.94 62.97 1.923 -13.06 -4.006 -16.02 0 81.96
3.66 -11.06 -28.04 -22.03 -21.07 -17.06 -2.003 1.923 3.926 0.9614 42.94 -1.042 -15.06 -10.01 -21.07 -6.009 72.99
3.665 -23.07 -40.06 -37.01 -31.01 -45.03 -15.06 -24.04 -9.053 -8.012 28.92 -6.009 -22.03 -21.07 -25.08 -10.01 60.97
3.67 -23.07 -52.08 -42.06 -39.02 -55.04 -24.04 -22.03 -10.01 0.9614 33.97 -3.044 -25.08 -14.02 -22.03 -10.01 69.94
3.675 -7.05 -46.07 -29 -33.01 -29 -23.07 -8.012 1.923 20.99 58.97 -4.006 -20.03 -3.044 -7.05 -2.003 88.93
3.68 -11.06 -28.04 -28.04 -25.08 -15.06 -12.02 4.967 25.96 43.98 84.92 -14.02 -11.06 -6.009 0.9614 -2.003 103
3.685 -15.06 -11.06 -29 -9.053 -7.05 0.9614 25 40.94 54 100.9 -25.08 -1.042 -12.02 4.967 0 108
3.69 -15.06 7.932 -19.07 5.929 4.967 11.94 33.97 42.94 52 93.98 -32.05 0 -14.02 16.98 7.932 104
3.695 -23.07 25 -25.08 20.99 3.926 23.96 33.97 36.93 41.98 74.99 -37.01 7.932 -21.07 21.95 9.935 91.97
3.7 -35.01 10.98 -25.08 22.99 4.967 27 36.93 34.93 33.97 60.97 -42.06 5.929 -22.03 22.99 2.964 87.97
3.705 -23.07 11.94 -9.053 28.92 15.94 29.96 35.97 41.98 33.97 60.97 -35.01 15.94 -11.06 21.95 0 89.97
3.71 -17.06 22.99 -9.053 23.96 20.99 35.97 34.93 43.98 29.96 69.94 -33.01 21.95 -8.012 16.98 -2.003 88.93
3.715 -13.06 21.95 -9.053 9.935 11.94 33.97 22.99 34.93 17.95 56.96 -25.08 17.95 -14.02 6.97 -14.02 75.95
3.72 -1.042 25.96 -4.006 0 3.926 15.94 2.964 4.967 0.9614 27.96 -2.003 15.94 -16.02 0 -18.03 47.99
3.725 16.98 29.96 -5.047 -12.02 -5.047 -2.003 -15.06 -15.06 -19.07 0.9614 13.94 11.94 -9.053 -2.003 -21.07 16.98
3.73 27 11.94 -2.003 -23.07 -7.05 -19.07 -21.07 -29 -29 -11.06 21.95 7.932 -3.044 -7.05 -21.07 -2.003
3.735 38.94 14.98 6.97 -12.02 -1.042 -21.07 -16.02 -24.04 -25.08 -5.047 28.92 19.95 0 -4.006 -18.03 3.926
3.74 40.94 25.96 -5.047 -4.006 -11.06 -10.01 -17.06 -19.07 -17.06 0.9614 19.95 21.95 -9.053 -4.006 -15.06 12.98
3.745 14.98 14.98 -45.03 -19.07 -43.02 -16.02 -27.08 -32.05 -17.06 -1.042 -2.003 9.935 -35.01 -13.06 -25.08 12.98
3.75 -11.06 0.9614 -87.01 -33.01 -91.01 -39.02 -49.03 -55.04 -29 -5.047 -13.06 0 -57.04 -25.08 -39.02 5.929
3.755 -37.01 -15.06 -117.1 -47.03 -125.1 -61.05 -67.06 -73.07 -31.01 -3.044 -21.07 -9.053 -63.05 -31.01 -43.02 3.926
3.76 -53.04 -44.06 -120 -62.01 -125.1 -67.06 -62.01 -63.05 -21.07 5.929 -22.03 -23.07 -58 -30.04 -40.06 13.94
3.765 -61.05 -60.01 -103 -67.06 -103 -60.01 -43.02 -36.05 -5.047 28.92 -19.07 -21.07 -51.03 -24.04 -33.01 34.93
3.77 -47.03 -57.04 -75.07 -58 -71.06 -41.02 -18.03 -5.047 17.95 56.96 -7.05 -23.07 -30.04 -16.02 -6.009 61.93
3.775 -35.01 -49.03 -47.03 -50.07 -33.01 -22.03 1.923 10.98 33.97 62.97 -1.042 -31.01 -9.053 -12.02 9.935 62.97
3.78 -35.01 -44.06 -31.01 -37.01 -9.053 -13.06 17.95 16.98 29.96 54 -5.047 -31.01 -5.047 -9.053 15.94 45.99
3.785 -29 -34.05 -19.07 -19.07 1.923 -6.009 25.96 8.973 21.95 48.95 -5.047 -23.07 0 -5.047 25.96 32.93
3.79 -23.07 -25.08 -11.06 -9.053 15.94 0 37.98 9.935 19.95 41.98 -11.06 -17.06 5.929 0 25.96 19.95
3.795 -29 -21.07 -13.06 -1.042 19.95 7.932 45.99 15.94 21.95 47.99 -19.07 -3.044 -2.003 9.935 21.95 21.95
3.8 -17.06 -6.009 0.9614 15.94 31.97 23.96 47.99 27.96 35.97 68.98 -15.06 2.964 0 25.96 31.97 47.99
3.805 -1.042 1.923 19.95 37.98 49.99 45.99 49.99 49.99 43.98 75.95 -9.053 3.926 5.929 33.97 29.96 65.94
3.81 -1.042 8.973 31.97 48.95 54.96 57.92 41.98 54.96 27.96 56.96 -6.009 4.967 0.9614 32.93 15.94 56.96
3.815 16.98 17.95 49.99 50.95 50.95 59.93 25.96 40.94 3.926 34.93 4.967 8.973 0 36.93 11.94 42.94
3.82 32.93 27 57.92 45.99 44.95 49.99 15.94 25.96 -7.05 12.98 16.98 14.98 11.94 30.93 3.926 20.99
3.825 27 27.96 41.98 34.93 27 33.97 0 14.98 -19.07 1.923 20.99 21.95 9.935 25 0.9614 0
3.83 28.92 33.97 27.96 31.97 7.932 19.95 -11.06 3.926 -23.07 9.935 25.96 29.96 1.923 27.96 -3.044 7.932
3.835 27 41.98 13.94 25.96 -11.06 7.932 -23.07 1.923 -21.07 19.95 19.95 29.96 -5.047 21.95 -15.06 17.95
3.84 14.98 28.92 -7.05 1.923 -38.06 -3.044 -37.01 -5.047 -31.01 8.973 12.98 18.99 -23.07 8.973 -29 4.967
3.845 4.967 16.98 -19.07 -14.02 -54.08 -25.08 -53.04 -28.04 -43.02 -4.006 12.98 8.973 -29 1.923 -33.01 -4.006
3.85 -1.042 17.95 -21.07 -20.03 -51.03 -44.06 -59.05 -42.06 -47.03 -15.06 9.935 9.935 -29 -13.06 -37.01 -17.06
3.855 -3.044 27.96 -19.07 -17.06 -49.03 -47.03 -61.05 -47.03 -55.04 -33.01 3.926 1.923 -29 -21.07 -39.02 -33.01
3.86 -1.042 44.95 -7.05 1.923 -36.05 -33.01 -57.04 -44.06 -57.04 -30.04 2.964 6.97 -27.08 -10.01 -37.01 -32.05
3.865 4.967 47.99 0 4.967 -21.07 -22.03 -43.02 -30.04 -42.06 -15.06 0 9.935 -22.03 -3.044 -31.01 -25.08
3.87 2.964 27.96 2.964 -2.003 -17.06 -13.06 -26.04 -23.07 -31.01 -12.02 1.923 0.9614 -13.06 -3.044 -18.03 -30.04
3.875 -3.044 2.964 0.9614 -12.02 -4.006 -14.02 -11.06 -16.02 -24.04 -7.05 1.923 0.9614 -4.006 -5.047 -7.05 -28.04
3.88 -19.07 -2.003 0 -6.009 4.967 -17.06 2.964 -2.003 -8.012 3.926 0 0 -2.003 -6.009 -2.003 -16.02
3.885 -27.08 1.923 -1.042 3.926 6.97 -7.05 9.935 3.926 0 5.929 -5.047 0 -6.009 0 1.923 -11.06
3.89 -37.01 7.932 -6.009 15.94 2.964 6.97 10.98 10.98 1.923 8.973 -15.06 1.923 -10.01 7.932 -6.009 0
3.895 -29 11.94 -6.009 27 9.935 14.98 14.98 18.99 5.929 17.95 -24.04 0.9614 -7.05 18.99 -2.003 8.973
3.9 -19.07 5.929 0.9614 27 13.94 17.95 16.98 21.95 11.94 18.99 -23.07 1.923 -1.042 19.95 6.97 16.98
3.905 -9.053 2.964 10.98 25 22.99 8.973 27 19.95 12.98 22.99 -19.07 1.923 2.964 11.94 9.935 18.99
3.91 2.964 12.98 27 28.92 34.93 0.9614 37.98 17.95 17.95 30.93 -7.05 -1.042 2.964 14.98 11.94 17.95
3.915 10.98 19.95 32.93 31.97 29.96 1.923 30.93 13.94 14.98 23.96 -5.047 1.923 -1.042 16.98 10.98 9.935
3.92 8.973 22.99 27 30.93 16.98 2.964 23.96 7.932 11.94 16.98 -5.047 4.967 -2.003 14.98 0 -2.003
3.925 8.973 28.92 16.98 32.93 16.98 8.973 22.99 15.94 16.98 22.99 -13.06 14.98 -8.012 13.94 -1.042 0.9614
3.93 8.973 27.96 8.973 28.92 11.94 17.95 27 29.96 27.96 32.93 -15.06 10.98 -7.05 15.94 -1.042 14.98
3.935 2.964 23.96 -1.042 27 9.935 16.98 32.93 40.94 29.96 43.98 -10.01 14.98 -3.044 16.98 2.964 27
3.94 -1.042 19.95 -1.042 25.96 14.98 28.92 42.94 46.95 30.93 50.95 -13.06 10.98 -8.012 23.96 2.964 27
3.945 -3.044 3.926 0 27.96 6.97 31.97 29.96 41.98 22.99 37.98 -17.06 0.9614 -14.02 22.99 1.923 19.95
3.95 -11.06 -1.042 -1.042 27 0.9614 23.96 14.98 28.92 8.973 19.95 -12.02 5.929 -10.01 18.99 0 8.973
3.955 -1.042 1.923 9.935 27 6.97 22.99 13.94 16.98 2.964 9.935 -1.042 4.967 -4.006 15.94 -5.047 1.923
3.96 0.9614 -3.044 18.99 10.98 3.926 21.95 8.973 9.935 5.929 10.98 -1.042 1.923 0.9614 1.923 -8.012 0
3.965 -9.053 -9.053 15.94 0.9614 3.926 0.9614 3.926 8.973 4.967 13.94 0 1.923 0.9614 1.923 -5.047 -2.003
3.97 -5.047 0.9614 13.94 2.964 0.9614 0.9614 7.932 14.98 0 18.99 1.923 6.97 -1.042 -1.042 -5.047 0.9614
3.975 -7.05 9.935 5.929 5.929 -5.047 -3.044 0 13.94 -1.042 11.94 -9.053 7.932 -7.05 3.926 -11.06 1.923
3.98 -3.044 21.95 -2.003 20.99 -7.05 -8.012 -5.047 10.98 -7.05 3.926 0.9614 15.94 -5.047 15.94 -15.06 3.926
3.985 6.97 34.93 5.929 36.93 -2.003 -2.003 0.9614 6.97 -5.047 -1.042 6.97 12.98 -3.044 20.99 -15.06 -2.003
3.99 18.99 34.93 15.94 35.97 1.923 9.935 -2.003 1.923 -2.003 2.964 14.98 6.97 1.923 16.98 -11.06 -6.009
3.995 25 33.97 23.96 37.98 7.932 11.94 0.9614 7.932 1.923 3.926 21.95 1.923 9.935 13.94 0.9614 -1.042
4 40.94 43.98 35.97 39.98 13.94 17.95 1.923 15.94 3.926 7.932 21.95 3.926 11.94 5.929 1.923 -5.047
4.005 40.94 47.99 35.97 32.93 2.964 17.95 0 12.98 0.9614 5.929 10.98 7.932 7.932 2.964 -1.042 -5.047
4.01 22.99 30.93 21.95 21.95 -8.012 7.932 -7.05 0 -11.06 0 0.9614 4.967 -1.042 0.9614 -9.053 -8.012
4.015 22.99 23.96 15.94 16.98 -24.04 -2.003 -7.05 -4.006 -9.053 -2.003 4.967 4.967 -7.05 4.967 -11.06 -10.01
4.02 32.93 25 19.95 12.98 -26.04 0.9614 -1.042 -4.006 -3.044 1.923 10.98 8.973 -1.042 8.973 -7.05 -8.012
4.025 34.93 11.94 11.94 11.94 -19.07 -7.05 -3.044 -7.05 0.9614 0.9614 3.926 3.926 -1.042 0 -1.042 -5.047
4.03 34.93 10.98 9.935 21.95 -17.06 -7.05 0.9614 -5.047 3.926 8.973 0 4.967 -1.042 0 0.9614 -3.044
4.035 20.99 11.94 0 23.96 -15.06 -2.003 3.926 -2.003 1.923 15.94 -7.05 0 -5.047 3.926 -3.044 -1.042
4.04 -3.044 -7.05 -17.06 13.94 -17.06 0 0 1.923 0 15.94 -21.07 -5.047 -13.06 0 -5.047 0
4.045 -11.06 -14.02 -19.07 3.926 -13.06 0.9614 5.929 8.973 15.94 23.96 -15.06 -3.044 -11.06 0.9614 -2.003 7.932
4.05 -9.053 -2.003 -7.05 -2.003 1.923 5.929 23.96 18.99 23.96 27.96 -11.06 0.9614 0 1.923 9.935 9.935
4.055 -11.06 -11.06 -3.044 -4.006 17.95 4.967 36.93 13.94 27.96 20.99 -15.06 -7.05 5.929 -4.006 20.99 10.98
4.06 -19.07 -14.02 2.964 -8.012 23.96 0 40.94 5.929 31.97 20.99 -13.06 -17.06 8.973 -16.02 18.99 2.964
4.065 -27.08 -10.01 5.929 -6.009 25.96 4.967 37.98 8.973 17.95 18.99 -17.06 -29 3.926 -14.02 7.932 -4.006
4.07 -33.01 -18.03 0.9614 -8.012 17.95 1.923 27 13.94 11.94 22.99 -20.03 -35.01 1.923 -11.06 0.9614 0.9614
4.075 -21.07 -7.05 5.929 -1.042 9.935 5.929 25.96 27.96 21.95 37.98 -7.05 -27.08 -1.042 -7.05 0 15.94
4.08 -1.042 11.94 13.94 9.935 15.94 23.96 37.98 39.98 27.96 41.98 -5.047 -19.07 0.9614 -2.003 5.929 15.94
4.085 0.9614 20.99 9.935 15.94 13.94 25 43.98 32.93 31.97 34.93 -9.053 -9.053 0.9614 1.923 9.935 17.95
4.09 6.97 25.96 2.964 6.97 -2.003 11.94 30.93 11.94 25.96 22.99 0.9614 0.9614 -7.05 -8.012 2.964 10.98
4.095 0.9614 27.96 -8.012 -2.003 -26.04 0.9614 4.967 0 3.926 11.94 -2.003 0.9614 -18.03 -17.06 -6.009 -2.003
4.1 -9.053 15.94 -29 -11.06 -51.03 -19.07 -11.06 -7.05 0 7.932 -13.06 -2.003 -25.08 -21.07 -11.06 1.923
4.105 -13.06 15.94 -38.06 -14.02 -47.03 -24.04 0 3.926 11.94 20.99 -13.06 -1.042 -25.08 -14.02 -6.009 14.98
4.11 -17.06 16.98 -38.06 -3.044 -28.04 -12.02 14.98 18.99 17.95 31.97 -14.02 -6.009 -20.03 -15.06 0.9614 13.94
4.115 -13.06 22.99 -20.03 4.967 -3.044 0 37.98 27.96 30.93 39.98 -13.06 0 -8.012 -6.009 12.98 18.99
4.12 -1.042 40.94 4.967 18.99 20.99 9.935 54.96 32.93 38.94 35.97 1.923 10.98 0.9614 0.9614 14.98 22.99
4.125 12.98 43.98 27 29.96 37.98 30.93 46.95 31.97 25 25 9.935 10.98 7.932 0.9614 12.98 13.94
4.13 14.98 48.95 37.98 47.99 37.98 45.99 35.97 27 11.94 15.94 4.967 12.98 18.99 10.98 15.94 13.94
4.135 14.98 55.92 33.97 49.99 44.95 41.98 28.92 25 2.964 -1.042 1.923 8.973 25.96 12.98 9.935 5.929
4.14 10.98 35.97 28.92 37.98 34.93 36.93 16.98 10.98 0.9614 -10.01 0.9614 1.923 20.99 4.967 6.97 -1.042
4.145 0.9614 20.99 25 27 19.95 20.99 7.932 -3.044 -1.042 -3.044 1.923 1.923 16.98 0 6.97 -2.003
4.15 10.98 19.95 25 11.94 16.98 5.929 15.94 -3.044 9.935 0.9614 10.98 -1.042 12.98 0 6.97 3.926
4.155 16.98 6.97 28.92 4.967 14.98 1.923 9.935 1.923 9.935 0.9614 15.94 0 15.94 -2.003 2.964 9.935
4.16 25 0.9614 25.96 4.967 3.926 0.9614 0.9614 0.9614 0 -5.047 10.98 -2.003 15.94 -7.05 0 1.923
4.165 27 0.9614 25 0.9614 4.967 -3.044 -9.053 1.923 -3.044 -13.06 11.94 -2.003 21.95 -6.009 1.923 -3.044
4.17 18.99 -9.053 28.92 1.923 10.98 0.9614 -5.047 -3.044 -1.042 -13.06 14.98 -6.009 20.99 -4.006 -1.042 -3.044
4.175 0.9614 -14.02 22.99 6.97 5.929 -1.042 -7.05 -9.053 0 -11.06 7.932 -13.06 12.98 -8.012 1.923 -4.006
4.18 -1.042 -5.047 12.98 3.926 6.97 0 0.9614 -10.01 3.926 -6.009 8.973 -11.06 12.98 -4.006 6.97 1.923
4.185 2.964 -3.044 11.94 1.923 12.98 -1.042 10.98 -6.009 6.97 -1.042 11.94 -8.012 15.94 0 7.932 9.935
4.19 10.98 2.964 5.929 3.926 0 -1.042 1.923 -6.009 3.926 0.9614 0.9614 -2.003 12.98 -8.012 1.923 7.932
4.195 14.98 15.94 2.964 0 0 -6.009 6.97 -1.042 12.98 6.97 1.923 4.967 11.94 0 12.98 13.94
4.2 8.973 14.98 4.967 0.9614 10.98 1.923 22.99 10.98 25 15.94 -1.042 2.964 10.98 0 22.99 20.99
4.205 -9.053 -1.042 -1.042 2.964 11.94 12.98 23.96 19.95 22.99 9.935 -25.08 -7.05 0 -4.006 12.98 12.98
4.21 -19.07 -2.003 -1.042 1.923 14.98 14.98 32.93 27 25.96 15.94 -26.04 -6.009 1.923 0 20.99 19.95
4.215 -3.044 -5.047 18.99 10.98 31.97 28.92 42.94 37.98 31.97 20.99 -13.06 -1.042 15.94 6.97 32.93 28.92
4.22 2.964 0.9614 33.97 21.95 43.98 35.97 39.98 33.97 27.96 13.94 -1.042 -1.042 21.95 1.923 25.96 21.95
4.225 10.98 15.94 44.95 20.99 50.95 29.96 36.93 30.93 21.95 13.94 12.98 5.929 30.93 1.923 30.93 16.98
4.23 12.98 13.94 38.94 14.98 45.99 23.96 30.93 23.96 13.94 10.98 9.935 1.923 33.97 -4.006 28.92 10.98
4.235 -1.042 0.9614 15.94 5.929 17.95 10.98 9.935 6.97 3.926 2.964 0.9614 -1.042 15.94 -18.03 3.926 3.926
4.24 -7.05 5.929 0 0.9614 -3.044 -1.042 1.923 1.923 7.932 11.94 -3.044 0 1.923 -13.06 0 9.935
4.245 -1.042 3.926 -1.042 -5.047 -13.06 -7.05 5.929 0 21.95 23.96 0.9614 0.9614 3.926 -13.06 9.935 15.94
4.25 2.964 8.973 -6.009 -6.009 -17.06 -11.06 20.99 0.9614 29.96 27 0 -3.044 2.964 -11.06 10.98 22.99
4.255 2.964 27 -11.06 -6.009 -11.06 -20.03 35.97 -1.042 39.98 30.93 -2.003 0.9614 0.9614 -4.006 19.95 28.92
4.26 6.97 18.99 -12.02 -10.01 -5.047 -21.07 44.95 0 45.99 30.93 -1.042 -7.05 1.923 -4.006 25 32.93
4.265 2.964 7.932 -13.06 -4.006 -1.042 -16.02 44.95 7.932 41.98 28.92 -5.047 -9.053 -1.042 0 16.98 38.94
4.27 0.9614 6.97 -1.042 1.923 5.929 -5.047 39.98 14.98 39.98 25.96 -2.003 0.9614 -2.003 0 23.96 31.97
4.275 -1.042 -2.003 3.926 3.926 19.95 8.973 27.96 10.98 33.97 21.95 0 -7.05 7.932 -1.042 29.96 21.95
4.28 0.9614 -1.042 11.94 7.932 25.96 15.94 21.95 9.935 25.96 15.94 0.9614 -7.05 17.95 1.923 23.96 19.95
4.285 0.9614 7.932 17.95 19.95 25.96 19.95 21.95 9.935 21.95 11.94 -1.042 0.9614 17.95 3.926 23.96 21.95
4.29 2.964 14.98 17.95 23.96 22.99 21.95 21.95 9.935 19.95 14.98 -9.053 -3.044 15.94 7.932 19.95 23.96
4.295 0.9614 17.95 17.95 21.95 19.95 21.95 23.96 21.95 19.95 13.94 -13.06 -3.044 21.95 11.94 19.95 25.96
4.3 -5.047 8.973 15.94 13.94 25 25 25.96 28.92 19.95 14.98 -6.009 -2.003 17.95 8.973 27.96 16.98
4.305 -11.06 -6.009 11.94 2.964 27 22.99 23.96 20.99 19.95 14.98 -6.009 -14.02 15.94 2.964 27.96 10.98
4.31 -7.05 -10.01 9.935 0.9614 28.92 17.95 23.96 25.96 19.95 18.99 -7.05 -16.02 17.95 -1.042 21.95 18.99
4.315 -9.053 -5.047 9.935 0.9614 27.96 16.98 29.96 27 17.95 19.95 -2.003 -12.02 9.935 -2.003 17.95 20.99
4.32 -7.05 0 7.932 7.932 17.95 11.94 23.96 17.95 11.94 11.94 -5.047 -19.07 9.935 -1.042 19.95 13.94
4.325 -1.042 17.95 7.932 11.94 17.95 0 21.95 15.94 11.94 5.929 -7.05 -21.07 15.94 0.9614 19.95 7.932
4.33 0.9614 20.99 13.94 11.94 20.99 -1.042 21.95 9.935 17.95 8.973 0 -14.02 13.94 -2.003 23.96 4.967
4.335 10.98 20.99 23.96 19.95 20.99 0.9614 27.96 12.98 21.95 14.98 8.973 -16.02 19.95 -1.042 23.96 12.98
4.34 22.99 23.96 22.99 25 21.95 8.973 29.96 27 29.96 25.96 6.97 -11.06 27.96 4.967 21.95 25.96
4.345 4.967 11.94 7.932 21.95 19.95 19.95 33.97 37.98 37.98 27.96 7.932 -9.053 21.95 1.923 19.95 23.96
4.35 -3.044 4.967 0 17.95 12.98 34.93 33.97 46.95 37.98 30.93 0.9614 -12.02 21.95 4.967 19.95 18.99
4.355 2.964 7.932 4.967 18.99 15.94 38.94 41.98 50.95 41.98 31.97 1.923 -13.06 25.96 13.94 27 21.95
4.36 12.98 5.929 25.96 16.98 38.94 43.98 59.93 54.96 54.96 38.94 11.94 -13.06 32.93 8.973 37.98 21.95
4.365 34.93 4.967 52 7.932 57.92 42.94 70.98 49.99 57.92 40.94 15.94 -27.08 42.94 0 48.95 20.99
4.37 38.94 -4.006 52 -5.047 61.93 22.99 74.99 28.92 56.96 37.98 14.98 -42.06 42.94 -17.06 50.95 12.98
4.375 10.98 -29 33.97 -27.08 54.96 1.923 70.98 11.94 49.99 25 15.94 -49.03 31.97 -37.01 48.95 7.932
4.38 0.9614 -48.07 15.94 -51.03 34.93 -18.03 52.96 -5.047 40.94 12.98 4.967 -55.04 27 -51.03 36.93 -1.042
4.385 -9.053 -58 0 -59.05 13.94 -36.05 31.97 -24.04 25 -1.042 -4.006 -51.03 19.95 -51.03 17.95 0
4.39 -23.07 -56 -15.06 -56 -1.042 -47.03 5.929 -26.04 14.98 -6.009 -3.044 -43.02 6.97 -48.07 11.94 -7.05
4.395 -23.07 -44.06 -30.04 -54.08 -16.02 -43.02 -16.02 -26.04 0.9614 -18.03 -13.06 -38.06 -2.003 -49.03 -1.042 -16.02
4.4 -37.01 -47.03 -49.03 -53.04 -41.02 -46.07 -36.05 -33.01 -8.012 -28.04 -36.05 -40.06 -13.06 -42.06 -7.05 -32.05
4.405 -63.05 -50.07 -61.05 -46.07 -48.07 -48.07 -36.05 -28.04 -5.047 -26.04 -47.03 -31.01 -26.04 -27.08 -8.012 -23.07
4.41 -69.06 -39.02 -53.04 -41.02 -41.02 -36.05 -20.03 -19.07 6.97 -12.02 -50.07 -26.04 -25.08 -22.03 0.9614 -10.01
4.415 -77.07 -42.06 -46.07 -30.04 -30.04 -23.07 -6.009 -20.03 14.98 -4.006 -59.05 -30.04 -31.01 -21.07 0 -8.012
4.42 -75.07 -44.06 -43.02 -24.04 -22.03 -23.07 1.923 -14.02 22.99 1.923 -49.03 -25.08 -34.05 -16.02 0.9614 -2.003
4.425 -59.05 -38.06 -40.06 -25.08 -19.07 -16.02 0 -6.009 28.92 2.964 -34.05 -23.07 -25.08 -17.06 0 6.97
4.43 -41.02 -38.06 -39.02 -25.08 -24.04 -6.009 -1.042 -3.044 20.99 1.923 -26.04 -31.01 -20.03 -15.06 2.964 1.923
4.435 -23.07 -29 -23.07 -15.06 -16.02 0 4.967 9.935 27.96 6.97 -3.044 -25.08 -1.042 -5.047 20.99 5.929
4.44 2.964 -2.003 1.923 0.9614 5.929 14.98 22.99 22.99 42.94 15.94 8.973 -10.01 20.99 0 42.94 14.98
4.445 2.964 2.964 15.94 15.94 27.96 32.93 27 27.96 37.98 4.967 3.926 -13.06 28.92 1.923 42.94 0
4.45 4.967 3.926 19.95 27 36.93 25.96 31.97 20.99 38.94 -1.042 0 -3.044 25 1.923 37.98 -11.06
4.455 12.98 13.94 25 32.93 49.99 27 39.98 20.99 49.99 1.923 2.964 1.923 27.96 5.929 42.94 -5.047
4.46 18.99 12.98 29.96 31.97 56.96 36.93 41.98 14.98 52 0 12.98 -2.003 25.96 4.967 41.98 -16.02
4.465 38.94 15.94 45.99 31.97 49.99 29.96 37.98 3.926 54 -1.042 27.96 -1.042 33.97 3.926 45.99 -15.06
4.47 56.96 31.97 60.97 28.92 49.99 22.99 37.98 2.964 55.92 0 38.94 1.923 47.99 8.973 49.99 -3.044
4.475 46.95 20.99 45.99 9.935 34.93 14.98 25.96 0 41.98 -6.009 28.92 -4.006 41.98 -1.042 39.98 -8.012
4.48 25 -2.003 13.94 -5.047 6.97 0.9614 13.94 -7.05 35.97 -2.003 9.935 -10.01 23.96 -6.009 27.96 -12.02
4.485 4.967 -21.07 -1.042 -13.06 0.9614 -9.053 13.94 0.9614 41.98 3.926 -2.003 -11.06 13.94 -7.05 23.96 -1.042
4.49 -19.07 -35.01 -15.06 -17.06 -3.044 0.9614 15.94 7.932 43.98 5.929 -5.047 -17.06 0 -9.053 21.95 -3.044
4.495 -37.01 -35.01 -19.07 -14.02 -3.044 1.923 15.94 12.98 45.99 5.929 -12.02 -24.04 0.9614 -12.02 21.95 -10.01
4.5 -41.02 -32.05 -17.06 -9.053 4.967 0.9614 25.96 13.94 45.99 -1.042 -21.07 -30.04 7.932 -10.01 25.96 -14.02
4.505 -57.04 -42.06 -21.07 -18.03 16.98 1.923 33.97 8.973 39.98 -6.009 -22.03 -40.06 9.935 -12.02 29.96 -22.03
4.51 -63.05 -54.08 -21.07 -31.01 20.99 -4.006 33.97 -6.009 41.98 -14.02 -16.02 -42.06 9.935 -22.03 33.97 -32.05
4.515 -51.03 -53.04 -7.05 -27.08 25.96 -11.06 33.97 -25.08 41.98 -21.07 -5.047 -33.01 17.95 -31.01 33.97 -37.01
4.52 -39.02 -38.06 0 -25.08 27 -17.06 25.96 -35.01 37.98 -26.04 1.923 -31.01 17.95 -33.01 29.96 -41.02
4.525 -35.01 -25.08 3.926 -25.08 17.95 -23.07 15.94 -37.01 35.97 -25.08 5.929 -33.01 13.94 -35.01 27.96 -41.02
4.53 -35.01 -19.07 -3.044 -21.07 5.929 -25.08 0 -35.01 21.95 -29 -1.042 -31.01 3.926 -39.02 15.94 -43.02
4.535 -43.02 -18.03 -25.08 -27.08 -11.06 -24.04 -11.06 -28.04 9.935 -35.01 -11.06 -27.08 -9.053 -35.01 5.929 -47.03
4.54 -39.02 -18.03 -35.01 -29 -29 -23.07 -23.07 -23.07 7.932 -35.01 -13.06 -15.06 -21.07 -25.08 3.926 -47.03
4.545 -17.06 -9.053 -34.05 -16.02 -37.01 -4.006 -29 -18.03 0.9614 -44.06 -12.02 -1.042 -26.04 -14.02 1.923 -52.08
4.55 0.9614 -2.003 -36.05 0 -47.03 3.926 -28.04 -9.053 0.9614 -42.06 -10.01 -2.003 -30.04 0 -2.003 -46.07
4.555 0.9614 0.9614 -37.01 1.923 -35.01 8.973 -17.06 -1.042 11.94 -27.08 -9.053 -2.003 -31.01 2.964 1.923 -35.01
4.56 -11.06 0.9614 -36.05 2.964 -21.07 23.96 -6.009 0.9614 11.94 -26.04 -22.03 -2.003 -36.05 1.923 0.9614 -36.05
4.565 -27.08 -5.047 -37.01 -5.047 -15.06 13.94 -5.047 -9.053 11.94 -29 -31.01 -5.047 -39.02 -7.05 0.9614 -39.02
4.57 -19.07 -7.05 -21.07 -15.06 -5.047 -3.044 0.9614 -15.06 15.94 -23.07 -23.07 -5.047 -31.01 -13.06 5.929 -39.02
4.575 -1.042 -10.01 -3.044 -23.07 0.9614 -8.012 -1.042 -22.03 5.929 -29 -15.06 -5.047 -23.07 -18.03 9.935 -37.01
4.58 4.967 -25.08 1.923 -34.05 -11.06 -26.04 -4.006 -31.01 7.932 -26.04 0 -19.07 -10.01 -28.04 16.98 -30.04
4.585 8.973 -27.08 2.964 -38.06 -1.042 -47.03 2.964 -29 29.96 -6.009 14.98 -19.07 0.9614 -29 36.93 -20.03
4.59 0.9614 -33.01 9.935 -41.02 9.935 -41.02 21.95 -17.06 43.98 -2.003 13.94 -19.07 7.932 -27.08 47.99 -15.06
4.595 -7.05 -39.02 6.97 -36.05 17.95 -34.05 38.94 -1.042 54 6.97 6.97 -31.01 12.98 -20.03 46.95 -10.01
4.6 -9.053 -33.01 6.97 -20.03 35.97 -24.04 56.96 10.98 63.93 20.99 4.967 -29 20.99 -17.06 56.96 -4.006
4.605 -7.05 -29 9.935 -9.053 40.94 0.9614 64.98 25 62.97 13.94 1.923 -18.03 19.95 -11.06 63.93 -8.012
4.61 -11.06 -35.01 1.923 -2.003 33.97 15.94 62.97 33.97 52.96 12.98 1.923 -15.06 11.94 -1.042 49.99 -12.02
4.615 -11.06 -24.04 4.967 12.98 28.92 30.93 59.93 44.95 54 22.99 14.98 0 12.98 1.923 46.95 -8.012
4.62 -17.06 -17.06 7.932 18.99 21.95 43.98 56.96 52 55.92 22.99 14.98 6.97 13.94 12.98 48.95 -3.044
4.625 -29 -15.06 1.923 20.99 12.98 47.99 49.99 44.95 52 14.98 8.973 4.967 8.973 15.94 38.94 -7.05
4.63 -27.08 0.9614 -10.01 27.96 0.9614 44.95 38.94 32.93 42.94 5.929 5.929 6.97 2.964 8.973 34.93 -10.01
4.635 -21.07 0.9614 -9.053 13.94 -8.012 31.97 16.98 12.98 28.92 -11.06 7.932 6.97 -1.042 5.929 31.97 -28.04
4.64 -15.06 -5.047 -11.06 5.929 -12.02 21.95 -1.042 -1.042 9.935 -21.07 8.973 1.923 -7.05 0 9.935 -36.05
4.645 0.9614 -11.06 -12.02 -1.042 -12.02 10.98 -6.009 -6.009 0.9614 -24.04 12.98 -2.003 -10.01 -6.009 -1.042 -33.01
4.65 -1.042 -25.08 -9.053 -25.08 -13.06 -4.006 -16.02 -14.02 3.926 -31.01 6.97 -10.01 0.9614 -17.06 5.929 -40.06
4.655 -7.05 -41.02 -18.03 -46.07 -10.01 -26.04 -4.006 -22.03 4.967 -42.06 -1.042 -27.08 0.9614 -28.04 8.973 -47.03
4.66 -21.07 -39.02 -19.07 -49.03 -8.012 -33.01 2.964 -25.08 0 -49.03 -2.003 -39.02 1.923 -43.02 23.96 -60.01
4.665 -29 -47.03 -23.07 -57.04 -12.02 -45.03 4.967 -34.05 0 -55.04 -7.05 -38.06 -5.047 -45.03 31.97 -72.03
4.67 -41.02 -41.02 -44.06 -47.03 -18.03 -42.06 0.9614 -40.06 0 -51.03 -17.06 -28.04 -28.04 -42.06 25 -68.02
4.675 -45.03 -27.08 -62.01 -34.05 -38.06 -27.08 -11.06 -36.05 -3.044 -46.07 -24.04 -16.02 -46.07 -41.02 14.98 -61.05
4.68 -43.02 -31.01 -74.03 -38.06 -67.06 -23.07 -34.05 -39.02 -1.042 -46.07 -38.06 -18.03 -56 -38.06 -1.042 -57.04
4.685 -53.04 -36.05 -84.04 -40.06 -84.04 -30.04 -49.03 -38.06 -2.003 -42.06 -52.08 -24.04 -68.02 -38.06 -8.012 -56
4.69 -59.05 -49.03 -77.07 -42.06 -83 -27.08 -48.07 -25.08 2.964 -34.05 -67.06 -37.01 -71.06 -41.02 -7.05 -54.08
4.695 -63.05 -65.06 -63.05 -55.04 -64.01 -29 -38.06 -18.03 8.973 -29 -66.02 -52.08 -57.04 -43.02 1.923 -46.07
4.7 -65.06 -77.07 -64.01 -70.02 -45.03 -30.04 -22.03 -20.03 13.94 -28.04 -58 -57.04 -52.08 -45.03 2.964 -38.06
4.705 -63.05 -83 -54.08 -76.03 -25.08 -28.04 -4.006 -19.07 11.94 -32.05 -50.07 -63.05 -38.06 -48.07 12.98 -42.06
4.71 -59.05 -87.01 -31.01 -77.07 -7.05 -37.01 5.929 -21.07 13.94 -35.01 -31.01 -63.05 -13.06 -49.03 23.96 -55.04
4.715 -51.03 -81.08 -20.03 -64.01 0 -37.01 18.99 -23.07 23.96 -30.04 -18.03 -61.05 -2.003 -47.03 28.92 -58
4.72 -41.02 -83 -12.02 -52.08 11.94 -30.04 18.99 -23.07 29.96 -26.04 -14.02 -63.05 -1.042 -54.08 38.94 -62.01
4.725 -39.02 -80.04 -11.06 -53.04 1.923 -36.05 11.94 -30.04 29.96 -29 -7.05 -63.05 -2.003 -58 35.97 -61.05
4.73 -39.02 -77.07 -23.07 -61.05 -15.06 -41.02 -1.042 -39.02 23.96 -31.01 -9.053 -53.04 -13.06 -61.05 23.96 -57.04
4.735 -35.01 -75.07 -23.07 -63.05 -21.07 -47.03 -13.06 -43.02 11.94 -35.01 -17.06 -45.03 -13.06 -55.04 15.94 -61.05
4.74 -27.08 -64.01 -8.012 -54.08 -15.06 -49.03 -8.012 -37.01 9.935 -34.05 -4.006 -31.01 -1.042 -40.06 16.98 -62.01
4.745 -11.06 -46.07 -2.003 -39.02 0.9614 -38.06 0.9614 -26.04 13.94 -35.01 -2.003 -11.06 5.929 -22.03 21.95 -57.04
4.75 6.97 -32.05 8.973 -18.03 15.94 -23.07 8.973 -19.07 9.935 -46.07 2.964 -7.05 16.98 -14.02 28.92 -60.01
4.755 14.98 -15.06 12.98 -10.01 19.95 -18.03 15.94 -22.03 1.923 -58 8.973 -3.044 20.99 -12.02 32.93 -68.02
4.76 18.99 0 3.926 -7.05 7.932 -13.06 1.923 -30.04 -5.047 -73.07 1.923 -2.003 5.929 -7.05 19.95 -75.07
4.765 10.98 -4.006 -1.042 -3.044 -3.044 -12.02 -13.06 -48.07 -21.07 -87.01 -3.044 -2.003 -1.042 -9.053 3.926 -85
4.77 -1.042 -3.044 -9.053 -5.047 -19.07 -23.07 -35.01 -61.05 -27.08 -91.01 -9.053 -2.003 -9.053 -13.06 -3.044 -93.02
4.775 0.9614 -2.003 -13.06 -11.06 -29 -27.08 -49.03 -65.06 -23.07 -87.01 -13.06 0 -27.08 -13.06 -7.05 -85
4.78 2.964 1.923 -9.053 -19.07 -23.07 -27.08 -39.02 -57.04 -9.053 -72.03 -9.053 -4.006 -29 -20.03 0.9614 -72.03
4.785 10.98 0.9614 -1.042 -31.01 -5.047 -31.01 -13.06 -39.02 7.932 -54.08 0 -19.07 -15.06 -33.01 19.95 -71.06
4.79 14.98 4.967 0.9614 -36.05 12.98 -33.01 3.926 -26.04 21.95 -43.02 4.967 -22.03 -1.042 -36.05 43.98 -63.05
4.795 10.98 5.929 -2.003 -28.04 22.99 -27.08 21.95 -20.03 23.96 -39.02 10.98 -22.03 12.98 -36.05 57.92 -59.05
4.8 6.97 6.97 -1.042 -22.03 21.95 -25.08 19.95 -18.03 13.94 -44.06 12.98 -26.04 17.95 -40.06 57.92 -70.02
4.805 6.97 7.932 -2.003 -16.02 16.98 -23.07 7.932 -20.03 0 -49.03 10.98 -25.08 12.98 -35.01 52 -69.06
4.81 14.98 0.9614 11.94 -11.06 13.94 -13.06 5.929 -19.07 0 -43.02 21.95 -25.08 9.935 -27.08 45.99 -61.05
4.815 27 -3.044 29.96 -7.05 29.96 -7.05 15.94 -7.05 11.94 -35.01 29.96 -23.07 9.935 -21.07 47.99 -59.05
4.82 22.99 -6.009 37.98 -3.044 47.99 0.9614 29.96 -2.003 25.96 -26.04 18.99 -16.02 9.935 -12.02 55.92 -50.07
4.825 12.98 -2.003 43.98 4.967 62.97 9.935 47.99 2.964 41.98 -11.06 14.98 -6.009 11.94 -2.003 63.93 -39.02
4.83 18.99 7.932 49.99 14.98 74.99 23.96 69.94 19.95 52 -10.01 15.94 -1.042 14.98 1.923 71.95 -46.07
4.835 32.93 9.935 54 13.94 75.95 27.96 75.95 17.95 47.99 -15.06 13.94 0.9614 21.95 -1.042 73.95 -53.04
4.84 48.95 6.97 59.93 12.98 68.98 23.96 65.94 10.98 35.97 -25.08 28.92 -2.003 29.96 0 69.94 -57.04
4.845 56.96 1.923 49.99 3.926 55.92 9.935 47.99 0 25.96 -42.06 33.97 -11.06 25 -13.06 52 -70.02
4.85 40.94 -5.047 21.95 -8.012 22.99 0 22.99 -11.06 12.98 -47.03 19.95 -14.02 8.973 -18.03 34.93 -71.06
4.855 10.98 -9.053 -3.044 -15.06 -7.05 -7.05 -1.042 -9.053 7.932 -33.01 14.98 -19.07 0 -12.02 27.96 -67.06
4.86 -1.042 0.9614 -23.07 -17.06 -21.07 -8.012 -6.009 -4.006 10.98 -29 12.98 -13.06 -15.06 -9.053 28.92 -63.05
4.865 0.9614 0.9614 -29 -20.03 -30.04 -6.009 -11.06 -10.01 0.9614 -39.02 6.97 -4.006 -19.07 -16.02 25.96 -71.06
4.87 2.964 1.923 -21.07 -17.06 -27.08 -14.02 -18.03 -27.08 -12.02 -66.02 11.94 -8.012 -17.06 -18.03 25 -86.05
4.875 12.98 7.932 -3.044 -8.012 -18.03 -19.07 -23.07 -40.06 -22.03 -85 23.96 -7.05 -19.07 -24.04 18.99 -99.02
4.88 18.99 9.935 5.929 0 -10.01 -16.02 -20.03 -45.03 -26.04 -85 21.95 -6.009 -12.02 -22.03 10.98 -93.02
4.885 10.98 8.973 17.95 1.923 -1.042 -15.06 -17.06 -39.02 -19.07 -67.06 16.98 -12.02 -14.02 -16.02 8.973 -85
4.89 4.967 13.94 22.99 0.9614 4.967 -15.06 -15.06 -28.04 -5.047 -48.07 4.967 -5.047 -18.03 -14.02 7.932 -66.02
4.895 -7.05 5.929 2.964 -3.044 -1.042 -18.03 -10.01 -25.08 -1.042 -40.06 -11.06 0 -19.07 -17.06 6.97 -57.04
4.9 -23.07 -1.042 -21.07 -22.03 -20.03 -29 -17.06 -24.04 0 -44.06 -20.03 0.9614 -30.04 -20.03 13.94 -68.02
4.905 -29 -8.012 -31.01 -33.01 -31.01 -39.02 -23.07 -33.01 1.923 -49.03 -12.02 4.967 -32.05 -20.03 28.92 -77.07
4.91 -27.08 -7.05 -29 -26.04 -26.04 -28.04 -16.02 -35.01 0.9614 -55.04 -5.047 8.973 -16.02 -22.03 40.94 -83
4.915 -15.06 -1.042 -11.06 -16.02 -8.012 -21.07 -5.047 -34.05 -2.003 -63.05 3.926 3.926 -7.05 -18.03 48.95 -93.02
4.92 2.964 15.94 17.95 0 9.935 -12.02 -1.042 -31.01 -2.003 -64.01 19.95 4.967 3.926 -14.02 54.96 -84.04
4.925 6.97 25.96 33.97 12.98 25 0 9.935 -10.01 8.973 -43.02 22.99 6.97 15.94 -2.003 61.93 -63.05
4.93 10.98 21.95 41.98 23.96 43.98 10.98 32.93 14.98 36.93 -9.053 30.93 7.932 21.95 7.932 79 -41.02
4.935 20.99 21.95 61.93 29.96 65.94 33.97 62.97 45.99 61.93 17.95 36.93 9.935 34.93 20.99 95.98 -19.07
4.94 32.93 13.94 65.94 25 79 48.95 81 59.93 68.98 27.96 37.98 6.97 44.95 18.99 105 -7.05
4.945 36.93 -2.003 63.93 9.935 81.96 43.98 79.96 49.99 59.93 10.98 52 0 52.96 5.929 102 -20.03
4.95 46.95 0 65.94 8.973 68.98 21.95 71.95 22.99 45.99 -5.047 56.96 1.923 52 -1.042 97.98 -33.01
4.955 48.95 5.929 59.93 13.94 55.92 3.926 61.93 1.923 41.98 -17.06 49.99 -3.044 49.99 0 93.98 -43.02
4.96 44.95 17.95 52 27 54.96 5.929 59.93 0 47.99 -14.02 52 -1.042 42.94 9.935 91.97 -40.06
4.965 56.96 36.93 57.92 44.95 60.97 21.95 63.93 10.98 49.99 -9.053 50.95 0.9614 33.97 16.98 81.96 -37.01
4.97 60.97 48.95 59.93 41.98 55.92 33.97 57.92 20.99 45.99 -2.003 56.96 10.98 29.96 20.99 67.94 -34.05
4.975 58.97 33.97 54 21.95 47.99 33.97 39.98 25.96 37.98 -7.05 57.92 19.95 31.97 11.94 47.99 -33.01
4.98 56.96 21.95 52 11.94 37.98 23.96 27.96 23.96 27.96 -11.06 55.92 19.95 29.96 5.929 33.97 -37.01
4.985 40.94 19.95 41.98 12.98 22.99 11.94 19.95 20.99 21.95 -15.06 38.94 17.95 22.99 7.932 31.97 -35.01
4.99 20.99 16.98 17.95 16.98 9.935 13.94 7.932 8.973 11.94 -24.04 14.98 14.98 5.929 4.967 29.96 -38.06
4.995 6.97 19.95 0 28.92 1.923 13.94 0 1.923 -2.003 -45.03 6.97 12.98 -4.006 0.9614 21.95 -55.04
5 0.9614 18.99 -3.044 28.92 -12.02 3.926 -15.06 -14.02 -13.06 -61.05 8.973 18.99 -15.06 2.964 15.94 -65.06
5.005 -11.06 9.935 -11.06 27.96 -19.07 0 -27.08 -25.08 -23.07 -70.02 0 15.94 -17.06 1.923 9.935 -66.02
5.01 -13.06 6.97 -7.05 33.97 -17.06 0 -21.07 -21.07 -21.07 -64.01 1.923 8.973 -11.06 6.97 9.935 -68.02
5.015 -19.07 -2.003 0.9614 25.96 -7.05 5.929 -11.06 -13.06 -11.06 -59.05 1.923 3.926 -3.044 3.926 25.96 -69.06
5.02 -23.07 -5.047 3.926 9.935 3.926 15.94 -1.042 -9.053 -7.05 -53.04 -3.044 0 -2.003 0.9614 35.97 -71.06
5.025 -13.06 -12.02 17.95 -3.044 17.95 8.973 0 -8.012 -5.047 -52.08 -2.003 -2.003 1.923 -10.01 35.97 -81.08
5.03 -1.042 -12.02 29.96 -23.07 23.96 -7.05 -1.042 -16.02 -9.053 -57.04 9.935 1.923 3.926 -23.07 31.97 -81.08
5.035 12.98 1.923 32.93 -22.03 13.94 -18.03 -8.012 -25.08 -11.06 -48.07 8.973 5.929 0.9614 -18.03 22.99 -62.01
5.04 22.99 16.98 30.93 -10.01 0.9614 -21.07 -8.012 -25.08 -7.05 -38.06 14.98 3.926 0.9614 -14.02 18.99 -52.08
5.045 28.92 11.94 28.92 -5.047 -2.003 -12.02 -3.044 -14.02 -2.003 -38.06 25.96 0.9614 7.932 -10.01 27.96 -50.07
5.05 30.93 17.95 38.94 4.967 14.98 3.926 10.98 3.926 13.94 -31.01 22.99 -7.05 18.99 0.9614 44.95 -39.02
5.055 30.93 17.95 55.92 23.96 41.98 19.95 43.98 33.97 33.97 -11.06 23.96 -5.047 25.96 5.929 65.94 -27.08
5.06 32.93 19.95 65.94 27.96 69.94 43.98 67.94 55.92 49.99 -2.003 27.96 -1.042 33.97 15.94 81.96 -11.06
5.065 38.94 34.93 72.99 39.98 83.96 58.97 77.95 62.97 54 0.9614 29.96 -1.042 39.98 25 85.97 0
5.07 36.93 25 70.98 40.94 77.95 60.97 74.99 54 47.99 2.964 38.94 0 44.95 25 82.92 1.923
5.075 38.94 13.94 66.98 28.92 72.99 61.93 62.97 44.95 45.99 0.9614 44.95 1.923 50.95 17.95 74.99 -7.05
5.08 36.93 25.96 63.93 35.97 65.94 57.92 55.92 45.99 49.99 -2.003 27.96 0.9614 49.99 15.94 67.94 -15.06
5.085 20.99 27 54.96 34.93 54 52.96 56.96 47.99 57.92 14.98 10.98 5.929 36.93 18.99 64.98 -8.012
5.09 10.98 25 35.97 22.99 44.95 46.95 60.97 44.95 59.93 21.95 4.967 10.98 21.95 15.94 56.96 -1.042
5.095 12.98 34.93 25 20.99 40.94 31.97 56.96 35.97 49.99 10.98 6.97 17.95 16.98 12.98 46.95 -2.003
5.1 8.973 15.94 16.98 3.926 34.93 11.94 35.97 17.95 30.93 0.9614 14.98 16.98 11.94 3.926 37.98 -4.006
5.105 -1.042 0 5.929 -9.053 19.95 0 13.94 1.923 13.94 -7.05 16.98 13.94 11.94 1.923 27 -10.01
5.11 2.964 4.967 2.964 -12.02 10.98 -10.01 0.9614 1.923 6.97 -13.06 1.923 11.94 6.97 0.9614 21.95 -14.02
5.115 -19.07 -4.006 -3.044 -18.03 -1.042 -15.06 0 0.9614 1.923 -12.02 -15.06 6.97 1.923 6.97 19.95 -8.012
5.12 -33.01 -10.01 -14.02 -10.01 -15.06 -10.01 0 4.967 12.98 -11.06 -14.02 7.932 -10.01 11.94 16.98 -2.003
5.125 -19.07 -1.042 -14.02 16.98 -14.02 0 4.967 9.935 19.95 -8.012 -10.01 13.94 -8.012 16.98 16.98 0
5.13 -17.06 0.9614 -17.06 29.96 -14.02 14.98 0 9.935 11.94 -10.01 -6.009 12.98 -13.06 16.98 12.98 0
5.135 -17.06 -3.044 -23.07 25.96 -19.07 18.99 -7.05 4.967 8.973 -14.02 1.923 8.973 -18.03 7.932 7.932 -14.02
5.14 -5.047 -1.042 -18.03 21.95 -13.06 13.94 -8.012 1.923 1.923 -23.07 0.9614 1.923 -14.02 1.923 10.98 -30.04
5.145 -3.044 -9.053 -13.06 3.926 -1.042 2.964 -9.053 -8.012 1.923 -34.05 7.932 -14.02 -4.006 -7.05 17.95 -30.04
5.15 -1.042 -13.06 -1.042 0 2.964 -1.042 -5.047 -11.06 -1.042 -30.04 28.92 -10.01 -2.003 -8.012 22.99 -24.04
5.155 16.98 -2.003 14.98 6.97 20.99 9.935 0.9614 -3.044 0.9614 -30.04 28.92 -3.044 12.98 -4.006 30.93 -16.02
5.16 30.93 -2.003 28.92 0.9614 31.97 14.98 10.98 1.923 0 -37.01 28.92 -7.05 22.99 0.9614 30.93 -10.01
5.165 42.94 0.9614 37.98 1.923 35.97 13.94 12.98 0 0.9614 -38.06 37.98 1.923 25 0 27.96 -16.02
5.17 54.96 10.98 48.95 2.964 40.94 6.97 20.99 -5.047 6.97 -39.02 39.98 1.923 27 1.923 33.97 -24.04
5.175 30.93 8.973 39.98 20.99 34.93 23.96 31.97 12.98 13.94 1.923 10.98 -10.01 32.93 0 42.94 -24.04
5.18 42.94 17.95 49.99 31.97 41.98 31.97 41.98 17.95 15.94 5.929 15.94 -1.042 39.98 -3.044 45.99 -21.07
5.185 46.95 39.98 63.93 40.94 54.96 38.94 54 27 19.95 9.935 25.96 3.926 48.95 1.923 54.96 -12.02
5.19 38.94 36.93 57.92 40.94 60.97 41.98 57.92 34.93 29.96 14.98 30.93 12.98 52.96 4.967 56.96 -6.009
5.195 34.93 22.99 47.99 37.98 61.93 45.99 67.94 37.98 33.97 18.99 27 16.98 47.99 10.98 54 -7.05
5.2 36.93 23.96 41.98 35.97 55.92 47.99 63.93 29.96 21.95 1.923 23.96 9.935 35.97 11.94 43.98 -11.06
5.205 40.94 27.96 37.98 33.97 41.98 37.98 45.99 17.95 3.926 -7.05 25.96 9.935 33.97 9.935 33.97 -21.07
5.21 48.95 33.97 33.97 30.93 30.93 36.93 29.96 10.98 0.9614 -15.06 31.97 21.95 36.93 2.964 30.93 -28.04
5.215 44.95 32.93 31.97 15.94 21.95 27.96 19.95 -2.003 -1.042 -30.04 32.93 16.98 37.98 -2.003 27.96 -35.01
5.22 34.93 19.95 23.96 0.9614 16.98 9.935 15.94 -8.012 0 -28.04 34.93 3.926 38.94 -14.02 30.93 -40.06
5.225 34.93 -1.042 15.94 -8.012 14.98 0.9614 23.96 -14.02 5.929 -24.04 32.93 -8.012 38.94 -26.04 36.93 -46.07
5.23 30.93 -7.05 11.94 -23.07 17.95 -9.053 29.96 -17.06 7.932 -25.08 27.96 -21.07 31.97 -33.01 35.97 -47.03
5.235 25 -4.006 11.94 -25.08 19.95 -11.06 25.96 -21.07 5.929 -21.07 25 -20.03 31.97 -35.01 35.97 -45.03
5.24 27 -2.003 13.94 -17.06 15.94 -3.044 15.94 -13.06 -2.003 -21.07 21.95 -5.047 37.98 -27.08 31.97 -47.03
5.245 18.99 1.923 9.935 -19.07 7.932 0.9614 1.923 -15.06 -11.06 -33.01 21.95 -2.003 35.97 -21.07 17.95 -49.03
5.25 14.98 0.9614 11.94 -20.03 -2.003 -6.009 -1.042 -26.04 -21.07 -39.02 27.96 0 35.97 -16.02 13.94 -57.04
5.255 25 0.9614 15.94 -19.07 -2.003 -11.06 -1.042 -28.04 -19.07 -43.02 37.98 0 41.98 -13.06 19.95 -65.06
5.26 28.92 -1.042 16.98 -18.03 5.929 -8.012 2.964 -21.07 -11.06 -42.06 44.95 -2.003 42.94 -16.02 27 -62.01
5.265 32.93 2.964 16.98 -8.012 11.94 -3.044 6.97 -19.07 -1.042 -30.04 50.95 1.923 44.95 -16.02 36.93 -58
5.27 40.94 15.94 15.94 0 9.935 1.923 5.929 -16.02 5.929 -20.03 47.99 -3.044 50.95 -16.02 39.98 -56
5.275 42.94 21.95 14.98 0.9614 -2.003 -2.003 0.9614 -17.06 11.94 -13.06 42.94 1.923 42.94 -19.07 30.93 -52.08
5.28 40.94 23.96 19.95 -2.003 -2.003 -2.003 -2.003 -17.06 17.95 -5.047 31.97 0.9614 35.97 -13.06 29.96 -43.02
5.285 42.94 27.96 29.96 5.929 7.932 9.935 0 -3.044 21.95 -1.042 19.95 1.923 35.97 -3.044 31.97 -29
5.29 32.93 29.96 27.96 14.98 13.94 22.99 5.929 8.973 19.95 -2.003 11.94 13.94 31.97 2.964 29.96 -17.06
5.295 27 32.93 27 25 23.96 31.97 16.98 13.94 11.94 -2.003 12.98 17.95 32.93 14.98 36.93 -18.03
5.3 25 25 25 21.95 27.96 31.97 16.98 6.97 3.926 -11.06 8.973 6.97 32.93 13.94 36.93 -30.04
5.305 14.98 9.935 15.94 7.932 17.95 21.95 9.935 -7.05 0 -17.06 1.923 1.923 23.96 -2.003 29.96 -43.02
5.31 18.99 8.973 18.99 10.98 9.935 14.98 6.97 -13.06 0 -12.02 6.97 -2.003 20.99 -1.042 30.93 -42.06
5.315 18.99 8.973 20.99 11.94 13.94 20.99 0.9614 -6.009 1.923 -13.06 4.967 -2.003 25.96 0 28.92 -33.01
5.32 2.964 0.9614 9.935 10.98 10.98 18.99 -1.042 -7.05 1.923 -12.02 3.926 2.964 20.99 2.964 21.95 -30.04
5.325 6.97 8.973 8.973 19.95 9.935 19.95 -1.042 -4.006 0.9614 -10.01 7.932 13.94 20.99 16.98 27 -28.04
5.33 8.973 21.95 8.973 31.97 10.98 28.92 6.97 3.926 1.923 -6.009 12.98 15.94 21.95 21.95 20.99 -21.07
5.335 4.967 17.95 4.967 32.93 8.973 31.97 5.929 10.98 8.973 -2.003 11.94 17.95 19.95 18.99 22.99 -9.053
5.34 6.97 11.94 4.967 27 4.967 36.93 16.98 14.98 19.95 12.98 16.98 11.94 27.96 18.99 32.93 1.923
5.345 8.973 12.98 6.97 21.95 10.98 36.93 20.99 22.99 28.92 16.98 16.98 3.926 33.97 12.98 35.97 5.929
5.35 2.964 6.97 3.926 4.967 12.98 27 19.95 11.94 29.96 10.98 17.95 0.9614 32.93 0.9614 37.98 -4.006
5.355 0.9614 0 1.923 -4.006 7.932 13.94 17.95 0.9614 25.96 4.967 15.94 1.923 25.96 -4.006 37.98 -21.07
5.36 8.973 4.967 0 0.9614 0 6.97 7.932 -3.044 14.98 0 8.973 -2.003 21.95 0 20.99 -23.07
5.365 2.964 8.973 -10.01 8.973 -4.006 7.932 0.9614 -7.05 0 1.923 0.9614 0.9614 12.98 2.964 5.929 -16.02
5.37 -15.06 0 -32.05 5.929 -21.07 10.98 -9.053 -5.047 -2.003 0.9614 -16.02 -5.047 3.926 4.967 1.923 -9.053
5.375 -29 1.923 -45.03 4.967 -37.01 11.94 -17.06 -1.042 -7.05 0 -31.01 0 -5.047 6.97 -3.044 -3.044
5.38 -41.02 -1.042 -53.04 -2.003 -42.06 0.9614 -21.07 -11.06 -11.06 -10.01 -39.02 -4.006 -12.02 1.923 0.9614 -8.012
5.385 -61.05 -32.05 -70.02 -35.01 -56 -16.02 -30.04 -32.05 -14.02 -22.03 -48.07 -13.06 -23.07 -18.03 0 -25.08
5.39 -65.06 -49.03 -80.04 -62.01 -68.02 -38.06 -36.05 -46.07 -21.07 -28.04 -46.07 -17.06 -27.08 -32.05 0 -33.01
5.395 -61.05 -49.03 -76.03 -64.01 -62.01 -45.03 -37.01 -52.08 -28.04 -37.01 -39.02 -17.06 -25.08 -30.04 1.923 -35.01
5.4 -71.06 -63.05 -84.04 -67.06 -62.01 -42.06 -46.07 -53.04 -37.01 -42.06 -44.06 -17.06 -33.01 -31.01 -10.01 -45.03
5.405 -67.06 -56 -84.04 -59.05 -63.05 -37.01 -58 -44.06 -44.06 -36.05 -51.03 -3.044 -38.06 -26.04 -30.04 -38.06
5.41 -55.04 -36.05 -75.07 -44.06 -62.01 -36.05 -65.06 -45.03 -57.04 -38.06 -47.03 0.9614 -38.06 -14.02 -37.01 -30.04
5.415 -55.04 -44.06 -74.03 -53.04 -63.05 -44.06 -70.02 -62.01 -57.04 -51.03 -44.06 1.923 -35.01 -17.06 -36.05 -37.01
5.42 -41.02 -44.06 -62.01 -54.08 -53.04 -52.08 -54.08 -69.06 -45.03 -42.06 -30.04 -3.044 -26.04 -18.03 -18.03 -36.05
5.425 -29 -33.01 -43.02 -43.02 -35.01 -49.03 -31.01 -67.06 -33.01 -39.02 -17.06 -3.044 -11.06 -9.053 3.926 -33.01
5.43 -27.08 -36.05 -42.06 -43.02 -35.01 -37.01 -24.04 -64.01 -25.08 -39.02 -12.02 -6.009 -8.012 -5.047 12.98 -38.06
5.435 -25.08 -38.06 -48.07 -50.07 -39.02 -33.01 -22.03 -53.04 -23.07 -36.05 -10.01 -9.053 -8.012 -12.02 4.967 -34.05
5.44 -23.07 -35.01 -45.03 -50.07 -43.02 -38.06 -23.07 -48.07 -31.01 -42.06 -7.05 -13.06 -9.053 -10.01 3.926 -33.01
5.445 -25.08 -39.02 -47.03 -57.04 -51.03 -45.03 -33.01 -53.04 -35.01 -57.04 0.9614 -15.06 -9.053 -15.06 1.923 -47.03
5.45 -17.06 -29 -41.02 -51.03 -37.01 -53.04 -27.08 -47.03 -31.01 -51.03 3.926 -15.06 -3.044 -17.06 7.932 -47.03
5.455 -9.053 -21.07 -30.04 -31.01 -23.07 -47.03 -20.03 -43.02 -29 -42.06 -1.042 -8.012 1.923 -5.047 16.98 -40.06
5.46 -11.06 -17.06 -37.01 -28.04 -31.01 -38.06 -27.08 -46.07 -31.01 -38.06 -7.05 -5.047 0 0 7.932 -36.05
5.465 -13.06 -10.01 -38.06 -24.04 -33.01 -31.01 -22.03 -41.02 -27.08 -24.04 -4.006 0 0 -4.006 4.967 -16.02
5.47 -15.06 -4.006 -30.04 -12.02 -27.08 -22.03 -8.012 -31.01 -15.06 -10.01 -6.009 0.9614 1.923 0 14.98 0
5.475 -25.08 -6.009 -29 -13.06 -27.08 -13.06 0.9614 -22.03 -3.044 -3.044 -9.053 1.923 -1.042 5.929 13.94 0
5.48 -33.01 -14.02 -29 -12.02 -17.06 -4.006 9.935 -8.012 5.929 3.926 -11.06 1.923 0.9614 12.98 15.94 11.94
5.485 -37.01 -27.08 -27.08 -7.05 -7.05 -2.003 19.95 5.929 15.94 13.94 -17.06 3.926 -1.042 17.95 21.95 13.94
5.49 -37.01 -21.07 -33.01 -11.06 -11.06 5.929 21.95 19.95 17.95 23.96 -17.06 9.935 -5.047 27.96 19.95 9.935
5.495 -35.01 -13.06 -37.01 -9.053 -11.06 11.94 21.95 25.96 21.95 36.93 -9.053 11.94 -1.042 27.96 19.95 14.98
5.5 -29 -15.06 -31.01 -5.047 -3.044 17.95 27.96 33.97 31.97 37.98 -5.047 13.94 0.9614 21.95 25.96 9.935
5.505 -25.08 -12.02 -31.01 -7.05 -1.042 18.99 29.96 33.97 35.97 34.93 -10.01 16.98 -5.047 22.99 23.96 0
5.51 -25.08 -16.02 -37.01 -6.009 1.923 16.98 25.96 23.96 29.96 27.96 -20.03 6.97 -9.053 16.98 13.94 -3.044
5.515 -27.08 -20.03 -33.01 -5.047 1.923 13.94 29.96 13.94 27.96 12.98 -19.07 0 -13.06 1.923 13.94 -16.02
5.52 -15.06 -2.003 -25.08 1.923 4.967 12.98 29.96 7.932 21.95 5.929 -20.03 0 -19.07 8.973 11.94 -21.07
5.525 -13.06 1.923 -17.06 3.926 1.923 9.935 25.96 0.9614 13.94 -2.003 -17.06 -2.003 -11.06 9.935 1.923 -17.06
5.53 -5.047 0 0.9614 13.94 11.94 15.94 33.97 -2.003 17.95 -1.042 0 5.929 3.926 9.935 7.932 -15.06
5.535 8.973 12.98 13.94 29.96 34.93 27.96 49.99 13.94 21.95 0 9.935 16.98 19.95 25.96 21.95 -16.02
5.54 10.98 25 21.95 45.99 46.95 42.94 59.93 25.96 23.96 0.9614 14.98 25 27.96 40.94 29.96 -16.02
5.545 25 41.98 39.98 60.97 56.96 56.96 77.95 42.94 35.97 13.94 30.93 31.97 37.98 44.95 45.99 -13.06
5.55 50.95 69.94 55.92 75.95 75.95 69.94 87.97 63.93 47.99 25.96 23.96 39.98 37.98 57.92 52 -7.05
5.555 46.95 79 55.92 81.96 68.98 76.99 75.95 65.94 49.99 32.93 12.98 46.95 31.97 58.97 39.98 0
5.56 38.94 71.95 54 79 52 74.99 55.92 64.98 52 36.93 18.99 47.99 29.96 56.96 31.97 0.9614
5.565 30.93 67.94 42.94 74.99 40.94 73.95 41.98 65.94 46.95 34.93 11.94 43.98 18.99 61.93 27 0
5.57 8.973 61.93 21.95 70.98 20.99 69.94 22.99 56.96 28.92 27 0.9614 37.98 4.967 62.97 20.99 0
5.575 8.973 62.97 27 67.94 15.94 61.93 21.95 49.99 25 25 8.973 36.93 7.932 58.97 32.93 -1.042
5.58 32.93 71.95 39.98 64.98 34.93 61.93 38.94 43.98 25.96 14.98 15.94 28.92 15.94 56.96 43.98 -5.047
5.585 28.92 65.94 34.93 54 45.99 52.96 37.98 32.93 20.99 -2.003 12.98 19.95 15.94 40.94 41.98 -15.06
5.59 22.99 52.96 34.93 37.98 39.98 35.97 40.94 18.99 15.94 1.923 20.99 21.95 22.99 37.98 45.99 -19.07
5.595 14.98 39.98 28.92 25 30.93 33.97 31.97 15.94 10.98 0.9614 19.95 11.94 25 29.96 36.93 -15.06
5.6 -3.044 13.94 7.932 18.99 7.932 29.96 11.94 14.98 0.9614 -5.047 7.932 8.973 13.94 21.95 19.95 -16.02
5.605 -9.053 6.97 10.98 14.98 0 17.95 1.923 16.98 -5.047 -13.06 11.94 20.99 14.98 25 17.95 -16.02
5.61 2.964 20.99 19.95 25 12.98 27 2.964 23.96 -7.05 -19.07 19.95 19.95 14.98 33.97 12.98 -26.04
5.615 4.967 25 16.98 30.93 13.94 29.96 1.923 22.99 -17.06 -31.01 21.95 20.99 8.973 27 0 -48.07
5.62 6.97 29.96 15.94 30.93 17.95 23.96 3.926 10.98 -17.06 -27.08 23.96 30.93 5.929 25.96 -2.003 -64.01
5.625 18.99 43.98 18.99 32.93 22.99 19.95 19.95 3.926 -6.009 -20.03 29.96 27.96 8.973 17.95 10.98 -61.05
5.63 18.99 28.92 18.99 23.96 21.95 11.94 28.92 1.923 -1.042 -25.08 27 15.94 10.98 5.929 17.95 -57.04
5.635 16.98 17.95 25 17.95 29.96 2.964 35.97 -2.003 0 -31.01 22.99 13.94 13.94 6.97 25.96 -49.03
5.64 28.92 27.96 33.97 25 38.94 7.932 42.94 -1.042 0.9614 -28.04 21.95 10.98 23.96 14.98 39.98 -37.01
5.645 18.99 16.98 25 25.96 27.96 15.94 35.97 0.9614 -2.003 -30.04 18.99 6.97 23.96 10.98 34.93 -33.01
5.65 8.973 5.929 15.94 22.99 12.98 13.94 28.92 0.9614 0 -20.03 12.98 13.94 14.98 12.98 34.93 -20.03
5.655 8.973 23.96 10.98 30.93 0.9614 15.94 23.96 9.935 4.967 0 9.935 21.95 8.973 19.95 34.93 0.9614
5.66 -1.042 9.935 -2.003 27 -9.053 16.98 17.95 18.99 1.923 0.9614 0.9614 21.95 -2.003 20.99 23.96 -2.003
5.665 -9.053 -10.01 -1.042 11.94 -14.02 8.973 9.935 17.95 -2.003 0.9614 -2.003 25 -3.044 22.99 15.94 0.9614
5.67 0.9614 0 3.926 21.95 -5.047 9.935 11.94 15.94 1.923 3.926 -5.047 31.97 5.929 35.97 19.95 1.923
5.675 8.973 13.94 21.95 34.93 6.97 20.99 19.95 16.98 -2.003 -2.003 1.923 37.98 17.95 38.94 21.95 0.9614
