    T[sec] Fp1 Fp2 F3  F4  C3  C4  P3  P4  O1  O2  F7  F8  T3  T4  T5  T6  Fz  Cz  Pz  A2 
30 1000 1000 1000 1000 1000 1000 1000 1000 1000 1000 1000 1000 1000 1000 1000 1000 1000 1000 1000 1000
1.185 29.31 -185.6 9.77 -322.4 -244.3 -605.8 107.5 -400.6 390.8 332.2 58.62 -9.77 127 -97.7 508.1 234.5 -136.8 -596 -117.2 136.8
1.19 107.5 -58.62 78.16 -156.3 -195.4 -429.9 9.77 -390.8 205.2 254 127 117.2 127 0 361.5 224.7 -29.31 -469 -156.3 107.5
1.195 127 -29.31 107.5 -58.62 -175.9 -244.3 -68.39 -371.3 0 146.6 136.8 175.9 97.7 107.5 214.9 214.9 9.77 -332.2 -175.9 58.62
1.2 97.7 -68.39 136.8 -9.77 -127 -48.85 -97.7 -263.8 -117.2 78.16 127 195.4 87.93 195.4 107.5 224.7 58.62 -175.9 -107.5 39.08
1.205 48.85 -175.9 175.9 -29.31 -68.39 87.93 -48.85 -117.2 -156.3 19.54 127 166.1 97.7 244.3 58.62 244.3 107.5 -58.62 29.31 78.16
1.21 0 -322.4 234.5 -78.16 58.62 185.6 68.39 78.16 -87.93 39.08 146.6 127 107.5 273.6 78.16 283.3 175.9 48.85 263.8 166.1
1.215 -9.77 -410.4 332.2 -87.93 234.5 283.3 244.3 332.2 48.85 136.8 195.4 136.8 127 293.1 136.8 361.5 283.3 156.3 517.8 254
1.22 -9.77 -439.7 371.3 -78.16 361.5 332.2 381 537.4 175.9 263.8 234.5 156.3 107.5 293.1 156.3 429.9 322.4 195.4 703.5 293.1
1.225 0 -400.6 342 -39.08 410.4 332.2 429.9 674.2 244.3 390.8 263.8 195.4 58.62 283.3 146.6 498.3 302.9 175.9 762.1 283.3
1.23 9.77 -293.1 244.3 0 371.3 283.3 381 683.9 244.3 469 214.9 234.5 -9.77 244.3 87.93 527.6 234.5 107.5 683.9 224.7
1.235 68.39 -166.1 127 0 263.8 166.1 293.1 566.7 205.2 449.4 166.1 224.7 -78.16 175.9 48.85 478.7 166.1 -19.54 517.8 214.9
1.24 156.3 -97.7 78.16 -48.85 166.1 19.54 234.5 342 195.4 342 127 175.9 -97.7 107.5 78.16 381 166.1 -195.4 351.7 283.3
1.245 244.3 -117.2 78.16 -166.1 107.5 -156.3 224.7 48.85 224.7 166.1 78.16 78.16 -107.5 48.85 156.3 254 205.2 -410.4 185.6 429.9
1.25 293.1 -234.5 78.16 -342 58.62 -361.5 234.5 -254 273.6 -29.31 58.62 -29.31 -78.16 0 263.8 136.8 234.5 -635.6 19.54 605.8
1.255 273.6 -361.5 58.62 -498.3 9.77 -517.8 224.7 -517.8 312.7 -185.6 9.77 -127 -68.39 -29.31 342 78.16 224.7 -820.7 -127 723
1.26 156.3 -459.2 -9.77 -615.5 -48.85 -615.5 185.6 -674.6 332.2 -263.8 -87.93 -185.6 -78.16 -58.62 361.5 68.39 136.8 -918.4 -273.6 693.7
1.265 19.54 -469 -127 -625.3 -127 -644.8 175.9 -732.8 361.5 -263.8 -175.9 -185.6 -107.5 -78.16 371.3 78.16 29.31 -928.2 -332.2 596
1.27 -107.5 -420.1 -205.2 -556.9 -166.1 -576.5 205.2 -674.6 410.4 -175.9 -273.6 -185.6 -117.2 -78.16 361.5 87.93 -58.62 -840.3 -283.3 429.9
1.275 -195.4 -351.7 -224.7 -429.9 -136.8 -459.2 283.3 -566.7 478.7 -58.62 -273.6 -185.6 -97.7 -78.16 381 68.39 -87.93 -683.9 -136.8 273.6
1.28 -214.9 -254 -166.1 -273.6 -58.62 -312.7 371.3 -459.2 517.8 9.77 -224.7 -185.6 -29.31 -107.5 410.4 -9.77 -48.85 -488.5 19.54 156.3
1.285 -214.9 -166.1 -87.93 -87.93 0 -146.6 410.4 -371.3 478.7 39.08 -185.6 -205.2 39.08 -175.9 410.4 -136.8 19.54 -263.8 117.2 29.31
1.29 -146.6 -39.08 -9.77 97.7 58.62 0 400.6 -302.9 361.5 9.77 -117.2 -195.4 107.5 -234.5 381 -273.6 127 -39.08 156.3 -58.62
1.295 -39.08 107.5 48.85 263.8 97.7 136.8 342 -263.8 185.6 -48.85 -107.5 -146.6 117.2 -263.8 322.4 -390.8 224.7 136.8 146.6 -117.2
1.3 78.16 244.3 107.5 400.6 136.8 254 234.5 -205.2 0 -107.5 -78.16 -117.2 117.2 -234.5 205.2 -429.9 312.7 283.3 117.2 -156.3
1.305 205.2 332.2 166.1 469 166.1 332.2 127 -136.8 -166.1 -136.8 -9.77 -58.62 87.93 -127 78.16 -390.8 371.3 342 107.5 -136.8
1.31 283.3 381 195.4 517.8 175.9 390.8 -9.77 -29.31 -322.4 -136.8 29.31 0 39.08 0 -68.39 -273.6 390.8 332.2 87.93 -117.2
1.315 283.3 420.1 205.2 596 166.1 478.7 -166.1 136.8 -478.7 -48.85 68.39 68.39 0 146.6 -205.2 -58.62 381 361.5 29.31 -175.9
1.32 244.3 469 224.7 674.2 146.6 576.5 -293.1 322.4 -586.2 58.62 97.7 175.9 -19.54 283.3 -283.3 166.1 381 390.8 -19.54 -254
1.325 205.2 508.1 254 732.8 156.3 664.4 -351.7 498.3 -615.5 185.6 107.5 254 0 371.3 -293.1 381 400.6 439.7 -58.62 -293.1
1.33 166.1 517.8 332.2 752.3 214.9 742.6 -312.7 644.8 -547.6 332.2 117.2 283.3 39.08 420.1 -214.9 547.1 469 498.3 -29.31 -302.9
1.335 166.1 439.7 410.4 674.2 302.9 742.6 -166.1 703.5 -390.8 420.1 136.8 205.2 107.5 410.4 -78.16 625.3 527.6 478.7 48.85 -195.4
1.34 195.4 332.2 469 556.9 400.6 703.5 29.31 693.7 -156.3 469 156.3 87.93 185.6 361.5 87.93 625.3 596 429.9 195.4 -48.85
1.345 283.3 244.3 537.4 459.2 508.1 644.8 273.6 635.1 97.7 498.3 234.5 -48.85 273.6 283.3 293.1 596 644.8 381 351.7 68.39
1.35 361.5 175.9 547.1 361.5 586.2 547.1 498.3 498.3 351.7 449.4 332.2 -205.2 351.7 175.9 478.7 488.5 644.8 273.6 469 195.4
1.355 429.9 166.1 508.1 312.7 625.3 478.7 703.5 361.5 566.7 400.6 420.1 -293.1 420.1 78.16 635.1 390.8 615.5 205.2 547.1 244.3
1.36 420.1 156.3 429.9 273.6 625.3 381 850 214.9 723 342 459.2 -351.7 449.4 0 732.8 283.3 527.6 146.6 556.9 244.3
1.365 322.4 117.2 302.9 224.7 576.5 273.6 918.4 87.93 810.9 302.9 400.6 -381 410.4 -48.85 752.3 214.9 390.8 127 517.8 185.6
1.37 195.4 87.93 214.9 205.2 537.4 234.5 938 78.16 850 351.7 312.7 -361.5 351.7 -39.08 742.6 214.9 273.6 175.9 478.7 78.16
1.375 107.5 39.08 205.2 224.7 517.8 254 928.2 156.3 869.6 439.7 234.5 -332.2 283.3 0 703.5 263.8 224.7 273.6 478.7 -9.77
1.38 107.5 29.31 273.6 273.6 547.1 342 898.9 322.4 879.3 556.9 205.2 -283.3 234.5 58.62 644.8 332.2 293.1 400.6 537.4 -58.62
1.385 175.9 58.62 410.4 381 596 478.7 840.3 547.1 840.3 654.6 234.5 -234.5 214.9 127 576.5 381 429.9 527.6 615.5 -68.39
1.39 263.8 156.3 517.8 498.3 635.1 625.3 752.3 771.9 752.3 713.2 273.6 -156.3 205.2 195.4 459.2 390.8 556.9 664.4 683.9 -78.16
1.395 332.2 283.3 586.2 605.8 674.2 752.3 644.8 938 615.5 713.2 322.4 -68.39 224.7 244.3 342 342 654.6 801.2 732.8 -87.93
1.4 332.2 390.8 556.9 683.9 635.1 840.3 488.5 1036 420.1 674.2 332.2 0 244.3 273.6 195.4 273.6 654.6 898.9 703.5 -156.3
1.405 293.1 488.5 488.5 742.6 576.5 918.4 322.4 1065 214.9 625.3 342 58.62 244.3 293.1 78.16 214.9 615.5 977 644.8 -254
1.41 244.3 547.1 400.6 781.6 488.5 957.5 166.1 1055 19.54 566.7 361.5 87.93 234.5 283.3 -9.77 195.4 547.1 986.8 537.4 -351.7
1.415 156.3 556.9 302.9 781.6 361.5 938 19.54 1006 -156.3 508.1 361.5 87.93 195.4 254 -97.7 214.9 439.7 947.7 400.6 -449.4
1.42 87.93 547.1 234.5 781.6 273.6 889.1 -39.08 947.7 -263.8 459.2 361.5 87.93 156.3 224.7 -136.8 273.6 361.5 869.6 293.1 -498.3
1.425 39.08 537.4 195.4 771.9 244.3 801.2 -48.85 869.6 -302.9 420.1 371.3 97.7 146.6 224.7 -146.6 351.7 293.1 762.1 185.6 -498.3
1.43 68.39 527.6 214.9 742.6 273.6 693.7 0 771.9 -244.3 400.6 400.6 136.8 166.1 283.3 -117.2 429.9 283.3 654.6 127 -449.4
1.435 156.3 527.6 263.8 703.5 342 596 87.93 674.2 -117.2 410.4 439.7 205.2 205.2 381 -48.85 517.8 302.9 527.6 97.7 -342
1.44 263.8 508.1 312.7 625.3 400.6 508.1 166.1 605.8 39.08 439.7 498.3 283.3 244.3 469 19.54 586.2 322.4 390.8 87.93 -205.2
1.445 361.5 420.1 361.5 508.1 449.4 410.4 244.3 527.6 205.2 449.4 556.9 312.7 283.3 517.8 107.5 615.5 342 224.7 107.5 -29.31
1.45 381 312.7 351.7 381 439.7 332.2 293.1 488.5 342 439.7 547.1 312.7 283.3 498.3 185.6 625.3 322.4 68.39 117.2 97.7
1.455 332.2 195.4 302.9 273.6 400.6 263.8 302.9 429.9 420.1 371.3 488.5 293.1 273.6 449.4 254 586.2 273.6 -48.85 97.7 175.9
1.46 283.3 127 263.8 205.2 390.8 205.2 312.7 371.3 459.2 254 420.1 254 263.8 381 312.7 508.1 244.3 -107.5 78.16 224.7
1.465 254 146.6 244.3 234.5 381 214.9 342 371.3 488.5 185.6 332.2 263.8 244.3 332.2 361.5 459.2 234.5 -58.62 97.7 195.4
1.47 263.8 224.7 273.6 322.4 400.6 273.6 400.6 420.1 527.6 166.1 302.9 283.3 244.3 302.9 381 410.4 263.8 48.85 185.6 136.8
1.475 302.9 322.4 342 439.7 439.7 390.8 488.5 556.9 576.5 234.5 342 312.7 254 263.8 390.8 381 312.7 224.7 342 48.85
1.48 293.1 429.9 381 586.2 449.4 556.9 576.5 762.1 596 371.3 351.7 361.5 254 254 371.3 390.8 332.2 429.9 527.6 -87.93
1.485 263.8 488.5 410.4 674.2 459.2 703.5 635.1 938 576.5 459.2 371.3 390.8 254 234.5 342 351.7 322.4 625.3 683.9 -234.5
1.49 224.7 517.8 410.4 713.2 478.7 801.2 654.6 1016 498.3 459.2 361.5 381 254 195.4 312.7 263.8 312.7 771.9 781.6 -332.2
1.495 214.9 537.4 420.1 713.2 508.1 850 625.3 1006 400.6 381 342 371.3 263.8 166.1 293.1 166.1 342 879.3 820.7 -371.3
1.5 293.1 527.6 459.2 683.9 556.9 850 556.9 879.3 283.3 224.7 361.5 312.7 283.3 117.2 263.8 29.31 429.9 918.4 801.2 -302.9
1.505 429.9 517.8 517.8 644.8 605.8 801.2 449.4 703.5 175.9 58.62 410.4 244.3 322.4 68.39 214.9 -78.16 537.4 889.1 742.6 -175.9
1.51 556.9 537.4 566.7 654.6 605.8 762.1 322.4 537.4 58.62 -29.31 469 224.7 361.5 48.85 136.8 -136.8 635.1 830.5 654.6 -78.16
1.515 635.1 566.7 605.8 674.2 566.7 732.8 195.4 390.8 -39.08 -58.62 508.1 254 361.5 39.08 29.31 -146.6 683.9 771.9 537.4 -39.08
1.52 664.4 596 635.1 674.2 527.6 683.9 87.93 244.3 -117.2 -39.08 517.8 332.2 351.7 48.85 -48.85 -146.6 674.2 693.7 410.4 -39.08
1.525 625.3 625.3 586.2 644.8 429.9 625.3 -9.77 97.7 -195.4 -9.77 439.7 410.4 302.9 58.62 -117.2 -146.6 576.5 625.3 234.5 -97.7
1.53 576.5 615.5 498.3 527.6 322.4 498.3 -97.7 -78.16 -263.8 -19.54 351.7 429.9 224.7 9.77 -156.3 -166.1 429.9 498.3 48.85 -136.8
1.535 488.5 547.1 332.2 351.7 175.9 322.4 -195.4 -293.1 -312.7 -68.39 224.7 371.3 146.6 -48.85 -185.6 -185.6 214.9 312.7 -156.3 -166.1
1.54 322.4 439.7 68.39 146.6 -19.54 136.8 -322.4 -459.2 -361.5 -97.7 68.39 263.8 39.08 -107.5 -224.7 -156.3 -58.62 68.39 -390.8 -214.9
1.545 127 293.1 -175.9 -58.62 -195.4 -29.31 -390.8 -547.6 -351.7 -78.16 -58.62 146.6 -29.31 -146.6 -244.3 -97.7 -332.2 -175.9 -547.6 -254
1.55 -78.16 127 -410.4 -234.5 -351.7 -156.3 -420.1 -508.1 -293.1 0 -205.2 39.08 -97.7 -166.1 -244.3 0 -566.7 -381 -625.3 -293.1
1.555 -293.1 9.77 -596 -332.2 -469 -185.6 -390.8 -312.7 -195.4 156.3 -361.5 -29.31 -175.9 -127 -224.7 107.5 -752.3 -459.2 -576.5 -381
1.56 -449.4 -58.62 -674.6 -371.3 -508.1 -156.3 -302.9 -9.77 -78.16 342 -488.5 -87.93 -214.9 -87.93 -185.6 234.5 -840.3 -390.8 -429.9 -469
1.565 -537.4 -87.93 -703.5 -371.3 -517.8 -87.93 -205.2 312.7 29.31 537.4 -556.9 -107.5 -254 -58.62 -146.6 342 -869.6 -254 -224.7 -537.4
1.57 -556.9 -97.7 -674.6 -361.5 -508.1 -19.54 -107.5 586.2 136.8 683.9 -566.7 -107.5 -273.6 -29.31 -127 429.9 -859.8 -97.7 -9.77 -586.2
1.575 -498.3 -117.2 -615.5 -371.3 -478.7 -9.77 -29.31 723 214.9 752.3 -488.5 -127 -263.8 -48.85 -107.5 449.4 -801.2 0 146.6 -576.5
1.58 -410.4 -136.8 -556.9 -400.6 -469 -48.85 0 693.7 263.8 732.8 -381 -146.6 -224.7 -87.93 -87.93 390.8 -742.6 0 224.7 -508.1
1.585 -312.7 -146.6 -508.1 -400.6 -449.4 -127 -9.77 527.6 273.6 644.8 -273.6 -166.1 -185.6 -146.6 -68.39 283.3 -674.6 -48.85 205.2 -429.9
1.59 -234.5 -127 -488.5 -390.8 -459.2 -234.5 -97.7 263.8 205.2 488.5 -224.7 -175.9 -156.3 -205.2 -78.16 146.6 -635.6 -136.8 78.16 -361.5
1.595 -175.9 -117.2 -498.3 -381 -498.3 -342 -244.3 -58.62 78.16 293.1 -234.5 -185.6 -136.8 -283.3 -117.2 -9.77 -615.5 -263.8 -117.2 -293.1
1.6 -117.2 -97.7 -527.6 -381 -556.9 -439.7 -429.9 -381 -87.93 68.39 -254 -175.9 -127 -351.7 -185.6 -175.9 -615.5 -390.8 -342 -224.7
1.605 -87.93 -97.7 -586.2 -410.4 -664.4 -537.4 -655.1 -655.1 -322.4 -146.6 -302.9 -156.3 -136.8 -400.6 -312.7 -332.2 -644.8 -498.3 -547.6 -175.9
1.61 -68.39 -107.5 -644.8 -459.2 -771.9 -596 -850 -850 -547.6 -332.2 -302.9 -127 -136.8 -410.4 -449.4 -449.4 -683.9 -586.2 -703.5 -136.8
1.615 -68.39 -136.8 -674.6 -508.1 -830.5 -625.3 -1006 -977.5 -742.6 -459.2 -283.3 -78.16 -136.8 -381 -566.7 -527.6 -713.2 -615.5 -810.9 -107.5
1.62 -87.93 -175.9 -683.9 -547.6 -830.5 -644.8 -1094 -1064 -859.8 -537.4 -234.5 -39.08 -97.7 -332.2 -615.5 -547.6 -723 -635.6 -879.8 -78.16
1.625 -97.7 -214.9 -664.4 -586.2 -762.1 -674.6 -1064 -1124 -869.6 -556.9 -146.6 -48.85 -29.31 -293.1 -576.5 -527.6 -723 -655.1 -898.9 -48.85
1.63 -185.6 -293.1 -674.6 -655.1 -693.7 -752.3 -977.5 -1192 -820.7 -547.6 -97.7 -107.5 29.31 -302.9 -478.7 -488.5 -771.9 -693.7 -947.7 -39.08
1.635 -293.1 -361.5 -693.7 -732.8 -635.6 -840.3 -830.5 -1221 -703.5 -508.1 -78.16 -185.6 68.39 -342 -342 -420.1 -850 -723 -977.5 -58.62
1.64 -429.9 -429.9 -742.6 -791.4 -615.5 -869.6 -664.4 -1124 -576.5 -400.6 -127 -263.8 58.62 -361.5 -224.7 -302.9 -957.5 -703.5 -947.7 -117.2
1.645 -566.7 -488.5 -801.2 -810.9 -615.5 -810.9 -508.1 -869.6 -439.7 -244.3 -224.7 -322.4 9.77 -342 -156.3 -136.8 -1045 -635.6 -840.3 -205.2
1.65 -625.3 -488.5 -771.9 -732.8 -556.9 -615.5 -302.9 -429.9 -263.8 -19.54 -263.8 -322.4 0 -254 -87.93 68.39 -1016 -469 -586.2 -273.6
1.655 -625.3 -488.5 -693.7 -625.3 -469 -371.3 -78.16 58.62 -58.62 185.6 -273.6 -332.2 0 -175.9 -39.08 244.3 -908.6 -302.9 -214.9 -244.3
1.66 -556.9 -449.4 -556.9 -488.5 -342 -146.6 117.2 498.3 117.2 351.7 -224.7 -332.2 9.77 -107.5 9.77 381 -713.2 -146.6 175.9 -166.1
1.665 -400.6 -322.4 -342 -312.7 -185.6 78.16 293.1 879.3 322.4 537.4 -68.39 -293.1 48.85 -9.77 68.39 488.5 -439.7 19.54 566.7 -58.62
1.67 -166.1 -156.3 -97.7 -107.5 -19.54 302.9 410.4 1133 459.2 683.9 107.5 -244.3 78.16 87.93 97.7 566.7 -136.8 195.4 859.8 9.77
1.675 58.62 68.39 175.9 127 156.3 488.5 449.4 1270 517.8 791.4 302.9 -175.9 136.8 205.2 107.5 615.5 175.9 390.8 1006 19.54
1.68 273.6 293.1 429.9 351.7 332.2 625.3 420.1 1251 488.5 820.7 488.5 -127 214.9 293.1 87.93 625.3 459.2 547.1 1026 19.54
1.685 429.9 469 605.8 517.8 459.2 644.8 273.6 1055 302.9 703.5 586.2 -117.2 254 283.3 0 527.6 644.8 625.3 859.8 0
1.69 488.5 605.8 693.7 625.3 469 547.1 48.85 732.8 9.77 469 615.5 -127 273.6 205.2 -107.5 361.5 713.2 615.5 537.4 -68.39
1.695 508.1 713.2 674.2 703.5 371.3 429.9 -244.3 361.5 -322.4 224.7 605.8 -117.2 254 127 -244.3 195.4 674.2 547.1 107.5 -185.6
1.7 508.1 850 605.8 762.1 205.2 322.4 -566.7 9.77 -664.4 0 596 -97.7 214.9 48.85 -371.3 68.39 566.7 439.7 -351.7 -361.5
1.705 449.4 947.7 508.1 801.2 19.54 244.3 -810.9 -302.9 -918.4 -175.9 586.2 -97.7 195.4 0 -420.1 0 429.9 322.4 -781.6 -517.8
1.71 371.3 1016 420.1 840.3 -87.93 205.2 -928.2 -547.6 -1036 -283.3 537.4 -87.93 156.3 -19.54 -410.4 0 302.9 254 -1094 -644.8
1.715 234.5 1016 332.2 850 -127 205.2 -889.1 -713.2 -1016 -342 469 -97.7 107.5 -19.54 -351.7 48.85 205.2 205.2 -1250 -723
1.72 39.08 898.9 224.7 830.5 -127 234.5 -742.6 -771.9 -869.6 -351.7 342 -127 29.31 9.77 -254 146.6 97.7 185.6 -1240 -732.8
1.725 -156.3 732.8 117.2 801.2 -117.2 302.9 -508.1 -674.6 -635.6 -234.5 185.6 -156.3 -39.08 97.7 -136.8 302.9 9.77 214.9 -1075 -742.6
1.73 -390.8 488.5 0 732.8 -107.5 400.6 -224.7 -410.4 -322.4 0 68.39 -224.7 -97.7 185.6 0 508.1 -87.93 263.8 -781.6 -732.8
1.735 -576.5 254 -97.7 654.6 -127 517.8 58.62 0 19.54 322.4 -19.54 -273.6 -127 283.3 136.8 742.6 -185.6 351.7 -381 -723
1.74 -674.6 97.7 -175.9 576.5 -127 644.8 332.2 527.6 351.7 732.8 -78.16 -283.3 -136.8 371.3 244.3 1026 -254 488.5 39.08 -742.6
1.745 -703.5 0 -224.7 478.7 -117.2 742.6 537.4 1036 615.5 1094 -117.2 -244.3 -136.8 439.7 312.7 1260 -283.3 586.2 439.7 -693.7
1.75 -625.3 0 -205.2 390.8 -48.85 791.4 674.2 1417 791.4 1339 -166.1 -127 -146.6 498.3 332.2 1407 -224.7 654.6 771.9 -586.2
1.755 -527.6 48.85 -117.2 371.3 48.85 840.3 732.8 1661 859.8 1475 -234.5 39.08 -156.3 556.9 322.4 1485 -87.93 742.6 996.6 -469
1.76 -429.9 127 0 400.6 175.9 869.6 732.8 1739 830.5 1485 -322.4 224.7 -166.1 576.5 283.3 1475 78.16 810.9 1104 -342
1.765 -351.7 214.9 156.3 488.5 263.8 869.6 674.2 1671 732.8 1387 -420.1 381 -156.3 547.1 214.9 1358 273.6 859.8 1094 -244.3
1.77 -312.7 342 244.3 605.8 254 820.7 517.8 1475 527.6 1202 -508.1 498.3 -146.6 469 97.7 1163 390.8 859.8 928.2 -234.5
1.775 -244.3 469 263.8 683.9 166.1 703.5 302.9 1202 283.3 977 -586.2 576.5 -146.6 351.7 -19.54 889.1 420.1 791.4 664.4 -273.6
1.78 -195.4 537.4 205.2 693.7 9.77 508.1 29.31 850 29.31 703.5 -644.8 596 -166.1 195.4 -146.6 566.7 371.3 615.5 322.4 -312.7
1.785 -127 596 97.7 664.4 -156.3 302.9 -263.8 508.1 -224.7 459.2 -674.6 615.5 -195.4 97.7 -254 263.8 283.3 400.6 -39.08 -371.3
1.79 -58.62 576.5 0 586.2 -322.4 97.7 -586.2 156.3 -469 234.5 -674.6 615.5 -244.3 19.54 -351.7 -9.77 175.9 156.3 -390.8 -400.6
1.795 0 517.8 -87.93 488.5 -488.5 -87.93 -918.4 -214.9 -732.8 -9.77 -635.6 586.2 -263.8 -29.31 -449.4 -263.8 87.93 -87.93 -742.6 -390.8
1.8 97.7 527.6 -78.16 478.7 -566.7 -195.4 -1192 -596 -996.6 -244.3 -527.6 615.5 -244.3 -48.85 -556.9 -459.2 97.7 -234.5 -1036 -371.3
1.805 195.4 576.5 -19.54 517.8 -586.2 -244.3 -1397 -987.3 -1240 -508.1 -410.4 654.6 -205.2 -68.39 -674.6 -605.8 146.6 -293.1 -1270 -361.5
1.81 312.7 674.2 107.5 625.3 -508.1 -205.2 -1436 -1309 -1406 -732.8 -293.1 713.2 -146.6 -78.16 -771.9 -683.9 244.3 -214.9 -1367 -351.7
1.815 429.9 810.9 293.1 781.6 -312.7 -78.16 -1260 -1505 -1416 -879.8 -156.3 801.2 -39.08 -48.85 -810.9 -664.4 381 -29.31 -1280 -322.4
1.82 508.1 898.9 449.4 908.6 -58.62 117.2 -918.4 -1495 -1280 -889.1 -58.62 869.6 39.08 0 -771.9 -527.6 508.1 224.7 -1025 -302.9
1.825 576.5 908.6 566.7 996.6 214.9 342 -449.4 -1260 -977.5 -762.1 9.77 898.9 127 87.93 -644.8 -312.7 625.3 488.5 -615.5 -224.7
1.83 566.7 810.9 605.8 996.6 429.9 547.1 19.54 -840.3 -586.2 -508.1 9.77 879.3 175.9 185.6 -459.2 -48.85 683.9 683.9 -136.8 -117.2
1.835 478.7 664.4 508.1 928.2 508.1 693.7 410.4 -283.3 -195.4 -146.6 -58.62 830.5 146.6 273.6 -273.6 234.5 644.8 771.9 312.7 -39.08
1.84 312.7 449.4 293.1 762.1 429.9 703.5 644.8 263.8 97.7 195.4 -214.9 723 48.85 332.2 -127 459.2 469 664.4 654.6 19.54
1.845 107.5 234.5 19.54 537.4 205.2 625.3 713.2 762.1 302.9 508.1 -390.8 596 -87.93 351.7 -29.31 625.3 214.9 469 879.3 39.08
1.85 -58.62 87.93 -234.5 322.4 -68.39 478.7 625.3 1133 381 732.8 -537.4 488.5 -244.3 351.7 -9.77 703.5 -19.54 244.3 957.5 29.31
1.855 -166.1 -39.08 -429.9 117.2 -351.7 302.9 410.4 1280 332.2 791.4 -625.3 351.7 -390.8 283.3 -48.85 674.2 -205.2 29.31 889.1 9.77
1.86 -224.7 -97.7 -537.4 0 -586.2 156.3 117.2 1241 166.1 723 -664.4 244.3 -478.7 185.6 -136.8 547.1 -302.9 -87.93 683.9 -39.08
1.865 -224.7 -68.39 -556.9 -19.54 -732.8 39.08 -175.9 996.6 -58.62 527.6 -644.8 195.4 -517.8 78.16 -244.3 322.4 -322.4 -156.3 361.5 -127
1.87 -244.3 0 -556.9 0 -830.5 -87.93 -488.5 596 -351.7 244.3 -605.8 156.3 -517.8 -29.31 -361.5 29.31 -332.2 -185.6 -58.62 -254
1.875 -263.8 78.16 -537.4 29.31 -869.6 -244.3 -771.9 97.7 -644.8 -68.39 -586.2 146.6 -508.1 -146.6 -439.7 -293.1 -342 -234.5 -527.6 -371.3
1.88 -254 127 -508.1 29.31 -850 -420.1 -987.3 -400.6 -869.6 -400.6 -547.6 117.2 -478.7 -273.6 -478.7 -615.5 -342 -332.2 -928.2 -381
1.885 -244.3 117.2 -478.7 0 -810.9 -586.2 -1182 -840.3 -1055 -664.4 -498.3 117.2 -439.7 -351.7 -508.1 -850 -342 -449.4 -1250 -342
1.89 -254 58.62 -478.7 -97.7 -801.2 -742.6 -1348 -1192 -1192 -850 -459.2 117.2 -400.6 -390.8 -527.6 -967.8 -381 -596 -1495 -273.6
1.895 -254 -19.54 -508.1 -234.5 -830.5 -908.6 -1495 -1514 -1280 -987.3 -390.8 87.93 -351.7 -420.1 -556.9 -1025 -429.9 -781.6 -1671 -166.1
1.9 -283.3 -87.93 -556.9 -342 -898.9 -1045 -1612 -1768 -1348 -1055 -351.7 78.16 -351.7 -390.8 -605.8 -996.6 -527.6 -918.4 -1817 -127
1.905 -322.4 -166.1 -615.5 -429.9 -967.8 -1133 -1651 -1983 -1367 -1085 -342 78.16 -371.3 -361.5 -655.1 -957.5 -605.8 -1006 -1876 -97.7
1.91 -302.9 -234.5 -596 -469 -928.2 -1124 -1524 -2081 -1270 -1085 -293.1 87.93 -381 -322.4 -644.8 -908.6 -605.8 -996.6 -1759 -19.54
1.915 -254 -254 -508.1 -390.8 -752.3 -938 -1231 -1915 -1055 -947.7 -244.3 185.6 -351.7 -214.9 -566.7 -781.6 -527.6 -820.7 -1436 39.08
1.92 -185.6 -273.6 -371.3 -273.6 -498.3 -625.3 -801.2 -1475 -723 -674.6 -195.4 312.7 -293.1 -58.62 -420.1 -566.7 -390.8 -527.6 -918.4 97.7
1.925 -97.7 -283.3 -224.7 -166.1 -195.4 -254 -263.8 -801.2 -293.1 -293.1 -156.3 400.6 -214.9 107.5 -166.1 -263.8 -244.3 -195.4 -254 146.6
1.93 -68.39 -302.9 -107.5 -87.93 48.85 87.93 263.8 9.77 166.1 185.6 -166.1 449.4 -146.6 283.3 136.8 87.93 -146.6 107.5 410.4 146.6
1.935 -117.2 -400.6 -87.93 -136.8 166.1 273.6 683.9 742.6 586.2 635.1 -234.5 381 -107.5 390.8 429.9 410.4 -175.9 263.8 967.3 127
1.94 -205.2 -547.6 -156.3 -293.1 156.3 302.9 967.3 1299 918.4 977 -332.2 234.5 -117.2 429.9 693.7 664.4 -302.9 244.3 1319 117.2
1.945 -342 -713.2 -332.2 -527.6 0 156.3 1045 1583 1124 1172 -429.9 39.08 -136.8 390.8 840.3 801.2 -508.1 68.39 1417 107.5
1.95 -439.7 -850 -547.6 -771.9 -214.9 -78.16 957.5 1573 1172 1212 -498.3 -127 -175.9 283.3 859.8 801.2 -732.8 -195.4 1309 97.7
1.955 -469 -889.1 -703.5 -947.7 -429.9 -312.7 781.6 1378 1114 1124 -508.1 -254 -205.2 146.6 791.4 703.5 -879.8 -439.7 1065 78.16
1.96 -449.4 -869.6 -771.9 -1025 -576.5 -517.8 576.5 1055 986.8 957.5 -449.4 -351.7 -205.2 9.77 654.6 517.8 -928.2 -576.5 771.9 39.08
1.965 -400.6 -742.6 -732.8 -957.5 -644.8 -605.8 371.3 732.8 791.4 762.1 -351.7 -361.5 -195.4 -87.93 478.7 312.7 -869.6 -556.9 488.5 -48.85
1.97 -361.5 -586.2 -625.3 -820.7 -635.6 -615.5 185.6 449.4 547.1 556.9 -273.6 -351.7 -205.2 -156.3 293.1 107.5 -752.3 -459.2 214.9 -156.3
1.975 -342 -420.1 -498.3 -625.3 -596 -547.6 -19.54 224.7 254 351.7 -214.9 -293.1 -224.7 -185.6 107.5 -58.62 -615.5 -351.7 -48.85 -254
1.98 -302.9 -234.5 -371.3 -420.1 -547.6 -429.9 -263.8 39.08 -58.62 146.6 -175.9 -195.4 -224.7 -175.9 -48.85 -166.1 -478.7 -283.3 -351.7 -332.2
1.985 -224.7 -127 -263.8 -283.3 -498.3 -400.6 -527.6 -195.4 -381 -97.7 -136.8 -146.6 -205.2 -175.9 -175.9 -283.3 -390.8 -351.7 -683.9 -332.2
1.99 -136.8 -68.39 -195.4 -214.9 -478.7 -449.4 -810.9 -527.6 -693.7 -410.4 -97.7 -87.93 -156.3 -195.4 -302.9 -400.6 -332.2 -508.1 -1055 -283.3
1.995 -39.08 -48.85 -175.9 -205.2 -459.2 -586.2 -1045 -967.8 -977.5 -742.6 -48.85 -78.16 -97.7 -234.5 -420.1 -547.6 -322.4 -693.7 -1406 -234.5
2 29.31 -29.31 -175.9 -214.9 -439.7 -742.6 -1182 -1436 -1201 -1085 9.77 -87.93 -48.85 -312.7 -527.6 -742.6 -312.7 -801.2 -1641 -185.6
2.005 97.7 19.54 -156.3 -175.9 -381 -840.3 -1211 -1827 -1358 -1358 78.16 -78.16 0 -381 -635.6 -967.8 -273.6 -771.9 -1720 -166.1
2.01 146.6 97.7 -127 -97.7 -273.6 -810.9 -1094 -2042 -1387 -1514 146.6 -48.85 29.31 -410.4 -683.9 -1192 -195.4 -586.2 -1582 -175.9
2.015 185.6 185.6 -29.31 9.77 -97.7 -635.6 -850 -1993 -1280 -1524 224.7 19.54 58.62 -381 -655.1 -1329 -78.16 -283.3 -1240 -175.9
2.02 224.7 224.7 58.62 97.7 97.7 -400.6 -527.6 -1710 -1045 -1377 244.3 68.39 68.39 -322.4 -537.4 -1377 29.31 9.77 -742.6 -146.6
2.025 234.5 234.5 117.2 156.3 273.6 -107.5 -166.1 -1172 -703.5 -1064 244.3 117.2 78.16 -214.9 -342 -1280 107.5 283.3 -166.1 -107.5
2.03 244.3 195.4 136.8 156.3 420.1 175.9 195.4 -478.7 -273.6 -625.3 234.5 117.2 97.7 -107.5 -107.5 -1045 136.8 478.7 420.1 -48.85
2.035 224.7 97.7 107.5 68.39 488.5 381 547.1 244.3 166.1 -136.8 224.7 19.54 117.2 -29.31 127 -752.3 136.8 576.5 977 29.31
2.04 205.2 -9.77 58.62 -19.54 508.1 527.6 830.5 918.4 586.2 361.5 254 -68.39 136.8 39.08 342 -429.9 97.7 605.8 1407 107.5
2.045 175.9 -136.8 39.08 -127 488.5 586.2 1045 1436 947.7 771.9 283.3 -175.9 136.8 87.93 517.8 -156.3 68.39 556.9 1690 195.4
2.05 185.6 -205.2 39.08 -205.2 429.9 576.5 1153 1720 1192 1055 312.7 -234.5 136.8 107.5 635.1 39.08 58.62 478.7 1788 254
2.055 175.9 -195.4 29.31 -234.5 332.2 517.8 1133 1768 1280 1182 312.7 -195.4 107.5 127 683.9 175.9 29.31 381 1690 244.3
2.06 117.2 -166.1 -29.31 -263.8 205.2 410.4 1016 1612 1251 1163 234.5 -146.6 68.39 136.8 683.9 205.2 -48.85 263.8 1417 185.6
2.065 9.77 -136.8 -156.3 -283.3 68.39 273.6 810.9 1329 1094 1026 117.2 -107.5 9.77 136.8 615.5 185.6 -175.9 175.9 1036 48.85
2.07 -166.1 -146.6 -322.4 -342 -68.39 97.7 547.1 957.5 850 781.6 -39.08 -97.7 -58.62 117.2 488.5 97.7 -351.7 78.16 576.5 -107.5
2.075 -361.5 -214.9 -488.5 -420.1 -205.2 -87.93 293.1 547.1 586.2 478.7 -205.2 -175.9 -156.3 58.62 361.5 -9.77 -527.6 -9.77 117.2 -254
2.08 -488.5 -283.3 -547.6 -469 -273.6 -224.7 97.7 146.6 371.3 185.6 -302.9 -254 -244.3 -9.77 273.6 -97.7 -605.8 -68.39 -254 -342
2.085 -556.9 -332.2 -508.1 -478.7 -283.3 -351.7 -48.85 -254 195.4 -107.5 -322.4 -332.2 -293.1 -78.16 214.9 -195.4 -566.7 -136.8 -566.7 -322.4
2.09 -527.6 -342 -400.6 -469 -254 -429.9 -175.9 -644.8 48.85 -381 -302.9 -381 -302.9 -136.8 175.9 -293.1 -459.2 -214.9 -781.6 -224.7
2.095 -400.6 -273.6 -244.3 -390.8 -175.9 -449.4 -273.6 -957.5 -87.93 -596 -185.6 -351.7 -254 -146.6 127 -371.3 -263.8 -234.5 -879.8 -68.39
2.1 -224.7 -166.1 -97.7 -293.1 -107.5 -400.6 -381 -1192 -254 -781.6 -29.31 -254 -156.3 -107.5 29.31 -488.5 -48.85 -234.5 -879.8 78.16
2.105 -19.54 -39.08 39.08 -156.3 0 -283.3 -420.1 -1270 -400.6 -889.1 127 -127 -39.08 -48.85 -97.7 -586.2 156.3 -166.1 -723 224.7
2.11 185.6 107.5 214.9 19.54 166.1 -78.16 -342 -1172 -459.2 -898.9 302.9 29.31 107.5 9.77 -214.9 -655.1 400.6 -9.77 -390.8 332.2
2.115 351.7 195.4 381 166.1 371.3 97.7 -166.1 -957.5 -410.4 -830.5 429.9 136.8 254 58.62 -302.9 -683.9 596 156.3 19.54 410.4
2.12 400.6 205.2 469 234.5 537.4 224.7 39.08 -655.1 -273.6 -693.7 459.2 136.8 351.7 48.85 -322.4 -635.6 674.2 302.9 439.7 439.7
2.125 361.5 136.8 488.5 205.2 625.3 302.9 273.6 -293.1 -68.39 -488.5 439.7 39.08 410.4 39.08 -254 -498.3 625.3 400.6 781.6 420.1
2.13 254 0 390.8 87.93 596 322.4 459.2 87.93 156.3 -234.5 361.5 -117.2 420.1 29.31 -107.5 -273.6 469 420.1 1016 361.5
2.135 87.93 -146.6 224.7 -48.85 478.7 322.4 635.1 517.8 420.1 87.93 254 -293.1 400.6 58.62 107.5 19.54 244.3 400.6 1163 273.6
2.14 -19.54 -293.1 39.08 -195.4 342 302.9 820.7 908.6 703.5 439.7 195.4 -429.9 400.6 117.2 381 351.7 29.31 332.2 1251 214.9
2.145 -97.7 -439.7 -136.8 -371.3 185.6 234.5 977 1192 967.3 762.1 166.1 -556.9 420.1 175.9 674.2 644.8 -166.1 175.9 1280 195.4
2.15 -156.3 -547.6 -283.3 -527.6 29.31 107.5 1075 1348 1163 1016 185.6 -674.6 449.4 195.4 898.9 879.3 -332.2 -9.77 1221 185.6
2.155 -156.3 -635.6 -351.7 -693.7 -78.16 -87.93 1075 1309 1251 1124 224.7 -771.9 478.7 166.1 1016 967.3 -449.4 -263.8 1075 224.7
2.16 -117.2 -655.1 -332.2 -810.9 -156.3 -302.9 947.7 1143 1231 1124 273.6 -840.3 488.5 97.7 1016 938 -498.3 -469 830.5 224.7
2.165 -58.62 -586.2 -244.3 -840.3 -156.3 -488.5 752.3 908.6 1094 1045 342 -850 498.3 9.77 908.6 810.9 -478.7 -566.7 547.1 156.3
2.17 39.08 -469 -87.93 -781.6 -97.7 -635.6 547.1 625.3 918.4 889.1 420.1 -810.9 508.1 -87.93 762.1 596 -371.3 -547.6 283.3 97.7
2.175 175.9 -302.9 78.16 -615.5 29.31 -683.9 381 351.7 742.6 693.7 527.6 -723 537.4 -175.9 635.1 371.3 -185.6 -420.1 87.93 48.85
2.18 302.9 -136.8 214.9 -429.9 166.1 -664.4 273.6 78.16 566.7 469 615.5 -605.8 556.9 -244.3 537.4 166.1 0 -254 -29.31 39.08
2.185 390.8 0 312.7 -244.3 273.6 -596 195.4 -185.6 400.6 205.2 664.4 -488.5 547.1 -273.6 469 -9.77 175.9 -97.7 -127 48.85
2.19 439.7 117.2 361.5 -107.5 351.7 -488.5 127 -449.4 224.7 -68.39 703.5 -381 527.6 -263.8 400.6 -127 293.1 48.85 -214.9 58.62
2.195 420.1 205.2 351.7 -29.31 371.3 -361.5 9.77 -683.9 -9.77 -342 713.2 -312.7 488.5 -205.2 283.3 -224.7 293.1 175.9 -351.7 9.77
2.2 429.9 273.6 351.7 39.08 381 -214.9 -117.2 -879.8 -263.8 -596 723 -254 459.2 -146.6 136.8 -312.7 302.9 302.9 -469 -48.85
2.205 469 332.2 390.8 97.7 410.4 -68.39 -224.7 -996.6 -517.8 -830.5 762.1 -224.7 439.7 -117.2 -29.31 -390.8 351.7 410.4 -527.6 -78.16
2.21 547.1 371.3 459.2 175.9 439.7 68.39 -293.1 -1006 -732.8 -996.6 810.9 -214.9 420.1 -97.7 -224.7 -478.7 420.1 508.1 -478.7 -78.16
2.215 644.8 400.6 547.1 263.8 488.5 234.5 -312.7 -859.8 -859.8 -1036 850 -185.6 410.4 -97.7 -400.6 -517.8 537.4 586.2 -293.1 -19.54
2.22 693.7 400.6 605.8 322.4 508.1 381 -302.9 -605.8 -889.1 -967.8 859.8 -156.3 390.8 -97.7 -576.5 -508.1 596 635.1 -68.39 19.54
2.225 693.7 361.5 635.1 342 508.1 498.3 -273.6 -293.1 -830.5 -810.9 859.8 -127 361.5 -87.93 -693.7 -459.2 605.8 644.8 146.6 48.85
2.23 674.2 332.2 625.3 351.7 469 635.1 -205.2 39.08 -674.6 -576.5 820.7 -87.93 342 -48.85 -713.2 -342 576.5 654.6 342 29.31
2.235 644.8 312.7 596 351.7 410.4 742.6 -107.5 322.4 -478.7 -361.5 781.6 -39.08 342 19.54 -635.6 -224.7 517.8 625.3 459.2 0
2.24 625.3 322.4 566.7 332.2 351.7 830.5 19.54 527.6 -263.8 -195.4 771.9 -9.77 371.3 97.7 -469 -146.6 469 586.2 517.8 -39.08
2.245 586.2 361.5 478.7 332.2 302.9 879.3 156.3 703.5 -78.16 -48.85 732.8 0 390.8 166.1 -254 -78.16 371.3 547.1 517.8 -97.7
2.25 537.4 342 371.3 263.8 254 830.5 254 771.9 58.62 29.31 674.2 -9.77 400.6 185.6 -39.08 -68.39 254 459.2 469 -136.8
2.255 420.1 234.5 234.5 127 205.2 693.7 312.7 791.4 185.6 97.7 605.8 -117.2 390.8 146.6 136.8 -68.39 78.16 322.4 381 -146.6
2.26 263.8 78.16 58.62 -29.31 146.6 508.1 312.7 771.9 283.3 205.2 488.5 -263.8 342 97.7 263.8 -19.54 -117.2 156.3 273.6 -166.1
2.265 127 -87.93 -78.16 -205.2 58.62 273.6 244.3 693.7 351.7 283.3 390.8 -410.4 293.1 39.08 332.2 48.85 -283.3 -48.85 156.3 -146.6
2.27 29.31 -214.9 -205.2 -342 -58.62 48.85 107.5 547.1 361.5 342 322.4 -498.3 244.3 0 312.7 136.8 -400.6 -273.6 -9.77 -97.7
2.275 -9.77 -224.7 -273.6 -390.8 -185.6 -117.2 -58.62 371.3 302.9 342 302.9 -517.8 205.2 -19.54 234.5 234.5 -439.7 -429.9 -205.2 -87.93
2.28 -19.54 -205.2 -254 -390.8 -283.3 -263.8 -234.5 117.2 175.9 244.3 322.4 -537.4 166.1 -68.39 107.5 244.3 -400.6 -527.6 -390.8 -58.62
2.285 -39.08 -156.3 -195.4 -361.5 -342 -371.3 -390.8 -175.9 0 39.08 322.4 -547.6 117.2 -136.8 -58.62 166.1 -342 -527.6 -566.7 -68.39
2.29 -29.31 -136.8 -107.5 -332.2 -342 -459.2 -498.3 -537.4 -185.6 -244.3 312.7 -566.7 78.16 -244.3 -224.7 -9.77 -244.3 -459.2 -693.7 -58.62
2.295 0 -136.8 -19.54 -322.4 -283.3 -537.4 -537.4 -898.9 -361.5 -586.2 244.3 -566.7 29.31 -361.5 -371.3 -263.8 -146.6 -381 -771.9 -9.77
2.3 68.39 -78.16 78.16 -293.1 -185.6 -556.9 -527.6 -1201 -488.5 -898.9 156.3 -459.2 0 -429.9 -478.7 -527.6 -19.54 -293.1 -771.9 58.62
2.305 214.9 19.54 214.9 -244.3 -29.31 -537.4 -449.4 -1387 -556.9 -1153 97.7 -293.1 0 -469 -508.1 -752.3 166.1 -224.7 -644.8 234.5
2.31 381 156.3 381 -136.8 146.6 -420.1 -312.7 -1358 -537.4 -1260 39.08 -87.93 0 -439.7 -488.5 -889.1 381 -146.6 -381 410.4
2.315 556.9 263.8 547.1 -29.31 332.2 -273.6 -156.3 -1201 -469 -1309 0 97.7 39.08 -400.6 -439.7 -967.8 625.3 -127 -39.08 644.8
2.32 723 342 664.4 68.39 439.7 -136.8 -9.77 -938 -361.5 -1270 -58.62 283.3 68.39 -322.4 -361.5 -977.5 830.5 -175.9 312.7 869.6
2.325 771.9 371.3 644.8 156.3 429.9 0 39.08 -596 -293.1 -1124 -175.9 449.4 48.85 -224.7 -312.7 -859.8 879.3 -234.5 556.9 957.5
2.33 713.2 351.7 527.6 185.6 322.4 48.85 39.08 -263.8 -234.5 -908.6 -342 547.1 0 -107.5 -254 -664.4 801.2 -342 674.2 957.5
2.335 556.9 342 322.4 195.4 127 117.2 -9.77 78.16 -195.4 -576.5 -498.3 644.8 -87.93 39.08 -205.2 -322.4 596 -381 644.8 771.9
2.34 322.4 302.9 107.5 175.9 -39.08 175.9 -68.39 390.8 -146.6 -205.2 -625.3 683.9 -156.3 175.9 -136.8 68.39 332.2 -371.3 517.8 517.8
2.345 127 254 -9.77 127 -146.6 195.4 -97.7 586.2 -58.62 107.5 -674.6 664.4 -205.2 293.1 -68.39 449.4 127 -351.7 371.3 322.4
2.35 0 195.4 -19.54 97.7 -146.6 234.5 -68.39 693.7 78.16 371.3 -664.4 644.8 -195.4 390.8 0 771.9 29.31 -283.3 254 185.6
2.355 -29.31 97.7 68.39 58.62 -19.54 234.5 29.31 703.5 263.8 508.1 -586.2 576.5 -136.8 439.7 97.7 967.3 78.16 -244.3 195.4 224.7
2.36 29.31 0 263.8 19.54 214.9 214.9 234.5 625.3 508.1 527.6 -449.4 469 -19.54 429.9 234.5 1036 234.5 -234.5 254 400.6
2.365 136.8 -97.7 478.7 0 498.3 195.4 508.1 547.1 742.6 469 -273.6 381 127 400.6 390.8 996.6 429.9 -234.5 390.8 635.1
2.37 273.6 -136.8 654.6 0 781.6 195.4 791.4 459.2 938 371.3 -87.93 293.1 263.8 351.7 547.1 889.1 625.3 -224.7 566.7 830.5
2.375 400.6 -87.93 791.4 48.85 1006 195.4 1016 381 1045 244.3 58.62 234.5 371.3 283.3 664.4 752.3 781.6 -185.6 713.2 938
2.38 498.3 39.08 889.1 166.1 1114 214.9 1143 312.7 1036 127 146.6 244.3 429.9 224.7 703.5 605.8 908.6 -68.39 781.6 889.1
2.385 556.9 234.5 957.5 332.2 1143 254 1182 224.7 947.7 29.31 195.4 283.3 439.7 175.9 703.5 488.5 996.6 87.93 762.1 742.6
2.39 596 439.7 996.6 527.6 1104 302.9 1143 146.6 820.7 -58.62 205.2 400.6 439.7 175.9 674.2 390.8 1065 234.5 683.9 566.7
2.395 615.5 605.8 1006 703.5 986.8 361.5 1045 97.7 703.5 -107.5 224.7 566.7 400.6 214.9 625.3 332.2 1085 342 605.8 420.1
2.4 576.5 683.9 967.3 820.7 810.9 420.1 889.1 68.39 566.7 -146.6 224.7 674.2 332.2 273.6 537.4 293.1 1055 381 517.8 332.2
2.405 547.1 703.5 908.6 879.3 635.1 508.1 703.5 97.7 439.7 -156.3 205.2 752.3 254 351.7 420.1 293.1 986.8 371.3 449.4 283.3
2.41 498.3 635.1 840.3 869.6 449.4 556.9 488.5 117.2 283.3 -185.6 175.9 742.6 166.1 390.8 254 283.3 918.4 293.1 381 302.9
2.415 459.2 547.1 771.9 830.5 283.3 586.2 263.8 127 87.93 -205.2 146.6 693.7 97.7 390.8 68.39 273.6 840.3 185.6 312.7 322.4
2.42 429.9 459.2 664.4 771.9 146.6 576.5 48.85 127 -87.93 -234.5 97.7 654.6 19.54 361.5 -117.2 273.6 762.1 48.85 244.3 332.2
2.425 371.3 351.7 508.1 664.4 0 478.7 -146.6 58.62 -263.8 -273.6 48.85 605.8 -39.08 293.1 -302.9 234.5 654.6 -146.6 146.6 371.3
2.43 302.9 293.1 342 556.9 -107.5 342 -293.1 -29.31 -390.8 -273.6 0 566.7 -97.7 234.5 -420.1 185.6 527.6 -332.2 48.85 371.3
2.435 224.7 254 205.2 469 -166.1 166.1 -371.3 -127 -459.2 -234.5 -39.08 537.4 -146.6 175.9 -469 136.8 400.6 -439.7 -29.31 312.7
2.44 136.8 234.5 127 390.8 -156.3 0 -361.5 -185.6 -449.4 -146.6 -78.16 488.5 -166.1 117.2 -410.4 78.16 293.1 -410.4 -87.93 205.2
2.445 78.16 254 117.2 371.3 -48.85 -87.93 -263.8 -156.3 -371.3 -19.54 -107.5 469 -166.1 78.16 -263.8 48.85 224.7 -234.5 -87.93 68.39
2.45 58.62 273.6 175.9 410.4 146.6 -68.39 -78.16 -29.31 -214.9 97.7 -107.5 439.7 -146.6 68.39 -48.85 58.62 254 58.62 0 -39.08
2.455 78.16 293.1 254 469 371.3 48.85 127 107.5 -19.54 166.1 -107.5 410.4 -117.2 87.93 166.1 87.93 332.2 371.3 117.2 -68.39
2.46 146.6 351.7 322.4 547.1 547.1 263.8 322.4 263.8 146.6 195.4 -78.16 410.4 -78.16 175.9 361.5 156.3 449.4 625.3 254 -48.85
2.465 234.5 390.8 381 605.8 654.6 478.7 478.7 351.7 302.9 175.9 -29.31 410.4 -39.08 283.3 517.8 234.5 547.1 781.6 351.7 9.77
2.47 263.8 410.4 361.5 615.5 625.3 625.3 537.4 361.5 400.6 156.3 -19.54 429.9 -29.31 390.8 576.5 312.7 547.1 791.4 322.4 19.54
2.475 224.7 410.4 293.1 576.5 508.1 635.1 508.1 273.6 429.9 136.8 -29.31 449.4 -29.31 449.4 586.2 351.7 439.7 674.2 185.6 0
2.48 166.1 332.2 195.4 449.4 322.4 498.3 420.1 87.93 420.1 87.93 -29.31 420.1 -19.54 429.9 537.4 302.9 293.1 429.9 0 -29.31
2.485 97.7 283.3 97.7 342 117.2 322.4 293.1 -97.7 390.8 48.85 -19.54 400.6 -19.54 390.8 449.4 205.2 127 175.9 -195.4 -68.39
2.49 68.39 244.3 39.08 254 -68.39 166.1 127 -254 322.4 0 9.77 390.8 -19.54 312.7 342 48.85 19.54 -39.08 -342 -87.93
2.495 68.39 263.8 19.54 224.7 -195.4 68.39 0 -312.7 254 -39.08 48.85 390.8 -19.54 244.3 224.7 -107.5 -19.54 -185.6 -410.4 -97.7
2.5 97.7 342 29.31 283.3 -244.3 87.93 -97.7 -254 195.4 -29.31 68.39 410.4 -29.31 214.9 146.6 -224.7 -19.54 -224.7 -390.8 -117.2
2.505 136.8 381 29.31 322.4 -244.3 87.93 -156.3 -146.6 156.3 0 68.39 390.8 -29.31 156.3 97.7 -283.3 -19.54 -244.3 -312.7 -107.5
2.51 136.8 371.3 0 302.9 -234.5 58.62 -195.4 -39.08 97.7 29.31 58.62 332.2 -29.31 127 68.39 -283.3 -39.08 -273.6 -234.5 -87.93
2.515 117.2 342 -68.39 263.8 -254 0 -263.8 29.31 0 68.39 58.62 254 -29.31 127 9.77 -205.2 -107.5 -312.7 -224.7 -87.93
2.52 78.16 273.6 -136.8 166.1 -312.7 -97.7 -410.4 19.54 -185.6 87.93 58.62 156.3 -48.85 107.5 -97.7 -117.2 -205.2 -381 -322.4 -117.2
2.525 19.54 214.9 -166.1 87.93 -371.3 -205.2 -596 -39.08 -400.6 97.7 48.85 48.85 -97.7 78.16 -244.3 -48.85 -254 -410.4 -488.5 -185.6
2.53 9.77 185.6 -107.5 48.85 -371.3 -302.9 -771.9 -166.1 -605.8 68.39 39.08 -48.85 -156.3 9.77 -410.4 -19.54 -244.3 -400.6 -674.6 -234.5
2.535 48.85 195.4 -9.77 68.39 -293.1 -332.2 -859.8 -273.6 -713.2 58.62 39.08 -107.5 -195.4 -39.08 -527.6 -9.77 -166.1 -302.9 -781.6 -302.9
2.54 117.2 244.3 97.7 146.6 -136.8 -244.3 -810.9 -312.7 -703.5 107.5 48.85 -117.2 -224.7 -58.62 -537.4 0 -48.85 -107.5 -752.3 -342
2.545 185.6 263.8 166.1 234.5 48.85 -87.93 -596 -244.3 -547.6 205.2 58.62 -87.93 -214.9 -19.54 -439.7 58.62 39.08 107.5 -576.5 -351.7
2.55 234.5 312.7 195.4 371.3 244.3 166.1 -263.8 -48.85 -293.1 390.8 48.85 0 -185.6 97.7 -234.5 214.9 107.5 371.3 -302.9 -371.3
2.555 254 351.7 224.7 478.7 410.4 429.9 136.8 195.4 9.77 576.5 48.85 97.7 -136.8 224.7 29.31 390.8 175.9 576.5 19.54 -342
2.56 224.7 361.5 234.5 527.6 508.1 625.3 527.6 420.1 332.2 732.8 29.31 175.9 -78.16 342 302.9 556.9 195.4 664.4 302.9 -293.1
2.565 107.5 371.3 166.1 537.4 478.7 732.8 791.4 605.8 576.5 869.6 -39.08 254 -68.39 429.9 508.1 713.2 136.8 674.2 469 -293.1
2.57 -87.93 332.2 0 449.4 332.2 703.5 918.4 703.5 752.3 977 -185.6 283.3 -107.5 469 625.3 781.6 -19.54 605.8 527.6 -322.4
2.575 -351.7 244.3 -273.6 302.9 68.39 596 869.6 762.1 810.9 1065 -381 273.6 -205.2 459.2 625.3 801.2 -283.3 498.3 459.2 -459.2
2.58 -635.6 156.3 -556.9 175.9 -195.4 469 713.2 810.9 781.6 1133 -576.5 244.3 -322.4 410.4 537.4 762.1 -556.9 449.4 342 -625.3
2.585 -781.6 127 -703.5 127 -351.7 400.6 527.6 869.6 683.9 1163 -655.1 195.4 -390.8 342 420.1 683.9 -674.6 459.2 234.5 -742.6
2.59 -781.6 156.3 -683.9 185.6 -390.8 400.6 332.2 918.4 527.6 1133 -625.3 156.3 -390.8 273.6 283.3 596 -625.3 556.9 127 -810.9
2.595 -693.7 195.4 -566.7 283.3 -351.7 410.4 127 889.1 332.2 1026 -547.6 97.7 -361.5 195.4 166.1 498.3 -469 644.8 39.08 -801.2
2.6 -605.8 195.4 -449.4 351.7 -332.2 361.5 -78.16 781.6 97.7 859.8 -488.5 29.31 -342 107.5 48.85 390.8 -332.2 674.2 -87.93 -762.1
2.605 -605.8 146.6 -459.2 351.7 -381 244.3 -322.4 596 -146.6 683.9 -488.5 -48.85 -361.5 19.54 -87.93 302.9 -312.7 635.1 -283.3 -762.1
2.61 -683.9 39.08 -576.5 244.3 -508.1 29.31 -566.7 351.7 -400.6 488.5 -547.6 -175.9 -429.9 -78.16 -244.3 214.9 -449.4 478.7 -488.5 -781.6
2.615 -801.2 -68.39 -752.3 78.16 -655.1 -195.4 -762.1 107.5 -625.3 342 -615.5 -283.3 -498.3 -175.9 -400.6 146.6 -655.1 283.3 -683.9 -830.5
2.62 -889.1 -156.3 -898.9 -107.5 -752.3 -390.8 -879.8 -117.2 -762.1 205.2 -644.8 -342 -576.5 -224.7 -508.1 68.39 -840.3 78.16 -810.9 -850
2.625 -908.6 -214.9 -977.5 -283.3 -810.9 -508.1 -918.4 -322.4 -859.8 58.62 -644.8 -351.7 -615.5 -244.3 -586.2 -9.77 -977.5 -107.5 -879.8 -840.3
2.63 -918.4 -254 -987.3 -381 -820.7 -517.8 -918.4 -488.5 -957.5 -78.16 -605.8 -283.3 -635.6 -214.9 -693.7 -97.7 -1055 -224.7 -918.4 -820.7
2.635 -859.8 -254 -938 -400.6 -771.9 -439.7 -898.9 -615.5 -1055 -254 -537.4 -195.4 -615.5 -156.3 -830.5 -185.6 -1016 -273.6 -889.1 -723
2.64 -762.1 -214.9 -840.3 -342 -674.6 -273.6 -869.6 -655.1 -1182 -400.6 -439.7 -78.16 -547.6 -68.39 -1016 -195.4 -908.6 -214.9 -820.7 -605.8
2.645 -644.8 -175.9 -732.8 -244.3 -537.4 -58.62 -820.7 -586.2 -1290 -469 -351.7 19.54 -478.7 0 -1221 -127 -723 -58.62 -664.4 -459.2
2.65 -459.2 -166.1 -566.7 -166.1 -342 156.3 -683.9 -410.4 -1280 -439.7 -254 87.93 -400.6 78.16 -1319 19.54 -469 127 -381 -234.5
2.655 -312.7 -195.4 -420.1 -117.2 -166.1 351.7 -488.5 -107.5 -1114 -283.3 -185.6 127 -332.2 127 -1290 244.3 -254 332.2 -48.85 -58.62
2.66 -263.8 -302.9 -351.7 -175.9 -58.62 420.1 -244.3 205.2 -820.7 -48.85 -156.3 78.16 -293.1 117.2 -1085 459.2 -166.1 439.7 254 68.39
2.665 -302.9 -478.7 -371.3 -342 -39.08 322.4 0 449.4 -420.1 205.2 -175.9 -48.85 -273.6 48.85 -762.1 615.5 -214.9 400.6 498.3 146.6
2.67 -449.4 -644.8 -527.6 -547.6 -185.6 127 166.1 596 -48.85 469 -254 -214.9 -302.9 -58.62 -429.9 703.5 -469 244.3 556.9 78.16
2.675 -655.1 -781.6 -732.8 -762.1 -429.9 -156.3 214.9 586.2 214.9 644.8 -342 -410.4 -342 -195.4 -146.6 703.5 -801.2 19.54 459.2 -58.62
2.68 -820.7 -869.6 -898.9 -928.2 -664.4 -459.2 195.4 449.4 390.8 713.2 -400.6 -576.5 -381 -322.4 48.85 596 -1104 -224.7 263.8 -214.9
2.685 -898.9 -879.8 -987.3 -1006 -850 -703.5 107.5 224.7 469 674.2 -400.6 -674.6 -381 -429.9 166.1 410.4 -1280 -400.6 19.54 -361.5
2.69 -859.8 -859.8 -918.4 -1036 -889.1 -898.9 39.08 -58.62 498.3 488.5 -312.7 -713.2 -322.4 -527.6 263.8 146.6 -1260 -537.4 -175.9 -371.3
2.695 -723 -781.6 -752.3 -957.5 -820.7 -987.3 0 -342 498.3 273.6 -175.9 -664.4 -234.5 -586.2 332.2 -127 -1075 -586.2 -332.2 -312.7
2.7 -508.1 -644.8 -537.4 -810.9 -703.5 -967.8 -58.62 -566.7 449.4 58.62 9.77 -547.6 -107.5 -596 371.3 -351.7 -820.7 -556.9 -449.4 -254
2.705 -322.4 -498.3 -351.7 -625.3 -586.2 -869.6 -146.6 -713.2 342 -127 175.9 -400.6 0 -566.7 361.5 -517.8 -566.7 -488.5 -556.9 -185.6
2.71 -214.9 -342 -234.5 -410.4 -508.1 -683.9 -302.9 -771.9 166.1 -244.3 244.3 -244.3 29.31 -508.1 283.3 -586.2 -390.8 -381 -664.4 -195.4
2.715 -146.6 -283.3 -175.9 -293.1 -439.7 -517.8 -488.5 -810.9 -39.08 -381 254 -156.3 29.31 -469 156.3 -644.8 -283.3 -322.4 -762.1 -166.1
2.72 -117.2 -302.9 -136.8 -234.5 -390.8 -361.5 -664.4 -859.8 -263.8 -517.8 224.7 -136.8 9.77 -449.4 0 -693.7 -205.2 -312.7 -830.5 -107.5
2.725 -87.93 -361.5 -107.5 -234.5 -322.4 -234.5 -801.2 -908.6 -488.5 -644.8 205.2 -166.1 -9.77 -459.2 -185.6 -742.6 -136.8 -322.4 -859.8 -9.77
2.73 -19.54 -449.4 -48.85 -263.8 -244.3 -136.8 -859.8 -947.7 -655.1 -752.3 224.7 -234.5 0 -469 -342 -781.6 -48.85 -322.4 -810.9 127
2.735 9.77 -478.7 -9.77 -244.3 -175.9 -9.77 -850 -879.8 -752.3 -732.8 234.5 -273.6 0 -449.4 -478.7 -742.6 0 -234.5 -683.9 175.9
2.74 9.77 -478.7 0 -224.7 -107.5 97.7 -713.2 -723 -732.8 -615.5 244.3 -293.1 9.77 -410.4 -537.4 -644.8 39.08 -68.39 -429.9 195.4
2.745 -58.62 -488.5 -19.54 -205.2 -29.31 214.9 -459.2 -449.4 -576.5 -381 205.2 -312.7 9.77 -351.7 -488.5 -469 29.31 156.3 -97.7 156.3
2.75 -234.5 -488.5 -97.7 -175.9 29.31 332.2 -146.6 -78.16 -322.4 -58.62 97.7 -332.2 -9.77 -273.6 -381 -214.9 -39.08 410.4 244.3 39.08
2.755 -400.6 -517.8 -175.9 -185.6 117.2 390.8 205.2 283.3 -9.77 244.3 0 -371.3 -39.08 -244.3 -205.2 19.54 -127 615.5 576.5 -19.54
2.76 -527.6 -517.8 -254 -185.6 195.4 410.4 527.6 615.5 302.9 527.6 -87.93 -410.4 -48.85 -244.3 0 244.3 -205.2 742.6 840.3 -97.7
2.765 -586.2 -498.3 -302.9 -195.4 214.9 351.7 752.3 869.6 576.5 771.9 -136.8 -449.4 -48.85 -263.8 195.4 420.1 -283.3 791.4 977 -185.6
2.77 -517.8 -469 -283.3 -224.7 224.7 195.4 908.6 957.5 830.5 908.6 -87.93 -478.7 9.77 -302.9 410.4 517.8 -302.9 703.5 1055 -166.1
2.775 -410.4 -449.4 -254 -293.1 175.9 -19.54 947.7 938 1016 967.3 0 -508.1 107.5 -332.2 586.2 556.9 -322.4 527.6 1026 -136.8
2.78 -332.2 -439.7 -254 -371.3 87.93 -263.8 889.1 810.9 1094 957.5 78.16 -508.1 166.1 -293.1 683.9 556.9 -381 302.9 898.9 -107.5
2.785 -244.3 -439.7 -244.3 -478.7 9.77 -517.8 771.9 596 1094 840.3 205.2 -478.7 234.5 -244.3 693.7 508.1 -400.6 58.62 752.3 -29.31
2.79 -205.2 -420.1 -254 -586.2 -117.2 -723 566.7 351.7 947.7 674.2 283.3 -429.9 244.3 -195.4 596 420.1 -449.4 -146.6 508.1 -19.54
2.795 -214.9 -400.6 -244.3 -664.4 -283.3 -859.8 283.3 97.7 693.7 469 293.1 -400.6 195.4 -146.6 400.6 312.7 -488.5 -322.4 195.4 -29.31
2.8 -234.5 -371.3 -224.7 -693.7 -478.7 -928.2 -58.62 -185.6 371.3 234.5 283.3 -381 97.7 -136.8 136.8 166.1 -508.1 -498.3 -185.6 -58.62
2.805 -263.8 -332.2 -234.5 -683.9 -723 -928.2 -498.3 -508.1 0 -29.31 214.9 -361.5 -29.31 -146.6 -156.3 -9.77 -527.6 -703.5 -683.9 -117.2
2.81 -293.1 -342 -273.6 -674.6 -918.4 -938 -918.4 -879.8 -351.7 -342 87.93 -361.5 -175.9 -205.2 -420.1 -244.3 -547.6 -967.8 -1172 -117.2
2.815 -322.4 -361.5 -361.5 -683.9 -1045 -947.7 -1280 -1250 -664.4 -693.7 -48.85 -322.4 -312.7 -302.9 -625.3 -527.6 -596 -1211 -1602 -78.16
2.82 -361.5 -420.1 -459.2 -732.8 -1055 -957.5 -1475 -1553 -889.1 -1025 -214.9 -283.3 -400.6 -420.1 -723 -801.2 -644.8 -1367 -1837 19.54
2.825 -478.7 -547.6 -556.9 -810.9 -947.7 -928.2 -1475 -1690 -977.5 -1280 -439.7 -254 -469 -508.1 -723 -987.3 -683.9 -1367 -1807 146.6
2.83 -586.2 -635.6 -596 -840.3 -762.1 -791.4 -1280 -1602 -957.5 -1367 -644.8 -214.9 -498.3 -517.8 -655.1 -1016 -664.4 -1172 -1544 254
2.835 -635.6 -723 -556.9 -810.9 -508.1 -556.9 -928.2 -1309 -801.2 -1290 -801.2 -156.3 -478.7 -439.7 -527.6 -889.1 -537.4 -840.3 -1036 361.5
2.84 -644.8 -762.1 -459.2 -693.7 -214.9 -244.3 -517.8 -869.6 -576.5 -1055 -928.2 -78.16 -429.9 -302.9 -381 -644.8 -332.2 -439.7 -429.9 449.4
2.845 -586.2 -713.2 -302.9 -488.5 78.16 78.16 -117.2 -351.7 -361.5 -732.8 -947.7 0 -342 -136.8 -263.8 -351.7 -87.93 -48.85 166.1 508.1
2.85 -469 -576.5 -127 -224.7 371.3 361.5 195.4 107.5 -185.6 -390.8 -889.1 127 -244.3 19.54 -195.4 -68.39 146.6 302.9 654.6 517.8
2.855 -361.5 -381 48.85 48.85 615.5 556.9 410.4 488.5 -58.62 -87.93 -771.9 234.5 -146.6 127 -156.3 156.3 342 576.5 967.3 478.7
2.86 -234.5 -166.1 214.9 283.3 771.9 615.5 547.1 742.6 19.54 136.8 -625.3 302.9 -78.16 175.9 -117.2 322.4 478.7 732.8 1133 420.1
2.865 -166.1 -29.31 322.4 381 810.9 498.3 615.5 840.3 117.2 283.3 -527.6 342 -39.08 156.3 -39.08 400.6 517.8 723 1172 361.5
2.87 -175.9 -9.77 312.7 322.4 703.5 254 644.8 820.7 234.5 371.3 -517.8 293.1 -39.08 58.62 58.62 400.6 410.4 556.9 1124 293.1
2.875 -302.9 -107.5 175.9 97.7 488.5 -58.62 644.8 713.2 381 410.4 -586.2 195.4 -78.16 -48.85 205.2 351.7 146.6 263.8 996.6 214.9
2.88 -508.1 -302.9 -78.16 -244.3 205.2 -400.6 615.5 537.4 508.1 390.8 -693.7 87.93 -117.2 -146.6 342 273.6 -205.2 -107.5 810.9 156.3
2.885 -723 -508.1 -351.7 -596 -68.39 -664.4 556.9 342 605.8 342 -791.4 -29.31 -156.3 -166.1 459.2 195.4 -556.9 -459.2 586.2 87.93
2.89 -850 -664.4 -566.7 -869.6 -293.1 -830.5 469 136.8 625.3 244.3 -820.7 -146.6 -175.9 -146.6 517.8 117.2 -801.2 -752.3 332.2 39.08
2.895 -830.5 -723 -644.8 -987.3 -469 -898.9 322.4 -68.39 566.7 87.93 -762.1 -224.7 -185.6 -107.5 488.5 29.31 -879.8 -967.8 68.39 29.31
2.9 -703.5 -655.1 -625.3 -947.7 -596 -869.6 87.93 -263.8 400.6 -78.16 -674.6 -254 -185.6 -78.16 371.3 -58.62 -810.9 -1075 -195.4 29.31
2.905 -527.6 -517.8 -537.4 -820.7 -703.5 -810.9 -205.2 -478.7 156.3 -302.9 -537.4 -244.3 -185.6 -87.93 175.9 -185.6 -664.4 -1153 -498.3 68.39
2.91 -361.5 -400.6 -449.4 -693.7 -820.7 -762.1 -556.9 -732.8 -146.6 -605.8 -429.9 -185.6 -195.4 -136.8 -39.08 -351.7 -517.8 -1240 -820.7 136.8
2.915 -263.8 -322.4 -410.4 -605.8 -938 -732.8 -947.7 -1045 -498.3 -947.7 -342 -107.5 -205.2 -205.2 -283.3 -556.9 -420.1 -1339 -1163 224.7
2.92 -156.3 -273.6 -371.3 -527.6 -996.6 -723 -1309 -1406 -850 -1339 -244.3 -9.77 -214.9 -293.1 -517.8 -820.7 -322.4 -1416 -1475 332.2
2.925 -58.62 -214.9 -351.7 -410.4 -1006 -664.4 -1622 -1710 -1182 -1700 -175.9 107.5 -214.9 -342 -732.8 -1085 -195.4 -1387 -1690 390.8
2.93 68.39 -78.16 -263.8 -195.4 -908.6 -508.1 -1827 -1895 -1466 -1983 -68.39 234.5 -205.2 -361.5 -928.2 -1339 0 -1172 -1778 410.4
2.935 224.7 136.8 -127 97.7 -723 -283.3 -1885 -1915 -1681 -2140 9.77 371.3 -195.4 -351.7 -1094 -1534 234.5 -810.9 -1710 371.3
2.94 342 361.5 29.31 400.6 -478.7 -58.62 -1817 -1759 -1798 -2140 97.7 459.2 -166.1 -312.7 -1182 -1641 488.5 -361.5 -1495 293.1
2.945 439.7 586.2 205.2 683.9 -205.2 117.2 -1563 -1436 -1749 -1944 175.9 527.6 -107.5 -263.8 -1163 -1622 723 78.16 -1124 224.7
2.95 498.3 762.1 351.7 879.3 58.62 234.5 -1172 -947.7 -1505 -1524 214.9 586.2 -19.54 -195.4 -1006 -1426 879.3 469 -644.8 127
2.955 498.3 820.7 429.9 947.7 293.1 293.1 -674.6 -371.3 -1085 -967.8 283.3 576.5 97.7 -127 -732.8 -1094 947.7 723 -107.5 58.62
2.96 459.2 810.9 439.7 918.4 469 312.7 -146.6 214.9 -556.9 -312.7 283.3 527.6 185.6 -58.62 -390.8 -635.6 908.6 859.8 390.8 0
2.965 342 664.4 351.7 742.6 547.1 283.3 293.1 683.9 -39.08 273.6 244.3 400.6 234.5 0 -48.85 -146.6 742.6 830.5 742.6 -48.85
2.97 166.1 429.9 185.6 449.4 498.3 185.6 596 957.5 381 732.8 156.3 205.2 224.7 0 224.7 263.8 469 644.8 879.3 -68.39
2.975 -9.77 175.9 0 127 371.3 58.62 742.6 1036 674.2 996.6 39.08 0 185.6 -9.77 449.4 586.2 175.9 342 830.5 -78.16
2.98 -175.9 -78.16 -146.6 -185.6 224.7 -87.93 781.6 947.7 869.6 1085 -29.31 -185.6 146.6 -58.62 625.3 752.3 -78.16 9.77 674.2 -48.85
2.985 -263.8 -224.7 -214.9 -390.8 97.7 -205.2 762.1 820.7 967.3 1065 -78.16 -332.2 117.2 -97.7 732.8 810.9 -234.5 -244.3 488.5 -19.54
2.99 -244.3 -254 -195.4 -459.2 58.62 -234.5 771.9 723 1036 996.6 -68.39 -390.8 107.5 -97.7 801.2 771.9 -244.3 -361.5 381 19.54
2.995 -136.8 -175.9 -87.93 -361.5 107.5 -117.2 810.9 703.5 1075 938 -9.77 -361.5 127 -19.54 840.3 713.2 -127 -283.3 381 29.31
3 19.54 -19.54 78.16 -146.6 254 107.5 908.6 762.1 1114 908.6 58.62 -263.8 166.1 58.62 859.8 635.1 78.16 -19.54 459.2 19.54
3.005 214.9 136.8 293.1 117.2 469 400.6 1036 840.3 1153 869.6 166.1 -146.6 244.3 146.6 879.3 547.1 351.7 312.7 605.8 29.31
3.01 390.8 273.6 508.1 381 693.7 674.2 1143 850 1153 752.3 293.1 -29.31 332.2 195.4 889.1 420.1 615.5 625.3 742.6 68.39
3.015 478.7 371.3 644.8 596 840.3 879.3 1153 801.2 1065 596 342 48.85 361.5 195.4 840.3 263.8 791.4 869.6 810.9 58.62
3.02 508.1 459.2 693.7 752.3 879.3 967.3 1055 664.4 889.1 390.8 361.5 117.2 332.2 195.4 713.2 78.16 889.1 1026 801.2 39.08
3.025 498.3 547.1 683.9 859.8 840.3 947.7 889.1 498.3 625.3 166.1 332.2 166.1 254 175.9 508.1 -117.2 928.2 1114 752.3 9.77
3.03 488.5 664.4 644.8 967.3 752.3 908.6 683.9 410.4 332.2 9.77 254 234.5 146.6 166.1 244.3 -273.6 957.5 1221 693.7 -58.62
3.035 547.1 771.9 664.4 1045 703.5 859.8 527.6 390.8 78.16 -87.93 244.3 312.7 87.93 146.6 -9.77 -381 1036 1290 703.5 -39.08
3.04 644.8 810.9 742.6 1065 713.2 810.9 439.7 439.7 -87.93 -146.6 273.6 361.5 68.39 136.8 -234.5 -390.8 1133 1290 771.9 58.62
3.045 752.3 801.2 830.5 1036 752.3 810.9 400.6 576.5 -195.4 -117.2 332.2 420.1 97.7 185.6 -400.6 -283.3 1221 1251 879.3 185.6
3.05 850 713.2 898.9 928.2 801.2 762.1 400.6 674.2 -234.5 -87.93 420.1 420.1 166.1 234.5 -498.3 -156.3 1270 1085 986.8 361.5
3.055 859.8 576.5 879.3 752.3 791.4 664.4 390.8 713.2 -254 -39.08 478.7 361.5 195.4 273.6 -537.4 -9.77 1182 850 996.6 449.4
3.06 771.9 459.2 781.6 566.7 713.2 517.8 342 703.5 -273.6 29.31 498.3 273.6 214.9 293.1 -517.8 127 986.8 576.5 889.1 420.1
3.065 615.5 302.9 625.3 322.4 576.5 302.9 283.3 596 -263.8 87.93 459.2 117.2 195.4 263.8 -429.9 234.5 713.2 273.6 693.7 361.5
3.07 400.6 127 429.9 58.62 390.8 78.16 205.2 469 -234.5 146.6 381 -58.62 117.2 205.2 -312.7 332.2 371.3 0 439.7 254
3.075 166.1 -39.08 224.7 -166.1 214.9 -87.93 136.8 361.5 -156.3 244.3 263.8 -214.9 39.08 156.3 -146.6 449.4 48.85 -195.4 195.4 136.8
3.08 -48.85 -224.7 19.54 -342 48.85 -195.4 87.93 293.1 -29.31 332.2 107.5 -361.5 -48.85 117.2 19.54 566.7 -224.7 -322.4 0 39.08
3.085 -244.3 -351.7 -156.3 -449.4 -87.93 -224.7 58.62 263.8 97.7 429.9 -29.31 -478.7 -156.3 97.7 166.1 654.6 -449.4 -381 -166.1 -48.85
3.09 -420.1 -439.7 -322.4 -469 -195.4 -205.2 58.62 263.8 234.5 517.8 -195.4 -556.9 -234.5 78.16 263.8 723 -596 -400.6 -254 -117.2
3.095 -517.8 -449.4 -429.9 -429.9 -244.3 -156.3 97.7 283.3 361.5 576.5 -302.9 -576.5 -293.1 78.16 302.9 732.8 -655.1 -400.6 -283.3 -156.3
3.1 -508.1 -381 -449.4 -361.5 -224.7 -127 156.3 293.1 449.4 586.2 -322.4 -556.9 -302.9 68.39 283.3 674.2 -605.8 -390.8 -244.3 -146.6
3.105 -410.4 -244.3 -361.5 -244.3 -156.3 -107.5 214.9 293.1 498.3 547.1 -254 -469 -244.3 87.93 254 576.5 -459.2 -332.2 -166.1 -127
3.11 -195.4 -48.85 -156.3 -58.62 -9.77 -58.62 283.3 283.3 508.1 469 -68.39 -332.2 -127 127 234.5 469 -234.5 -195.4 -48.85 -117.2
3.115 29.31 127 68.39 117.2 166.1 -19.54 351.7 254 488.5 332.2 156.3 -214.9 19.54 166.1 234.5 322.4 0 -29.31 78.16 -107.5
3.12 195.4 283.3 254 293.1 322.4 39.08 381 224.7 410.4 175.9 361.5 -127 156.3 175.9 254 195.4 185.6 156.3 166.1 -136.8
3.125 293.1 439.7 361.5 459.2 410.4 156.3 342 244.3 273.6 48.85 488.5 -48.85 234.5 185.6 234.5 78.16 273.6 351.7 185.6 -254
3.13 263.8 556.9 342 576.5 371.3 273.6 195.4 273.6 48.85 -39.08 488.5 0 214.9 175.9 146.6 -19.54 224.7 478.7 87.93 -429.9
3.135 156.3 635.1 214.9 625.3 234.5 342 -9.77 312.7 -195.4 -78.16 410.4 29.31 146.6 146.6 0 -107.5 87.93 517.8 -78.16 -625.3
3.14 48.85 693.7 78.16 605.8 87.93 342 -214.9 361.5 -400.6 -48.85 332.2 29.31 68.39 136.8 -156.3 -156.3 -48.85 488.5 -234.5 -781.6
3.145 29.31 644.8 -19.54 478.7 -19.54 205.2 -342 371.3 -517.8 -9.77 293.1 -48.85 39.08 107.5 -283.3 -185.6 -136.8 312.7 -322.4 -762.1
3.15 127 508.1 -48.85 293.1 -39.08 29.31 -361.5 351.7 -527.6 9.77 322.4 -185.6 68.39 48.85 -351.7 -185.6 -146.6 68.39 -293.1 -586.2
3.155 322.4 351.7 9.77 97.7 19.54 -117.2 -293.1 332.2 -439.7 48.85 439.7 -351.7 156.3 0 -351.7 -156.3 -48.85 -156.3 -175.9 -322.4
3.16 566.7 205.2 127 -48.85 107.5 -195.4 -214.9 293.1 -332.2 48.85 596 -488.5 254 -48.85 -332.2 -136.8 87.93 -371.3 -48.85 -9.77
3.165 762.1 136.8 263.8 -97.7 175.9 -185.6 -156.3 244.3 -254 29.31 732.8 -527.6 351.7 -48.85 -312.7 -107.5 224.7 -488.5 19.54 205.2
3.17 889.1 166.1 390.8 -48.85 205.2 -107.5 -127 195.4 -185.6 0 850 -488.5 429.9 -9.77 -273.6 -87.93 342 -498.3 48.85 312.7
3.175 928.2 234.5 449.4 9.77 175.9 -48.85 -146.6 78.16 -175.9 -78.16 908.6 -429.9 459.2 9.77 -244.3 -117.2 381 -469 0 332.2
3.18 869.6 312.7 459.2 87.93 136.8 -29.31 -156.3 -48.85 -185.6 -175.9 879.3 -371.3 449.4 9.77 -214.9 -175.9 351.7 -381 -87.93 254
3.185 752.3 342 400.6 97.7 87.93 -78.16 -146.6 -205.2 -175.9 -263.8 791.4 -390.8 400.6 -48.85 -175.9 -244.3 244.3 -273.6 -185.6 136.8
3.19 556.9 312.7 244.3 39.08 29.31 -156.3 -117.2 -312.7 -156.3 -302.9 644.8 -459.2 332.2 -136.8 -146.6 -293.1 58.62 -185.6 -273.6 0
3.195 361.5 263.8 29.31 -19.54 -29.31 -175.9 -58.62 -283.3 -97.7 -214.9 488.5 -498.3 244.3 -175.9 -97.7 -214.9 -166.1 -78.16 -283.3 -185.6
3.2 156.3 195.4 -234.5 -87.93 -127 -146.6 0 -136.8 0 -29.31 332.2 -508.1 136.8 -117.2 -48.85 -39.08 -410.4 -9.77 -224.7 -361.5
3.205 0 107.5 -498.3 -166.1 -263.8 -78.16 78.16 48.85 127 185.6 214.9 -488.5 58.62 -19.54 0 166.1 -625.3 -29.31 -117.2 -469
3.21 -107.5 9.77 -693.7 -254 -381 -39.08 127 214.9 263.8 381 127 -439.7 0 78.16 48.85 351.7 -771.9 -136.8 -19.54 -478.7
3.215 -166.1 -87.93 -801.2 -332.2 -498.3 -58.62 127 302.9 351.7 498.3 68.39 -400.6 -39.08 166.1 97.7 459.2 -859.8 -312.7 0 -429.9
3.22 -195.4 -175.9 -830.5 -429.9 -576.5 -166.1 68.39 293.1 361.5 537.4 58.62 -381 -48.85 185.6 107.5 459.2 -918.4 -498.3 -58.62 -400.6
3.225 -224.7 -244.3 -801.2 -508.1 -605.8 -312.7 -39.08 205.2 273.6 517.8 78.16 -390.8 -39.08 166.1 97.7 381 -947.7 -625.3 -224.7 -420.1
3.23 -273.6 -234.5 -762.1 -527.6 -586.2 -390.8 -185.6 127 127 488.5 78.16 -400.6 -19.54 107.5 48.85 254 -987.3 -635.6 -449.4 -517.8
3.235 -283.3 -185.6 -683.9 -498.3 -498.3 -390.8 -302.9 68.39 -48.85 439.7 87.93 -390.8 0 9.77 0 107.5 -967.8 -527.6 -644.8 -644.8
3.24 -254 -97.7 -566.7 -381 -322.4 -263.8 -342 68.39 -175.9 410.4 107.5 -361.5 48.85 -58.62 -29.31 0 -889.1 -322.4 -723 -742.6
3.245 -185.6 39.08 -410.4 -185.6 -127 -19.54 -332.2 146.6 -254 400.6 146.6 -293.1 87.93 -78.16 -58.62 -58.62 -762.1 -58.62 -693.7 -820.7
3.25 -68.39 175.9 -254 29.31 39.08 234.5 -293.1 273.6 -293.1 429.9 205.2 -224.7 127 -29.31 -68.39 -48.85 -596 195.4 -596 -859.8
3.255 39.08 302.9 -97.7 263.8 166.1 478.7 -244.3 410.4 -293.1 508.1 283.3 -175.9 175.9 58.62 -68.39 19.54 -400.6 420.1 -469 -889.1
3.26 146.6 390.8 29.31 469 205.2 615.5 -263.8 469 -332.2 537.4 342 -127 195.4 146.6 -87.93 107.5 -195.4 537.4 -400.6 -869.6
3.265 254 469 117.2 615.5 166.1 615.5 -342 400.6 -390.8 508.1 381 -58.62 224.7 195.4 -127 156.3 0 527.6 -410.4 -791.4
3.27 332.2 527.6 166.1 693.7 107.5 498.3 -459.2 244.3 -469 400.6 361.5 19.54 214.9 205.2 -166.1 166.1 146.6 459.2 -478.7 -683.9
3.275 371.3 547.1 175.9 664.4 39.08 283.3 -547.6 0 -537.4 214.9 302.9 136.8 195.4 166.1 -214.9 107.5 244.3 312.7 -547.6 -517.8
3.28 361.5 527.6 117.2 566.7 0 117.2 -547.6 -195.4 -537.4 68.39 166.1 273.6 136.8 136.8 -244.3 78.16 254 195.4 -527.6 -351.7
3.285 273.6 449.4 29.31 410.4 -29.31 48.85 -429.9 -224.7 -439.7 29.31 -29.31 400.6 68.39 146.6 -224.7 127 195.4 117.2 -400.6 -214.9
3.29 146.6 263.8 -78.16 195.4 -68.39 48.85 -214.9 -107.5 -214.9 87.93 -254 508.1 0 205.2 -136.8 263.8 68.39 9.77 -156.3 -29.31
3.295 -29.31 29.31 -244.3 -29.31 -146.6 107.5 9.77 127 68.39 254 -517.8 556.9 -97.7 312.7 0 488.5 -97.7 -136.8 127 127
3.3 -214.9 -254 -400.6 -293.1 -234.5 117.2 224.7 390.8 371.3 439.7 -762.1 517.8 -205.2 400.6 136.8 723 -302.9 -351.7 381 293.1
3.305 -410.4 -566.7 -547.6 -576.5 -342 19.54 371.3 586.2 654.6 566.7 -967.8 410.4 -302.9 429.9 283.3 879.3 -498.3 -605.8 556.9 449.4
3.31 -586.2 -801.2 -644.8 -830.5 -400.6 -136.8 449.4 674.2 850 625.3 -1133 283.3 -381 390.8 381 938 -655.1 -820.7 644.8 517.8
3.315 -693.7 -938 -674.6 -1006 -381 -312.7 478.7 635.1 947.7 586.2 -1182 185.6 -381 312.7 429.9 869.6 -762.1 -928.2 644.8 527.6
3.32 -742.6 -947.7 -664.4 -1055 -312.7 -429.9 469 498.3 957.5 469 -1143 146.6 -332.2 214.9 449.4 674.2 -791.4 -918.4 586.2 459.2
3.325 -683.9 -820.7 -566.7 -957.5 -166.1 -410.4 439.7 332.2 898.9 312.7 -1006 185.6 -244.3 136.8 410.4 420.1 -713.2 -752.3 517.8 342
3.33 -527.6 -586.2 -371.3 -693.7 19.54 -244.3 410.4 156.3 771.9 146.6 -791.4 302.9 -127 107.5 361.5 156.3 -527.6 -459.2 439.7 205.2
3.335 -312.7 -302.9 -97.7 -322.4 234.5 19.54 400.6 39.08 635.1 0 -537.4 459.2 0 107.5 322.4 -58.62 -224.7 -97.7 410.4 97.7
3.34 -78.16 0 195.4 87.93 429.9 302.9 361.5 -29.31 478.7 -117.2 -322.4 654.6 117.2 166.1 263.8 -205.2 97.7 254 361.5 0
3.345 136.8 283.3 459.2 439.7 576.5 498.3 293.1 -117.2 293.1 -234.5 -146.6 840.3 224.7 224.7 205.2 -283.3 400.6 508.1 263.8 -48.85
3.35 302.9 498.3 635.1 654.6 625.3 498.3 146.6 -273.6 78.16 -361.5 -48.85 957.5 263.8 263.8 127 -322.4 596 586.2 68.39 -78.16
3.355 371.3 654.6 664.4 742.6 547.1 302.9 -87.93 -517.8 -185.6 -478.7 -39.08 1006 224.7 263.8 0 -342 625.3 508.1 -244.3 -156.3
3.36 371.3 742.6 596 693.7 371.3 -19.54 -390.8 -830.5 -488.5 -625.3 -97.7 977 136.8 195.4 -146.6 -381 537.4 293.1 -635.6 -244.3
3.365 302.9 752.3 439.7 586.2 146.6 -332.2 -655.1 -1094 -752.3 -723 -214.9 889.1 19.54 117.2 -283.3 -429.9 390.8 78.16 -947.7 -312.7
3.37 224.7 732.8 283.3 498.3 -39.08 -429.9 -801.2 -1172 -908.6 -742.6 -322.4 810.9 -58.62 78.16 -400.6 -449.4 263.8 -9.77 -1094 -381
3.375 166.1 615.5 166.1 410.4 -136.8 -293.1 -771.9 -1036 -908.6 -683.9 -351.7 732.8 -68.39 68.39 -439.7 -439.7 195.4 0 -957.5 -342
3.38 146.6 478.7 107.5 400.6 -136.8 58.62 -547.6 -655.1 -752.3 -478.7 -302.9 703.5 0 136.8 -410.4 -322.4 195.4 146.6 -586.2 -263.8
3.385 136.8 322.4 87.93 410.4 -78.16 478.7 -214.9 -107.5 -478.7 -156.3 -214.9 674.2 87.93 244.3 -332.2 -117.2 205.2 351.7 -97.7 -185.6
3.39 136.8 127 97.7 381 9.77 781.6 136.8 429.9 -136.8 205.2 -156.3 635.1 185.6 332.2 -195.4 146.6 244.3 527.6 410.4 -97.7
3.395 117.2 -48.85 146.6 322.4 136.8 947.7 469 947.7 214.9 605.8 -146.6 576.5 254 429.9 0 469 263.8 674.2 850 -48.85
3.4 68.39 -234.5 175.9 195.4 273.6 967.3 742.6 1319 537.4 957.5 -185.6 488.5 293.1 508.1 205.2 771.9 234.5 752.3 1143 -19.54
3.405 0 -410.4 166.1 39.08 381 889.1 928.2 1544 801.2 1231 -244.3 410.4 322.4 556.9 439.7 1026 146.6 752.3 1280 -29.31
3.41 -97.7 -527.6 127 -87.93 459.2 791.4 1036 1632 986.8 1407 -283.3 332.2 322.4 586.2 654.6 1192 9.77 703.5 1290 -68.39
3.415 -136.8 -605.8 48.85 -195.4 459.2 683.9 1065 1563 1085 1446 -283.3 283.3 342 556.9 820.7 1221 -127 586.2 1202 -97.7
3.42 -97.7 -625.3 0 -254 400.6 566.7 1016 1378 1114 1358 -205.2 293.1 381 488.5 928.2 1124 -214.9 439.7 1055 -97.7
3.425 -9.77 -605.8 -9.77 -244.3 293.1 449.4 889.1 1104 1055 1172 -117.2 302.9 400.6 381 947.7 928.2 -234.5 283.3 859.8 -68.39
3.43 107.5 -547.6 19.54 -175.9 185.6 332.2 713.2 791.4 908.6 928.2 -19.54 332.2 400.6 263.8 869.6 674.2 -175.9 175.9 644.8 -48.85
3.435 254 -459.2 127 -39.08 146.6 254 527.6 498.3 703.5 654.6 68.39 381 400.6 156.3 713.2 420.1 -48.85 127 429.9 -29.31
3.44 400.6 -312.7 302.9 146.6 205.2 195.4 361.5 234.5 469 410.4 136.8 439.7 390.8 68.39 508.1 175.9 156.3 156.3 244.3 -9.77
3.445 605.8 -107.5 547.1 351.7 381 156.3 263.8 -29.31 244.3 136.8 254 508.1 429.9 0 322.4 -48.85 449.4 244.3 136.8 39.08
3.45 830.5 136.8 801.2 537.4 625.3 87.93 224.7 -312.7 48.85 -136.8 420.1 615.5 508.1 -19.54 195.4 -263.8 762.1 361.5 68.39 107.5
3.455 1026 351.7 996.6 635.1 810.9 -68.39 175.9 -674.6 -136.8 -478.7 547.1 683.9 576.5 -68.39 97.7 -517.8 986.8 400.6 -19.54 195.4
3.46 1172 498.3 1094 625.3 908.6 -312.7 127 -1085 -332.2 -850 654.6 693.7 615.5 -136.8 29.31 -771.9 1094 371.3 -136.8 263.8
3.465 1270 615.5 1075 586.2 859.8 -527.6 48.85 -1406 -517.8 -1143 703.5 674.2 605.8 -185.6 -39.08 -996.6 1075 302.9 -254 283.3
3.47 1319 644.8 986.8 498.3 674.2 -664.4 -48.85 -1622 -693.7 -1377 713.2 605.8 547.1 -234.5 -136.8 -1182 977 166.1 -322.4 312.7
3.475 1348 654.6 898.9 449.4 371.3 -615.5 -166.1 -1602 -820.7 -1446 732.8 566.7 488.5 -224.7 -244.3 -1240 879.3 58.62 -302.9 322.4
3.48 1348 625.3 810.9 410.4 29.31 -469 -293.1 -1406 -908.6 -1397 752.3 547.1 429.9 -195.4 -351.7 -1231 791.4 -48.85 -214.9 342
3.485 1309 478.7 732.8 322.4 -263.8 -322.4 -381 -1124 -908.6 -1280 781.6 488.5 400.6 -205.2 -420.1 -1182 693.7 -195.4 -87.93 410.4
3.49 1221 312.7 654.6 214.9 -429.9 -195.4 -390.8 -771.9 -820.7 -1075 781.6 400.6 371.3 -224.7 -410.4 -1094 586.2 -302.9 58.62 449.4
3.495 1094 117.2 556.9 58.62 -420.1 -146.6 -293.1 -469 -664.4 -859.8 742.6 263.8 361.5 -283.3 -322.4 -1025 449.4 -371.3 214.9 478.7
3.5 928.2 -87.93 449.4 -107.5 -263.8 -156.3 -127 -224.7 -469 -635.6 644.8 127 351.7 -322.4 -175.9 -938 283.3 -410.4 332.2 478.7
3.505 732.8 -205.2 342 -175.9 -78.16 -117.2 48.85 -19.54 -283.3 -390.8 517.8 68.39 351.7 -293.1 -19.54 -791.4 127 -361.5 390.8 410.4
3.51 547.1 -263.8 205.2 -146.6 58.62 -39.08 205.2 136.8 -107.5 -166.1 410.4 48.85 361.5 -205.2 117.2 -596 0 -283.3 390.8 293.1
3.515 400.6 -234.5 97.7 -9.77 127 107.5 322.4 293.1 48.85 58.62 322.4 107.5 381 -87.93 273.6 -351.7 -58.62 -166.1 381 166.1
3.52 332.2 -166.1 48.85 195.4 185.6 293.1 439.7 459.2 254 273.6 312.7 175.9 410.4 19.54 439.7 -97.7 -29.31 -29.31 410.4 58.62
3.525 322.4 -97.7 68.39 390.8 273.6 449.4 556.9 566.7 459.2 400.6 332.2 195.4 439.7 78.16 586.2 58.62 39.08 107.5 488.5 0
3.53 371.3 -9.77 166.1 576.5 410.4 566.7 664.4 625.3 625.3 469 371.3 205.2 469 117.2 713.2 146.6 166.1 293.1 586.2 -29.31
3.535 429.9 19.54 302.9 664.4 576.5 586.2 732.8 556.9 693.7 390.8 410.4 156.3 478.7 117.2 742.6 127 273.6 469 644.8 -39.08
3.54 469 68.39 449.4 674.2 742.6 537.4 732.8 400.6 644.8 234.5 449.4 146.6 498.3 127 693.7 78.16 351.7 664.4 625.3 -87.93
3.545 527.6 97.7 576.5 615.5 879.3 410.4 683.9 166.1 508.1 19.54 527.6 166.1 537.4 127 615.5 19.54 410.4 830.5 547.1 -127
3.55 596 87.93 683.9 498.3 977 224.7 605.8 -136.8 312.7 -244.3 654.6 175.9 576.5 107.5 508.1 -48.85 449.4 898.9 429.9 -127
3.555 635.1 117.2 732.8 410.4 986.8 97.7 469 -449.4 58.62 -508.1 742.6 224.7 566.7 117.2 381 -136.8 478.7 918.4 263.8 -127
3.56 683.9 195.4 723 371.3 879.3 19.54 254 -762.1 -234.5 -810.9 762.1 263.8 469 117.2 195.4 -283.3 517.8 859.8 58.62 -97.7
3.565 723 332.2 693.7 420.1 683.9 58.62 0 -1016 -596 -1104 723 332.2 302.9 136.8 -29.31 -469 576.5 781.6 -166.1 -78.16
3.57 762.1 488.5 664.4 537.4 439.7 156.3 -283.3 -1163 -938 -1367 654.6 410.4 117.2 156.3 -273.6 -664.4 664.4 713.2 -361.5 -58.62
3.575 869.6 644.8 723 654.6 273.6 273.6 -469 -1153 -1163 -1544 683.9 498.3 19.54 175.9 -459.2 -830.5 801.2 693.7 -429.9 0
3.58 1006 742.6 820.7 752.3 205.2 400.6 -517.8 -957.5 -1192 -1544 781.6 547.1 29.31 214.9 -527.6 -908.6 938 713.2 -322.4 78.16
3.585 1124 762.1 889.1 762.1 214.9 517.8 -429.9 -596 -1055 -1367 869.6 547.1 97.7 254 -517.8 -859.8 1006 762.1 -78.16 156.3
3.59 1124 713.2 859.8 703.5 263.8 605.8 -263.8 -136.8 -820.7 -1036 898.9 498.3 136.8 293.1 -449.4 -683.9 947.7 791.4 205.2 185.6
3.595 1006 635.1 703.5 605.8 263.8 674.2 -97.7 293.1 -576.5 -625.3 801.2 410.4 127 322.4 -390.8 -410.4 791.4 781.6 449.4 166.1
3.6 781.6 527.6 449.4 488.5 195.4 683.9 0 635.1 -371.3 -214.9 635.1 322.4 58.62 351.7 -351.7 -58.62 547.1 723 596 78.16
3.605 508.1 390.8 166.1 351.7 58.62 615.5 29.31 781.6 -234.5 97.7 439.7 175.9 -29.31 332.2 -312.7 273.6 293.1 576.5 615.5 29.31
3.61 263.8 244.3 -39.08 234.5 -78.16 478.7 9.77 791.4 -127 322.4 293.1 29.31 -107.5 293.1 -244.3 586.2 87.93 410.4 556.9 9.77
3.615 39.08 87.93 -214.9 117.2 -214.9 302.9 -48.85 674.2 -68.39 449.4 195.4 -117.2 -185.6 234.5 -175.9 801.2 -68.39 214.9 420.1 19.54
3.62 -156.3 -48.85 -332.2 9.77 -302.9 117.2 -117.2 488.5 -29.31 508.1 97.7 -244.3 -263.8 156.3 -87.93 918.4 -195.4 29.31 254 39.08
3.625 -312.7 -146.6 -381 -58.62 -312.7 -9.77 -156.3 351.7 29.31 556.9 39.08 -322.4 -312.7 97.7 9.77 977 -254 -68.39 97.7 48.85
3.63 -449.4 -224.7 -390.8 -127 -293.1 -97.7 -175.9 244.3 87.93 605.8 -19.54 -390.8 -332.2 39.08 136.8 967.3 -302.9 -146.6 -29.31 19.54
3.635 -566.7 -254 -390.8 -166.1 -263.8 -117.2 -205.2 185.6 117.2 664.4 -97.7 -410.4 -332.2 19.54 244.3 938 -342 -156.3 -156.3 -48.85
3.64 -615.5 -263.8 -332.2 -175.9 -234.5 -107.5 -214.9 127 136.8 674.2 -117.2 -439.7 -263.8 0 342 859.8 -332.2 -166.1 -263.8 -107.5
3.645 -635.6 -214.9 -273.6 -127 -224.7 -68.39 -254 29.31 127 625.3 -87.93 -459.2 -166.1 0 400.6 762.1 -293.1 -156.3 -390.8 -166.1
3.65 -586.2 -97.7 -195.4 -9.77 -214.9 0 -244.3 -87.93 117.2 537.4 0 -400.6 -68.39 19.54 420.1 664.4 -214.9 -117.2 -498.3 -224.7
3.655 -459.2 19.54 -87.93 107.5 -156.3 19.54 -175.9 -254 136.8 400.6 156.3 -342 19.54 0 429.9 537.4 -78.16 -87.93 -556.9 -205.2
3.66 -342 166.1 -19.54 214.9 -87.93 48.85 -107.5 -400.6 127 254 283.3 -263.8 68.39 -9.77 410.4 410.4 19.54 -39.08 -596 -185.6
3.665 -205.2 302.9 68.39 302.9 0 87.93 -19.54 -478.7 127 127 390.8 -166.1 78.16 -29.31 381 283.3 146.6 29.31 -556.9 -146.6
3.67 -97.7 400.6 175.9 361.5 107.5 146.6 29.31 -469 87.93 19.54 478.7 -97.7 58.62 -48.85 302.9 146.6 263.8 146.6 -478.7 -97.7
3.675 0 488.5 283.3 429.9 214.9 273.6 39.08 -351.7 9.77 -29.31 537.4 -48.85 29.31 -58.62 156.3 58.62 381 322.4 -361.5 -87.93
3.68 107.5 566.7 439.7 517.8 312.7 449.4 29.31 -185.6 -78.16 -48.85 615.5 -9.77 9.77 -48.85 0 0 537.4 527.6 -185.6 -39.08
3.685 166.1 615.5 547.1 605.8 351.7 615.5 -19.54 9.77 -185.6 -29.31 654.6 -9.77 -19.54 -29.31 -195.4 0 674.2 713.2 0 0
3.69 195.4 635.1 576.5 674.2 322.4 742.6 -97.7 195.4 -293.1 0 635.1 -39.08 -68.39 -9.77 -361.5 19.54 771.9 801.2 166.1 58.62
3.695 185.6 635.1 556.9 713.2 234.5 771.9 -146.6 312.7 -351.7 29.31 556.9 -78.16 -117.2 0 -439.7 58.62 830.5 801.2 302.9 156.3
3.7 127 566.7 469 693.7 117.2 703.5 -166.1 390.8 -332.2 58.62 429.9 -127 -185.6 0 -429.9 107.5 830.5 713.2 381 244.3
3.705 48.85 469 351.7 635.1 9.77 556.9 -136.8 420.1 -224.7 107.5 293.1 -166.1 -244.3 19.54 -322.4 166.1 771.9 576.5 390.8 312.7
3.71 -107.5 361.5 175.9 537.4 -87.93 390.8 -68.39 459.2 -68.39 205.2 107.5 -185.6 -322.4 48.85 -156.3 263.8 644.8 449.4 342 312.7
3.715 -342 205.2 -39.08 381 -175.9 244.3 0 508.1 136.8 351.7 -78.16 -214.9 -400.6 97.7 29.31 400.6 439.7 322.4 244.3 273.6
3.72 -635.6 0 -342 117.2 -302.9 68.39 19.54 469 332.2 439.7 -293.1 -283.3 -488.5 107.5 185.6 478.7 166.1 146.6 107.5 244.3
3.725 -947.7 -293.1 -674.6 -234.5 -449.4 -117.2 0 312.7 469 429.9 -517.8 -390.8 -556.9 48.85 302.9 449.4 -156.3 -107.5 -78.16 273.6
3.73 -1250 -644.8 -957.5 -655.1 -596 -371.3 -48.85 19.54 556.9 283.3 -723 -498.3 -596 -87.93 381 283.3 -459.2 -420.1 -273.6 390.8
3.735 -1514 -977.5 -1182 -1064 -713.2 -644.8 -156.3 -351.7 556.9 29.31 -918.4 -625.3 -644.8 -302.9 420.1 0 -732.8 -742.6 -478.7 517.8
3.74 -1720 -1172 -1280 -1309 -791.4 -869.6 -224.7 -713.2 527.6 -224.7 -1104 -693.7 -674.6 -517.8 439.7 -293.1 -889.1 -947.7 -644.8 586.2
3.745 -1846 -1182 -1260 -1358 -791.4 -977.5 -254 -967.8 459.2 -420.1 -1250 -655.1 -703.5 -644.8 459.2 -527.6 -928.2 -996.6 -752.3 547.1
3.75 -1837 -996.6 -1143 -1201 -752.3 -957.5 -234.5 -1114 381 -576.5 -1309 -547.6 -703.5 -693.7 469 -683.9 -840.3 -918.4 -801.2 410.4
3.755 -1729 -703.5 -977.5 -947.7 -693.7 -850 -156.3 -1163 332.2 -664.4 -1329 -390.8 -674.6 -625.3 498.3 -762.1 -683.9 -771.9 -771.9 283.3
3.76 -1573 -410.4 -801.2 -664.4 -596 -644.8 -19.54 -1094 351.7 -683.9 -1309 -214.9 -605.8 -459.2 566.7 -762.1 -488.5 -605.8 -625.3 205.2
3.765 -1397 -195.4 -644.8 -449.4 -478.7 -459.2 136.8 -977.5 420.1 -674.6 -1260 -87.93 -508.1 -312.7 644.8 -742.6 -322.4 -498.3 -400.6 244.3
3.77 -1250 -87.93 -517.8 -322.4 -351.7 -293.1 302.9 -801.2 527.6 -615.5 -1211 0 -390.8 -175.9 703.5 -674.6 -175.9 -449.4 -127 371.3
3.775 -1153 -29.31 -410.4 -234.5 -224.7 -166.1 400.6 -586.2 576.5 -508.1 -1163 87.93 -312.7 -78.16 674.2 -576.5 -68.39 -410.4 97.7 508.1
3.78 -1064 -19.54 -332.2 -195.4 -156.3 -127 332.2 -449.4 478.7 -459.2 -1094 156.3 -293.1 -48.85 508.1 -508.1 9.77 -410.4 224.7 625.3
3.785 -977.5 0 -263.8 -136.8 -146.6 -117.2 136.8 -351.7 244.3 -429.9 -1025 205.2 -322.4 -48.85 234.5 -439.7 127 -400.6 244.3 693.7
3.79 -889.1 9.77 -214.9 -87.93 -205.2 -127 -156.3 -283.3 -68.39 -439.7 -947.7 205.2 -390.8 -58.62 -107.5 -371.3 214.9 -390.8 175.9 732.8
3.795 -771.9 19.54 -156.3 -48.85 -293.1 -117.2 -459.2 -224.7 -381 -449.4 -850 205.2 -459.2 -48.85 -449.4 -263.8 312.7 -381 97.7 771.9
3.8 -703.5 0 -107.5 -58.62 -342 -87.93 -664.4 -136.8 -556.9 -429.9 -781.6 175.9 -527.6 0 -664.4 -107.5 351.7 -390.8 48.85 830.5
3.805 -703.5 -78.16 -107.5 -146.6 -342 -39.08 -723 -48.85 -576.5 -381 -771.9 146.6 -596 87.93 -723 68.39 312.7 -420.1 29.31 889.1
3.81 -791.4 -214.9 -156.3 -293.1 -293.1 -29.31 -644.8 9.77 -429.9 -312.7 -830.5 87.93 -625.3 175.9 -625.3 234.5 175.9 -498.3 29.31 928.2
3.815 -967.8 -400.6 -263.8 -527.6 -224.7 -87.93 -459.2 9.77 -185.6 -254 -908.6 -29.31 -635.6 195.4 -410.4 322.4 -29.31 -625.3 19.54 928.2
3.82 -1104 -527.6 -390.8 -732.8 -166.1 -185.6 -254 -9.77 87.93 -166.1 -977.5 -136.8 -605.8 185.6 -156.3 361.5 -244.3 -752.3 19.54 898.9
3.825 -1221 -644.8 -537.4 -938 -175.9 -351.7 -68.39 -97.7 332.2 -97.7 -1016 -254 -556.9 117.2 39.08 342 -459.2 -879.8 0 850
3.83 -1280 -752.3 -655.1 -1133 -244.3 -576.5 48.85 -263.8 517.8 -68.39 -1006 -400.6 -537.4 0 185.6 244.3 -644.8 -1016 -68.39 801.2
3.835 -1309 -801.2 -723 -1260 -332.2 -781.6 107.5 -420.1 615.5 -48.85 -996.6 -488.5 -547.6 -127 263.8 136.8 -771.9 -1085 -156.3 742.6
3.84 -1329 -879.8 -781.6 -1387 -429.9 -987.3 107.5 -615.5 625.3 -87.93 -967.8 -605.8 -547.6 -302.9 263.8 0 -869.6 -1163 -273.6 693.7
3.845 -1339 -908.6 -801.2 -1446 -508.1 -1124 58.62 -752.3 586.2 -117.2 -908.6 -693.7 -556.9 -459.2 224.7 -127 -938 -1192 -410.4 605.8
3.85 -1290 -850 -791.4 -1406 -527.6 -1153 0 -810.9 508.1 -107.5 -801.2 -713.2 -517.8 -547.6 146.6 -205.2 -957.5 -1163 -498.3 508.1
3.855 -1192 -762.1 -752.3 -1319 -537.4 -1124 -68.39 -820.7 410.4 -127 -635.6 -713.2 -449.4 -576.5 58.62 -263.8 -938 -1153 -556.9 429.9
3.86 -1075 -625.3 -723 -1182 -566.7 -1055 -175.9 -781.6 302.9 -127 -498.3 -664.4 -381 -556.9 -39.08 -283.3 -898.9 -1124 -615.5 351.7
3.865 -967.8 -469 -713.2 -1036 -615.5 -987.3 -302.9 -742.6 156.3 -156.3 -420.1 -586.2 -361.5 -527.6 -156.3 -312.7 -859.8 -1114 -674.6 283.3
3.87 -859.8 -322.4 -732.8 -889.1 -703.5 -977.5 -469 -723 0 -195.4 -410.4 -478.7 -390.8 -508.1 -293.1 -351.7 -801.2 -1114 -752.3 224.7
3.875 -781.6 -195.4 -742.6 -762.1 -840.3 -1006 -683.9 -713.2 -195.4 -244.3 -439.7 -400.6 -459.2 -508.1 -449.4 -390.8 -742.6 -1094 -859.8 146.6
3.88 -693.7 -68.39 -723 -635.6 -996.6 -1045 -957.5 -693.7 -449.4 -293.1 -449.4 -322.4 -547.6 -508.1 -644.8 -429.9 -664.4 -1036 -987.3 58.62
3.885 -537.4 68.39 -625.3 -478.7 -1124 -1006 -1231 -635.6 -723 -342 -371.3 -224.7 -596 -439.7 -850 -429.9 -527.6 -898.9 -1075 -19.54
3.89 -390.8 195.4 -508.1 -332.2 -1221 -889.1 -1495 -556.9 -987.3 -390.8 -273.6 -146.6 -625.3 -351.7 -1055 -400.6 -400.6 -752.3 -1143 -78.16
3.895 -244.3 312.7 -361.5 -185.6 -1201 -674.6 -1651 -449.4 -1182 -390.8 -175.9 -48.85 -625.3 -234.5 -1221 -322.4 -263.8 -586.2 -1153 -87.93
3.9 -107.5 361.5 -214.9 -87.93 -1036 -459.2 -1612 -351.7 -1221 -361.5 -117.2 19.54 -596 -146.6 -1260 -244.3 -117.2 -469 -1036 -19.54
3.905 -39.08 283.3 -87.93 -107.5 -742.6 -312.7 -1397 -302.9 -1085 -332.2 -107.5 0 -556.9 -127 -1201 -205.2 0 -439.7 -840.3 146.6
3.91 -29.31 156.3 -19.54 -205.2 -420.1 -244.3 -1045 -283.3 -810.9 -273.6 -107.5 -78.16 -488.5 -136.8 -1036 -175.9 48.85 -420.1 -596 322.4
3.915 -48.85 -19.54 9.77 -351.7 -117.2 -254 -615.5 -273.6 -459.2 -214.9 -87.93 -205.2 -381 -175.9 -781.6 -175.9 58.62 -429.9 -322.4 498.3
3.92 -107.5 -185.6 9.77 -498.3 68.39 -293.1 -195.4 -244.3 -107.5 -127 -58.62 -322.4 -263.8 -195.4 -508.1 -175.9 9.77 -400.6 -78.16 566.7
3.925 -195.4 -312.7 -29.31 -605.8 146.6 -342 136.8 -195.4 185.6 -48.85 -39.08 -420.1 -146.6 -224.7 -224.7 -185.6 -87.93 -361.5 87.93 527.6
3.93 -254 -410.4 -48.85 -683.9 166.1 -400.6 410.4 -166.1 449.4 0 -9.77 -498.3 -58.62 -254 39.08 -214.9 -185.6 -342 234.5 459.2
3.935 -293.1 -488.5 -68.39 -742.6 127 -478.7 596 -146.6 644.8 0 0 -576.5 -9.77 -322.4 244.3 -254 -283.3 -371.3 332.2 371.3
3.94 -342 -517.8 -117.2 -762.1 39.08 -537.4 674.2 -136.8 771.9 0 0 -615.5 -19.54 -390.8 381 -302.9 -361.5 -439.7 351.7 293.1
3.945 -351.7 -488.5 -136.8 -723 -48.85 -556.9 664.4 -107.5 820.7 0 19.54 -605.8 -58.62 -420.1 429.9 -322.4 -400.6 -508.1 312.7 205.2
3.95 -371.3 -420.1 -175.9 -635.6 -185.6 -527.6 537.4 -78.16 762.1 9.77 9.77 -537.4 -136.8 -420.1 351.7 -342 -429.9 -556.9 185.6 87.93
3.955 -351.7 -273.6 -205.2 -478.7 -322.4 -449.4 332.2 -48.85 596 0 -9.77 -410.4 -214.9 -371.3 185.6 -351.7 -429.9 -566.7 0 -29.31
3.96 -283.3 -107.5 -205.2 -302.9 -429.9 -381 78.16 -58.62 351.7 -29.31 -29.31 -283.3 -273.6 -302.9 -9.77 -390.8 -381 -547.6 -205.2 -156.3
3.965 -185.6 68.39 -166.1 -97.7 -556.9 -342 -214.9 -107.5 39.08 -117.2 -58.62 -156.3 -332.2 -273.6 -234.5 -459.2 -293.1 -498.3 -449.4 -273.6
3.97 -48.85 283.3 -107.5 107.5 -655.1 -332.2 -498.3 -195.4 -263.8 -244.3 -48.85 -48.85 -342 -263.8 -390.8 -556.9 -156.3 -410.4 -674.6 -351.7
3.975 87.93 478.7 -29.31 302.9 -732.8 -332.2 -762.1 -322.4 -566.7 -400.6 0 0 -322.4 -273.6 -478.7 -664.4 -19.54 -302.9 -879.8 -420.1
3.98 234.5 644.8 68.39 459.2 -771.9 -302.9 -957.5 -449.4 -810.9 -556.9 78.16 29.31 -283.3 -293.1 -498.3 -781.6 97.7 -175.9 -1055 -478.7
3.985 342 752.3 146.6 566.7 -752.3 -214.9 -1094 -566.7 -1006 -703.5 195.4 29.31 -205.2 -293.1 -478.7 -859.8 166.1 -39.08 -1192 -547.6
3.99 381 781.6 185.6 615.5 -674.6 -87.93 -1163 -635.6 -1143 -801.2 273.6 19.54 -146.6 -283.3 -449.4 -889.1 146.6 78.16 -1280 -625.3
3.995 312.7 723 156.3 586.2 -566.7 19.54 -1163 -683.9 -1221 -869.6 283.3 -39.08 -117.2 -312.7 -459.2 -859.8 68.39 156.3 -1309 -664.4
4 146.6 596 39.08 508.1 -469 117.2 -1114 -664.4 -1260 -869.6 214.9 -107.5 -136.8 -342 -498.3 -762.1 -78.16 214.9 -1260 -703.5
4.005 -29.31 439.7 -78.16 381 -351.7 185.6 -987.3 -576.5 -1211 -801.2 78.16 -166.1 -175.9 -351.7 -566.7 -625.3 -224.7 263.8 -1094 -713.2
4.01 -156.3 273.6 -146.6 244.3 -195.4 234.5 -781.6 -429.9 -1104 -693.7 -9.77 -214.9 -195.4 -322.4 -625.3 -469 -312.7 322.4 -820.7 -674.6
4.015 -166.1 185.6 -97.7 195.4 0 322.4 -508.1 -195.4 -938 -517.8 -39.08 -205.2 -185.6 -195.4 -664.4 -263.8 -302.9 459.2 -469 -644.8
4.02 -48.85 185.6 48.85 224.7 254 449.4 -195.4 107.5 -723 -293.1 19.54 -156.3 -127 -29.31 -664.4 -19.54 -166.1 625.3 -97.7 -586.2
4.025 127 214.9 254 312.7 469 596 107.5 439.7 -459.2 -39.08 146.6 -107.5 -48.85 127 -596 224.7 9.77 771.9 214.9 -527.6
4.03 283.3 254 390.8 420.1 596 723 371.3 752.3 -175.9 244.3 244.3 -68.39 -9.77 263.8 -459.2 488.5 136.8 850 439.7 -508.1
4.035 342 195.4 400.6 439.7 615.5 762.1 596 996.6 146.6 527.6 263.8 -78.16 0 312.7 -234.5 693.7 175.9 801.2 576.5 -449.4
4.04 283.3 39.08 273.6 361.5 517.8 693.7 742.6 1143 449.4 781.6 195.4 -136.8 -39.08 302.9 9.77 830.5 68.39 625.3 615.5 -390.8
4.045 166.1 -127 87.93 244.3 351.7 586.2 762.1 1231 664.4 1006 48.85 -195.4 -117.2 263.8 224.7 898.9 -87.93 390.8 576.5 -351.7
4.05 58.62 -293.1 -48.85 136.8 166.1 469 683.9 1260 771.9 1172 -68.39 -254 -185.6 214.9 361.5 918.4 -205.2 185.6 498.3 -332.2
4.055 9.77 -342 -117.2 107.5 -9.77 390.8 508.1 1251 742.6 1280 -156.3 -293.1 -234.5 185.6 381 928.2 -263.8 39.08 381 -351.7
4.06 29.31 -293.1 -78.16 146.6 -146.6 351.7 312.7 1192 635.1 1319 -166.1 -312.7 -254 175.9 332.2 918.4 -214.9 0 254 -390.8
4.065 117.2 -205.2 29.31 224.7 -214.9 332.2 146.6 1085 527.6 1309 -107.5 -342 -214.9 195.4 283.3 898.9 -107.5 0 136.8 -439.7
4.07 195.4 -117.2 127 263.8 -214.9 273.6 48.85 898.9 429.9 1202 -39.08 -390.8 -156.3 195.4 263.8 840.3 -29.31 19.54 0 -478.7
4.075 234.5 -87.93 166.1 244.3 -166.1 175.9 -29.31 635.1 332.2 996.6 9.77 -459.2 -78.16 136.8 283.3 713.2 -9.77 48.85 -166.1 -517.8
4.08 224.7 -87.93 136.8 195.4 -97.7 68.39 -97.7 312.7 185.6 713.2 19.54 -498.3 -9.77 48.85 293.1 498.3 -48.85 87.93 -361.5 -547.6
4.085 224.7 -78.16 97.7 175.9 -9.77 0 -195.4 -9.77 0 381 0 -478.7 19.54 -39.08 263.8 254 -78.16 175.9 -537.4 -566.7
4.09 244.3 -9.77 107.5 224.7 107.5 39.08 -273.6 -244.3 -234.5 68.39 -29.31 -400.6 29.31 -107.5 185.6 19.54 -29.31 371.3 -605.8 -576.5
4.095 332.2 127 234.5 390.8 312.7 205.2 -263.8 -312.7 -390.8 -117.2 -9.77 -254 58.62 -97.7 87.93 -107.5 117.2 654.6 -488.5 -556.9
4.1 469 293.1 420.1 605.8 537.4 459.2 -166.1 -205.2 -439.7 -136.8 39.08 -87.93 78.16 -9.77 9.77 -97.7 332.2 967.3 -205.2 -537.4
4.105 586.2 439.7 605.8 810.9 742.6 703.5 0 39.08 -390.8 -9.77 87.93 68.39 97.7 107.5 -29.31 19.54 527.6 1221 166.1 -517.8
4.11 654.6 517.8 713.2 947.7 879.3 879.3 224.7 361.5 -234.5 234.5 117.2 205.2 136.8 263.8 -29.31 254 644.8 1348 547.1 -488.5
4.115 654.6 508.1 713.2 977 889.1 957.5 410.4 693.7 -58.62 508.1 117.2 293.1 156.3 420.1 0 547.1 654.6 1319 820.7 -449.4
4.12 635.1 469 654.6 938 830.5 957.5 566.7 986.8 107.5 762.1 107.5 342 205.2 556.9 78.16 820.7 596 1192 967.3 -400.6
4.125 596 381 576.5 810.9 713.2 889.1 674.2 1182 283.3 918.4 117.2 342 263.8 635.1 175.9 1045 498.3 1006 1006 -322.4
4.13 547.1 283.3 469 664.4 576.5 801.2 742.6 1319 439.7 1026 107.5 312.7 302.9 654.6 293.1 1192 390.8 830.5 957.5 -263.8
4.135 488.5 175.9 361.5 517.8 449.4 713.2 791.4 1378 596 1085 87.93 263.8 322.4 644.8 429.9 1270 263.8 703.5 879.3 -263.8
4.14 390.8 0 195.4 322.4 302.9 556.9 801.2 1358 742.6 1114 9.77 175.9 293.1 576.5 556.9 1270 78.16 576.5 752.3 -302.9
4.145 254 -146.6 0 136.8 156.3 400.6 771.9 1270 869.6 1153 -107.5 97.7 234.5 488.5 693.7 1221 -127 449.4 586.2 -371.3
4.15 136.8 -293.1 -156.3 -39.08 29.31 234.5 713.2 1104 957.5 1143 -195.4 48.85 195.4 390.8 820.7 1124 -332.2 312.7 381 -439.7
4.155 39.08 -420.1 -273.6 -214.9 -78.16 48.85 605.8 840.3 967.3 1036 -244.3 9.77 205.2 293.1 889.1 947.7 -508.1 136.8 117.2 -498.3
4.16 19.54 -469 -312.7 -312.7 -136.8 -78.16 488.5 527.6 928.2 859.8 -214.9 39.08 254 205.2 928.2 742.6 -596 -9.77 -146.6 -517.8
4.165 68.39 -469 -273.6 -342 -136.8 -156.3 361.5 205.2 820.7 596 -78.16 97.7 351.7 146.6 898.9 498.3 -596 -127 -381 -517.8
4.17 156.3 -410.4 -234.5 -293.1 -146.6 -185.6 214.9 -97.7 625.3 302.9 97.7 175.9 439.7 127 801.2 244.3 -556.9 -175.9 -586.2 -527.6
4.175 302.9 -293.1 -175.9 -185.6 -146.6 -166.1 58.62 -381 390.8 0 283.3 263.8 498.3 127 664.4 0 -469 -175.9 -742.6 -508.1
4.18 478.7 -127 -78.16 -48.85 -107.5 -146.6 -87.93 -664.4 107.5 -293.1 449.4 361.5 517.8 127 498.3 -224.7 -312.7 -127 -840.3 -459.2
4.185 654.6 9.77 58.62 68.39 -29.31 -166.1 -224.7 -987.3 -166.1 -625.3 547.1 449.4 527.6 107.5 322.4 -439.7 -127 -78.16 -889.1 -351.7
4.19 810.9 107.5 234.5 136.8 68.39 -224.7 -293.1 -1299 -390.8 -938 586.2 508.1 537.4 58.62 175.9 -655.1 48.85 -48.85 -840.3 -205.2
4.195 908.6 136.8 390.8 166.1 195.4 -263.8 -293.1 -1495 -537.4 -1163 586.2 537.4 566.7 0 68.39 -810.9 205.2 0 -674.6 -68.39
4.2 918.4 68.39 478.7 117.2 283.3 -322.4 -224.7 -1544 -586.2 -1280 566.7 478.7 615.5 -97.7 -9.77 -918.4 254 19.54 -429.9 58.62
4.205 889.1 -19.54 488.5 58.62 322.4 -312.7 -117.2 -1329 -556.9 -1201 537.4 390.8 664.4 -195.4 -58.62 -908.6 254 68.39 -87.93 156.3
4.21 850 -78.16 498.3 39.08 361.5 -254 39.08 -889.1 -449.4 -957.5 517.8 293.1 693.7 -254 -58.62 -791.4 273.6 136.8 293.1 234.5
4.215 810.9 -136.8 488.5 39.08 381 -146.6 214.9 -361.5 -283.3 -625.3 517.8 195.4 713.2 -263.8 -29.31 -596 302.9 195.4 674.2 302.9
4.22 771.9 -136.8 478.7 87.93 400.6 9.77 390.8 195.4 -97.7 -234.5 517.8 156.3 713.2 -205.2 39.08 -322.4 342 263.8 996.6 332.2
4.225 713.2 -195.4 420.1 68.39 390.8 97.7 537.4 625.3 107.5 87.93 488.5 127 703.5 -127 156.3 -68.39 322.4 234.5 1212 361.5
4.23 586.2 -342 244.3 -68.39 302.9 78.16 615.5 830.5 302.9 293.1 400.6 58.62 654.6 -68.39 283.3 136.8 175.9 87.93 1251 381
4.235 420.1 -547.6 0 -312.7 166.1 -58.62 635.1 810.9 478.7 371.3 254 -39.08 576.5 -48.85 429.9 293.1 -68.39 -156.3 1133 400.6
4.24 234.5 -752.3 -234.5 -605.8 29.31 -293.1 615.5 605.8 615.5 332.2 97.7 -166.1 498.3 -58.62 586.2 371.3 -361.5 -459.2 918.4 400.6
4.245 68.39 -928.2 -420.1 -889.1 -58.62 -547.6 576.5 293.1 703.5 224.7 0 -312.7 439.7 -107.5 713.2 381 -615.5 -723 654.6 381
4.25 -9.77 -1064 -478.7 -1094 -78.16 -762.1 576.5 -9.77 781.6 87.93 -19.54 -420.1 429.9 -166.1 830.5 332.2 -762.1 -898.9 429.9 381
4.255 -19.54 -1133 -410.4 -1192 -29.31 -889.1 586.2 -283.3 820.7 -39.08 48.85 -498.3 469 -254 898.9 234.5 -781.6 -967.8 283.3 400.6
4.26 48.85 -1124 -273.6 -1172 29.31 -918.4 576.5 -498.3 830.5 -156.3 175.9 -508.1 508.1 -351.7 908.6 87.93 -664.4 -938 195.4 449.4
4.265 205.2 -1016 -68.39 -1025 97.7 -859.8 527.6 -664.4 771.9 -254 312.7 -449.4 547.1 -420.1 859.8 -68.39 -439.7 -840.3 136.8 527.6
4.27 381 -840.3 117.2 -801.2 107.5 -752.3 410.4 -820.7 625.3 -361.5 390.8 -351.7 517.8 -459.2 752.3 -224.7 -175.9 -723 58.62 566.7
4.275 537.4 -644.8 263.8 -547.6 107.5 -625.3 254 -938 439.7 -449.4 449.4 -244.3 478.7 -420.1 605.8 -342 58.62 -615.5 -9.77 596
4.28 644.8 -508.1 351.7 -342 87.93 -527.6 107.5 -1006 244.3 -498.3 478.7 -156.3 439.7 -351.7 459.2 -410.4 234.5 -537.4 -58.62 605.8
4.285 664.4 -420.1 361.5 -205.2 78.16 -449.4 0 -977.5 78.16 -498.3 439.7 -117.2 351.7 -263.8 302.9 -410.4 322.4 -469 -39.08 605.8
4.29 683.9 -371.3 381 -117.2 107.5 -381 -9.77 -810.9 -9.77 -400.6 439.7 -107.5 293.1 -175.9 166.1 -322.4 361.5 -361.5 68.39 596
4.295 693.7 -342 390.8 -97.7 156.3 -302.9 0 -566.7 -68.39 -263.8 420.1 -136.8 234.5 -117.2 19.54 -195.4 381 -244.3 254 576.5
4.3 723 -302.9 420.1 -78.16 234.5 -195.4 48.85 -244.3 -87.93 -107.5 420.1 -146.6 195.4 -87.93 -107.5 -58.62 420.1 -78.16 469 537.4
4.305 791.4 -214.9 488.5 -29.31 322.4 -39.08 107.5 107.5 -107.5 39.08 488.5 -136.8 234.5 -48.85 -214.9 39.08 488.5 78.16 693.7 488.5
4.31 840.3 -117.2 537.4 19.54 390.8 117.2 146.6 420.1 -146.6 136.8 566.7 -117.2 293.1 -19.54 -322.4 68.39 537.4 234.5 879.3 439.7
4.315 898.9 48.85 576.5 166.1 429.9 302.9 166.1 723 -195.4 234.5 654.6 -39.08 361.5 19.54 -400.6 87.93 586.2 420.1 1016 322.4
4.32 889.1 244.3 586.2 332.2 449.4 478.7 166.1 938 -244.3 283.3 703.5 39.08 410.4 78.16 -439.7 58.62 605.8 576.5 1065 166.1
4.325 830.5 381 576.5 459.2 449.4 586.2 146.6 1055 -254 322.4 683.9 117.2 400.6 136.8 -420.1 29.31 586.2 693.7 1026 0
4.33 723 449.4 517.8 547.1 400.6 644.8 146.6 1114 -185.6 390.8 605.8 195.4 361.5 195.4 -322.4 58.62 508.1 752.3 908.6 -195.4
4.335 527.6 371.3 381 478.7 293.1 547.1 166.1 1026 -48.85 459.2 488.5 175.9 293.1 195.4 -156.3 78.16 332.2 644.8 713.2 -322.4
4.34 293.1 205.2 156.3 283.3 127 351.7 195.4 889.1 156.3 566.7 351.7 87.93 195.4 166.1 48.85 127 58.62 429.9 498.3 -420.1
4.345 48.85 -9.77 -117.2 9.77 -68.39 78.16 244.3 713.2 390.8 693.7 224.7 -58.62 117.2 87.93 254 185.6 -254 156.3 283.3 -478.7
4.35 -156.3 -205.2 -371.3 -263.8 -234.5 -175.9 293.1 517.8 605.8 781.6 146.6 -254 68.39 -19.54 400.6 205.2 -537.4 -117.2 97.7 -498.3
4.355 -273.6 -293.1 -508.1 -429.9 -312.7 -342 351.7 371.3 771.9 850 136.8 -371.3 78.16 -97.7 498.3 214.9 -693.7 -273.6 -9.77 -498.3
4.36 -302.9 -302.9 -517.8 -488.5 -263.8 -390.8 410.4 234.5 869.6 830.5 175.9 -439.7 127 -185.6 527.6 185.6 -683.9 -312.7 -78.16 -459.2
4.365 -214.9 -205.2 -371.3 -400.6 -97.7 -312.7 469 107.5 889.1 703.5 254 -400.6 195.4 -224.7 508.1 107.5 -508.1 -214.9 -97.7 -371.3
4.37 -39.08 -29.31 -127 -195.4 146.6 -127 527.6 0 830.5 527.6 351.7 -224.7 263.8 -185.6 439.7 48.85 -205.2 9.77 -58.62 -293.1
4.375 107.5 136.8 87.93 48.85 361.5 87.93 547.1 -78.16 664.4 263.8 449.4 -9.77 283.3 -97.7 312.7 -9.77 68.39 273.6 -19.54 -244.3
4.38 234.5 293.1 254 293.1 498.3 322.4 517.8 -136.8 459.2 -19.54 517.8 195.4 283.3 19.54 166.1 -68.39 293.1 508.1 29.31 -205.2
4.385 293.1 410.4 302.9 478.7 527.6 527.6 459.2 -117.2 244.3 -254 537.4 361.5 244.3 146.6 0 -107.5 410.4 683.9 107.5 -195.4
4.39 244.3 429.9 214.9 556.9 410.4 654.6 342 -19.54 39.08 -410.4 478.7 420.1 156.3 224.7 -146.6 -136.8 371.3 713.2 185.6 -195.4
4.395 195.4 429.9 78.16 537.4 234.5 693.7 205.2 146.6 -97.7 -429.9 371.3 429.9 48.85 273.6 -273.6 -136.8 283.3 644.8 302.9 -175.9
4.4 185.6 420.1 -39.08 478.7 68.39 683.9 68.39 390.8 -195.4 -322.4 283.3 439.7 -39.08 302.9 -381 -97.7 205.2 537.4 449.4 -127
4.405 214.9 410.4 -97.7 390.8 -48.85 625.3 -87.93 635.1 -293.1 -156.3 234.5 429.9 -97.7 312.7 -478.7 -29.31 175.9 429.9 556.9 -58.62
4.41 332.2 429.9 -58.62 332.2 -87.93 566.7 -244.3 830.5 -400.6 -9.77 244.3 420.1 -107.5 312.7 -586.2 29.31 234.5 361.5 605.8 19.54
4.415 459.2 439.7 48.85 302.9 -39.08 508.1 -381 918.4 -508.1 39.08 312.7 381 -68.39 273.6 -693.7 48.85 361.5 312.7 605.8 117.2
4.42 556.9 459.2 175.9 302.9 48.85 469 -459.2 908.6 -605.8 29.31 381 312.7 0 234.5 -771.9 39.08 488.5 283.3 556.9 166.1
4.425 605.8 469 283.3 322.4 175.9 410.4 -449.4 820.7 -625.3 -9.77 469 244.3 127 175.9 -771.9 0 547.1 244.3 498.3 166.1
4.43 566.7 439.7 312.7 302.9 293.1 322.4 -342 683.9 -537.4 -29.31 527.6 185.6 254 156.3 -655.1 -9.77 517.8 175.9 429.9 127
4.435 439.7 400.6 263.8 224.7 371.3 175.9 -175.9 556.9 -351.7 9.77 537.4 136.8 351.7 166.1 -439.7 19.54 371.3 78.16 351.7 39.08
4.44 224.7 283.3 127 68.39 351.7 -39.08 -19.54 420.1 -136.8 87.93 459.2 78.16 361.5 156.3 -185.6 78.16 127 -78.16 224.7 -58.62
4.445 -29.31 107.5 -39.08 -127 263.8 -283.3 127 302.9 97.7 205.2 322.4 0 312.7 127 78.16 136.8 -146.6 -254 117.2 -146.6
4.45 -283.3 -87.93 -224.7 -342 156.3 -478.7 273.6 175.9 322.4 283.3 166.1 -97.7 224.7 78.16 302.9 166.1 -390.8 -420.1 39.08 -166.1
4.455 -459.2 -263.8 -361.5 -469 87.93 -537.4 420.1 97.7 508.1 361.5 39.08 -175.9 166.1 29.31 478.7 185.6 -547.6 -469 19.54 -175.9
4.46 -517.8 -361.5 -400.6 -469 97.7 -420.1 576.5 68.39 644.8 420.1 9.77 -195.4 156.3 29.31 586.2 205.2 -556.9 -361.5 68.39 -175.9
4.465 -469 -351.7 -371.3 -361.5 166.1 -214.9 683.9 48.85 703.5 410.4 48.85 -175.9 146.6 39.08 615.5 195.4 -449.4 -146.6 156.3 -136.8
4.47 -342 -293.1 -263.8 -224.7 254 0 713.2 29.31 674.2 361.5 146.6 -117.2 156.3 58.62 547.1 185.6 -273.6 78.16 234.5 -97.7
4.475 -185.6 -263.8 -127 -107.5 312.7 156.3 654.6 0 576.5 244.3 263.8 -58.62 146.6 48.85 400.6 136.8 -87.93 244.3 293.1 -9.77
4.48 -48.85 -234.5 19.54 -29.31 332.2 263.8 547.1 19.54 449.4 146.6 371.3 0 146.6 58.62 214.9 97.7 87.93 342 351.7 68.39
4.485 9.77 -224.7 156.3 29.31 322.4 342 429.9 146.6 342 166.1 449.4 19.54 156.3 107.5 39.08 146.6 224.7 429.9 439.7 97.7
4.49 39.08 -205.2 254 107.5 302.9 429.9 361.5 390.8 293.1 302.9 459.2 9.77 185.6 175.9 -58.62 254 332.2 508.1 576.5 97.7
4.495 19.54 -175.9 273.6 156.3 263.8 498.3 322.4 683.9 273.6 527.6 449.4 0 185.6 254 -97.7 420.1 371.3 566.7 713.2 58.62
4.5 0 -166.1 214.9 156.3 195.4 498.3 263.8 908.6 254 713.2 361.5 -48.85 146.6 293.1 -97.7 556.9 351.7 537.4 791.4 29.31
4.505 -19.54 -175.9 127 97.7 117.2 410.4 175.9 986.8 195.4 791.4 234.5 -39.08 78.16 283.3 -97.7 605.8 322.4 381 791.4 87.93
4.51 9.77 -156.3 58.62 39.08 39.08 293.1 39.08 908.6 78.16 742.6 117.2 29.31 0 234.5 -117.2 556.9 312.7 175.9 703.5 195.4
4.515 58.62 -97.7 39.08 19.54 9.77 185.6 -107.5 732.8 -48.85 615.5 -29.31 166.1 -78.16 185.6 -166.1 439.7 332.2 19.54 566.7 283.3
4.52 107.5 0 87.93 87.93 58.62 146.6 -234.5 527.6 -175.9 469 -146.6 322.4 -107.5 136.8 -214.9 283.3 420.1 -48.85 439.7 342
4.525 166.1 146.6 175.9 205.2 156.3 136.8 -312.7 302.9 -273.6 293.1 -234.5 449.4 -127 87.93 -273.6 78.16 517.8 -39.08 312.7 342
4.53 175.9 254 273.6 293.1 273.6 117.2 -322.4 107.5 -332.2 117.2 -322.4 508.1 -117.2 29.31 -293.1 -136.8 586.2 0 195.4 283.3
4.535 107.5 302.9 302.9 302.9 351.7 19.54 -283.3 -58.62 -351.7 -39.08 -429.9 488.5 -117.2 -39.08 -322.4 -361.5 547.1 9.77 58.62 195.4
4.54 -19.54 244.3 244.3 166.1 371.3 -175.9 -205.2 -244.3 -342 -205.2 -527.6 361.5 -127 -156.3 -322.4 -547.6 390.8 -58.62 -68.39 127
4.545 -185.6 78.16 117.2 -78.16 332.2 -459.2 -87.93 -410.4 -273.6 -322.4 -605.8 175.9 -146.6 -263.8 -283.3 -655.1 175.9 -185.6 -146.6 107.5
4.55 -342 -97.7 -58.62 -361.5 234.5 -683.9 19.54 -547.6 -185.6 -381 -664.4 -9.77 -166.1 -361.5 -234.5 -644.8 -48.85 -332.2 -195.4 117.2
4.555 -429.9 -293.1 -175.9 -596 166.1 -781.6 136.8 -655.1 -58.62 -400.6 -664.4 -156.3 -156.3 -390.8 -156.3 -527.6 -195.4 -429.9 -185.6 185.6
4.56 -439.7 -439.7 -234.5 -723 136.8 -732.8 254 -703.5 68.39 -371.3 -644.8 -224.7 -146.6 -351.7 -78.16 -332.2 -244.3 -469 -117.2 273.6
4.565 -439.7 -488.5 -283.3 -703.5 97.7 -527.6 302.9 -655.1 166.1 -293.1 -635.6 -195.4 -156.3 -254 -39.08 -87.93 -244.3 -420.1 -39.08 312.7
4.57 -459.2 -488.5 -322.4 -625.3 39.08 -302.9 312.7 -527.6 224.7 -205.2 -655.1 -127 -205.2 -127 -39.08 146.6 -244.3 -361.5 29.31 322.4
4.575 -469 -420.1 -390.8 -527.6 -48.85 -127 283.3 -332.2 244.3 -117.2 -674.6 -58.62 -273.6 -19.54 -87.93 312.7 -263.8 -342 117.2 312.7
4.58 -459.2 -302.9 -449.4 -410.4 -166.1 0 244.3 -58.62 254 -29.31 -683.9 19.54 -332.2 97.7 -146.6 420.1 -283.3 -332.2 234.5 273.6
4.585 -429.9 -205.2 -459.2 -342 -234.5 48.85 224.7 175.9 254 0 -655.1 58.62 -351.7 175.9 -185.6 410.4 -273.6 -342 381 273.6
4.59 -351.7 -127 -410.4 -263.8 -214.9 97.7 273.6 390.8 263.8 -29.31 -586.2 97.7 -302.9 214.9 -166.1 312.7 -195.4 -312.7 547.1 293.1
4.595 -283.3 -48.85 -293.1 -146.6 -97.7 166.1 351.7 517.8 273.6 -97.7 -469 146.6 -205.2 214.9 -117.2 156.3 -87.93 -224.7 664.4 293.1
4.6 -195.4 19.54 -127 -9.77 68.39 214.9 439.7 508.1 263.8 -234.5 -342 185.6 -87.93 166.1 -48.85 -58.62 58.62 -107.5 713.2 302.9
4.605 -58.62 166.1 87.93 185.6 283.3 273.6 498.3 371.3 244.3 -381 -214.9 263.8 9.77 107.5 19.54 -283.3 263.8 39.08 654.6 302.9
4.61 78.16 332.2 302.9 400.6 469 302.9 478.7 136.8 185.6 -517.8 -127 361.5 78.16 48.85 78.16 -478.7 469 185.6 498.3 273.6
4.615 205.2 488.5 478.7 586.2 566.7 263.8 361.5 -146.6 68.39 -644.8 -97.7 439.7 78.16 -9.77 78.16 -615.5 654.6 273.6 254 244.3
4.62 283.3 615.5 615.5 693.7 586.2 156.3 136.8 -429.9 -107.5 -723 -117.2 478.7 48.85 -87.93 29.31 -713.2 771.9 273.6 -19.54 205.2
4.625 312.7 654.6 644.8 674.2 488.5 -19.54 -166.1 -693.7 -342 -801.2 -136.8 459.2 0 -195.4 -87.93 -771.9 791.4 146.6 -322.4 175.9
4.63 322.4 635.1 576.5 537.4 322.4 -263.8 -498.3 -918.4 -605.8 -869.6 -127 371.3 -29.31 -312.7 -244.3 -820.7 703.5 -87.93 -615.5 185.6
4.635 293.1 556.9 469 312.7 136.8 -537.4 -771.9 -1104 -820.7 -938 -97.7 254 -48.85 -400.6 -400.6 -859.8 547.1 -361.5 -830.5 214.9
4.64 224.7 469 302.9 97.7 -29.31 -742.6 -938 -1192 -977.5 -957.5 -87.93 166.1 -68.39 -420.1 -537.4 -850 342 -566.7 -947.7 195.4
4.645 97.7 390.8 127 -39.08 -136.8 -830.5 -947.7 -1163 -1016 -898.9 -136.8 97.7 -97.7 -371.3 -615.5 -762.1 127 -625.3 -938 117.2
4.65 -48.85 322.4 39.08 -87.93 -127 -781.6 -791.4 -1036 -918.4 -752.3 -234.5 78.16 -127 -273.6 -605.8 -605.8 -9.77 -527.6 -801.2 19.54
4.655 -205.2 283.3 0 -39.08 -68.39 -605.8 -566.7 -830.5 -742.6 -527.6 -342 97.7 -175.9 -156.3 -537.4 -390.8 -107.5 -312.7 -615.5 -107.5
4.66 -342 244.3 -48.85 29.31 -9.77 -371.3 -322.4 -605.8 -498.3 -273.6 -469 117.2 -214.9 -39.08 -429.9 -127 -175.9 -87.93 -410.4 -214.9
4.665 -420.1 166.1 -87.93 48.85 19.54 -175.9 -87.93 -400.6 -234.5 -39.08 -537.4 107.5 -234.5 39.08 -263.8 127 -214.9 9.77 -224.7 -214.9
4.67 -469 39.08 -185.6 -19.54 -9.77 -48.85 78.16 -195.4 19.54 166.1 -566.7 68.39 -254 107.5 -87.93 361.5 -273.6 0 -58.62 -127
4.675 -469 -136.8 -302.9 -214.9 -68.39 -29.31 224.7 -9.77 293.1 312.7 -576.5 -29.31 -244.3 146.6 97.7 547.1 -322.4 -185.6 107.5 68.39
4.68 -410.4 -351.7 -361.5 -449.4 -117.2 -97.7 342 166.1 517.8 410.4 -537.4 -146.6 -224.7 166.1 263.8 644.8 -332.2 -449.4 302.9 342
4.685 -342 -478.7 -371.3 -625.3 -136.8 -156.3 410.4 371.3 654.6 478.7 -508.1 -224.7 -205.2 185.6 351.7 664.4 -312.7 -664.4 459.2 547.1
4.69 -224.7 -527.6 -302.9 -664.4 -97.7 -175.9 429.9 517.8 703.5 508.1 -429.9 -244.3 -156.3 195.4 381 615.5 -205.2 -762.1 586.2 693.7
4.695 -87.93 -429.9 -185.6 -537.4 -9.77 -117.2 381 625.3 625.3 488.5 -332.2 -185.6 -97.7 185.6 322.4 527.6 -48.85 -693.7 625.3 713.2
4.7 58.62 -195.4 -48.85 -254 68.39 19.54 273.6 644.8 469 449.4 -244.3 -58.62 -58.62 195.4 205.2 429.9 117.2 -498.3 576.5 605.8
4.705 195.4 58.62 68.39 68.39 117.2 156.3 117.2 527.6 254 342 -156.3 48.85 -39.08 166.1 39.08 302.9 302.9 -263.8 420.1 469
4.71 273.6 322.4 156.3 371.3 117.2 254 -78.16 351.7 29.31 205.2 -146.6 136.8 -68.39 117.2 -117.2 146.6 439.7 -48.85 185.6 273.6
4.715 293.1 566.7 195.4 615.5 78.16 302.9 -293.1 136.8 -195.4 68.39 -185.6 224.7 -127 97.7 -263.8 0 498.3 136.8 -107.5 39.08
4.72 244.3 674.2 185.6 713.2 0 224.7 -527.6 -136.8 -429.9 -136.8 -244.3 244.3 -185.6 9.77 -381 -244.3 488.5 205.2 -449.4 -146.6
4.725 146.6 703.5 136.8 703.5 -68.39 68.39 -752.3 -449.4 -683.9 -371.3 -312.7 234.5 -273.6 -68.39 -508.1 -527.6 381 195.4 -820.7 -332.2
4.73 58.62 683.9 68.39 625.3 -146.6 -107.5 -957.5 -830.5 -967.8 -655.1 -351.7 224.7 -342 -166.1 -635.6 -810.9 234.5 117.2 -1172 -449.4
4.735 9.77 605.8 9.77 498.3 -195.4 -322.4 -1094 -1240 -1221 -967.8 -322.4 166.1 -371.3 -273.6 -771.9 -1064 117.2 0 -1466 -488.5
4.74 -19.54 547.1 -39.08 390.8 -214.9 -449.4 -1153 -1582 -1416 -1201 -283.3 127 -381 -322.4 -908.6 -1192 39.08 -87.93 -1632 -517.8
4.745 -19.54 459.2 -78.16 293.1 -214.9 -498.3 -1104 -1807 -1475 -1329 -244.3 58.62 -332.2 -351.7 -1006 -1182 9.77 -166.1 -1612 -459.2
4.75 -58.62 332.2 -175.9 205.2 -224.7 -449.4 -977.5 -1787 -1397 -1280 -254 -19.54 -283.3 -322.4 -1036 -996.6 -9.77 -205.2 -1436 -371.3
4.755 -127 185.6 -312.7 117.2 -244.3 -302.9 -762.1 -1495 -1182 -1025 -322.4 -58.62 -263.8 -224.7 -987.3 -655.1 -68.39 -205.2 -1114 -293.1
4.76 -205.2 29.31 -459.2 19.54 -273.6 -107.5 -498.3 -957.5 -859.8 -635.6 -410.4 -87.93 -263.8 -87.93 -850 -195.4 -166.1 -166.1 -703.5 -205.2
4.765 -302.9 -107.5 -605.8 -58.62 -312.7 127 -234.5 -244.3 -488.5 -127 -498.3 -78.16 -283.3 87.93 -664.4 302.9 -302.9 -87.93 -293.1 -185.6
4.77 -420.1 -234.5 -732.8 -156.3 -381 312.7 -29.31 439.7 -156.3 361.5 -586.2 -78.16 -332.2 254 -469 752.3 -488.5 -48.85 29.31 -205.2
4.775 -547.6 -371.3 -879.8 -302.9 -527.6 381 48.85 938 58.62 723 -644.8 -127 -400.6 322.4 -322.4 1045 -723 -107.5 205.2 -254
4.78 -674.6 -498.3 -1036 -459.2 -713.2 322.4 9.77 1182 156.3 908.6 -703.5 -205.2 -478.7 322.4 -254 1153 -967.8 -273.6 214.9 -312.7
4.785 -762.1 -547.6 -1153 -576.5 -918.4 175.9 -107.5 1163 146.6 928.2 -742.6 -322.4 -547.6 254 -244.3 1085 -1163 -478.7 58.62 -390.8
4.79 -762.1 -488.5 -1211 -586.2 -1064 39.08 -293.1 977 68.39 830.5 -732.8 -400.6 -596 146.6 -273.6 908.6 -1240 -596 -195.4 -478.7
4.795 -703.5 -322.4 -1172 -459.2 -1094 -9.77 -459.2 752.3 0 703.5 -693.7 -429.9 -586.2 39.08 -293.1 683.9 -1182 -566.7 -459.2 -596
4.8 -605.8 -107.5 -1055 -234.5 -1016 19.54 -547.6 537.4 -48.85 566.7 -615.5 -390.8 -517.8 -48.85 -273.6 459.2 -1045 -400.6 -683.9 -732.8
4.805 -508.1 78.16 -918.4 -9.77 -840.3 78.16 -537.4 322.4 -29.31 420.1 -498.3 -322.4 -420.1 -136.8 -195.4 234.5 -869.6 -185.6 -810.9 -810.9
4.81 -410.4 205.2 -752.3 146.6 -586.2 156.3 -410.4 127 19.54 244.3 -351.7 -244.3 -263.8 -185.6 -68.39 29.31 -713.2 0 -830.5 -830.5
4.815 -322.4 283.3 -586.2 244.3 -312.7 185.6 -234.5 -78.16 78.16 39.08 -205.2 -166.1 -107.5 -195.4 68.39 -146.6 -556.9 127 -791.4 -771.9
4.82 -214.9 312.7 -429.9 273.6 -68.39 175.9 -87.93 -332.2 68.39 -205.2 -87.93 -107.5 9.77 -175.9 175.9 -302.9 -439.7 195.4 -762.1 -664.4
4.825 -117.2 332.2 -302.9 263.8 97.7 107.5 -29.31 -625.3 -58.62 -478.7 -9.77 -48.85 68.39 -136.8 166.1 -459.2 -332.2 214.9 -801.2 -566.7
4.83 -9.77 361.5 -224.7 224.7 185.6 0 -107.5 -987.3 -332.2 -820.7 19.54 -19.54 58.62 -136.8 29.31 -644.8 -263.8 195.4 -928.2 -498.3
4.835 97.7 410.4 -146.6 214.9 195.4 -107.5 -244.3 -1348 -674.6 -1153 68.39 0 29.31 -175.9 -205.2 -850 -195.4 175.9 -1064 -439.7
4.84 234.5 478.7 -58.62 234.5 185.6 -127 -410.4 -1602 -1016 -1426 156.3 29.31 0 -214.9 -498.3 -1045 -87.93 205.2 -1133 -381
4.845 400.6 556.9 68.39 322.4 185.6 -9.77 -498.3 -1651 -1250 -1553 254 97.7 9.77 -224.7 -771.9 -1153 78.16 293.1 -1045 -302.9
4.85 576.5 635.1 244.3 459.2 244.3 234.5 -469 -1436 -1309 -1466 351.7 205.2 48.85 -156.3 -928.2 -1124 293.1 439.7 -781.6 -195.4
4.855 732.8 703.5 400.6 586.2 312.7 537.4 -351.7 -996.6 -1201 -1192 439.7 293.1 87.93 -58.62 -967.8 -957.5 508.1 576.5 -381 -68.39
4.86 801.2 762.1 498.3 703.5 390.8 830.5 -166.1 -400.6 -938 -762.1 459.2 390.8 117.2 68.39 -869.6 -664.4 654.6 693.7 39.08 9.77
4.865 771.9 791.4 517.8 791.4 410.4 1036 39.08 234.5 -586.2 -244.3 439.7 478.7 127 214.9 -674.6 -322.4 693.7 742.6 449.4 39.08
4.87 664.4 742.6 439.7 781.6 381 1094 254 771.9 -205.2 224.7 371.3 527.6 117.2 322.4 -429.9 0 635.1 674.2 752.3 48.85
4.875 488.5 674.2 293.1 742.6 283.3 1045 410.4 1143 127 635.1 254 566.7 87.93 429.9 -195.4 283.3 498.3 566.7 889.1 0
4.88 332.2 547.1 136.8 625.3 127 850 478.7 1241 381 840.3 136.8 517.8 48.85 459.2 0 449.4 312.7 351.7 850 -39.08
4.885 166.1 410.4 -39.08 459.2 -68.39 566.7 429.9 1114 498.3 850 9.77 390.8 0 410.4 127 498.3 107.5 97.7 615.5 -68.39
4.89 0 302.9 -224.7 312.7 -293.1 302.9 234.5 879.3 478.7 781.6 -117.2 254 -87.93 342 175.9 517.8 -107.5 -107.5 244.3 -156.3
4.895 -146.6 175.9 -390.8 136.8 -498.3 78.16 9.77 605.8 381 644.8 -224.7 87.93 -166.1 254 175.9 498.3 -312.7 -302.9 -156.3 -224.7
4.9 -302.9 29.31 -537.4 -9.77 -655.1 -29.31 -205.2 400.6 273.6 547.1 -322.4 -39.08 -224.7 195.4 166.1 517.8 -498.3 -420.1 -498.3 -302.9
4.905 -420.1 -97.7 -625.3 -146.6 -723 -58.62 -332.2 293.1 205.2 508.1 -361.5 -117.2 -254 175.9 175.9 586.2 -635.6 -459.2 -713.2 -361.5
4.91 -459.2 -224.7 -605.8 -254 -664.4 -68.39 -332.2 224.7 224.7 478.7 -312.7 -136.8 -214.9 156.3 244.3 615.5 -674.6 -439.7 -752.3 -342
4.915 -429.9 -293.1 -498.3 -302.9 -527.6 -97.7 -244.3 175.9 283.3 459.2 -195.4 -136.8 -136.8 146.6 332.2 615.5 -625.3 -361.5 -683.9 -312.7
4.92 -322.4 -273.6 -302.9 -283.3 -332.2 -146.6 -117.2 87.93 342 400.6 -48.85 -87.93 -19.54 136.8 410.4 547.1 -488.5 -244.3 -547.6 -234.5
4.925 -156.3 -175.9 -9.77 -185.6 -68.39 -185.6 29.31 -48.85 390.8 273.6 136.8 -19.54 87.93 127 478.7 381 -234.5 -97.7 -351.7 -136.8
4.93 0 0 273.6 9.77 185.6 -117.2 175.9 -224.7 361.5 107.5 332.2 58.62 185.6 117.2 469 166.1 58.62 136.8 -175.9 -68.39
4.935 156.3 234.5 566.7 263.8 410.4 68.39 283.3 -390.8 254 -87.93 488.5 175.9 244.3 107.5 400.6 -87.93 390.8 429.9 -29.31 -29.31
4.94 263.8 449.4 801.2 537.4 537.4 322.4 322.4 -537.4 78.16 -293.1 596 283.3 254 87.93 254 -351.7 683.9 723 48.85 -19.54
4.945 322.4 644.8 898.9 771.9 527.6 615.5 244.3 -586.2 -136.8 -439.7 635.1 381 224.7 78.16 48.85 -537.4 869.6 938 58.62 -58.62
4.95 361.5 732.8 908.6 908.6 420.1 810.9 107.5 -517.8 -351.7 -508.1 635.1 420.1 185.6 48.85 -136.8 -655.1 938 1036 68.39 -78.16
4.955 361.5 723 850 918.4 244.3 859.8 -29.31 -332.2 -498.3 -478.7 596 390.8 146.6 0 -293.1 -703.5 908.6 1006 97.7 -68.39
4.96 322.4 635.1 742.6 830.5 78.16 801.2 -107.5 -39.08 -547.6 -342 547.1 312.7 136.8 -68.39 -332.2 -674.6 781.6 898.9 205.2 -68.39
4.965 254 469 625.3 625.3 -48.85 605.8 -97.7 224.7 -478.7 -156.3 517.8 205.2 156.3 -156.3 -254 -605.8 586.2 703.5 371.3 -19.54
4.97 136.8 234.5 478.7 351.7 -185.6 342 -29.31 420.1 -322.4 39.08 469 48.85 195.4 -254 -87.93 -508.1 332.2 420.1 508.1 29.31
4.975 0 -9.77 293.1 9.77 -293.1 48.85 78.16 498.3 -97.7 234.5 420.1 -107.5 244.3 -312.7 127 -381 58.62 107.5 576.5 97.7
4.98 -136.8 -273.6 136.8 -342 -371.3 -214.9 185.6 469 136.8 371.3 400.6 -302.9 302.9 -351.7 371.3 -214.9 -195.4 -224.7 566.7 205.2
4.985 -263.8 -517.8 9.77 -664.4 -400.6 -439.7 254 371.3 361.5 449.4 371.3 -508.1 361.5 -361.5 586.2 -48.85 -410.4 -527.6 469 293.1
4.99 -390.8 -693.7 -78.16 -898.9 -371.3 -576.5 273.6 273.6 537.4 498.3 332.2 -674.6 390.8 -342 752.3 107.5 -566.7 -723 302.9 322.4
4.995 -498.3 -801.2 -146.6 -996.6 -322.4 -655.1 224.7 127 615.5 488.5 273.6 -791.4 381 -332.2 840.3 224.7 -664.4 -820.7 78.16 312.7
5 -596 -840.3 -205.2 -1006 -312.7 -723 107.5 -48.85 605.8 420.1 214.9 -840.3 342 -342 840.3 234.5 -703.5 -850 -175.9 254
5.005 -664.4 -752.3 -312.7 -918.4 -371.3 -762.1 -39.08 -244.3 498.3 322.4 117.2 -810.9 254 -351.7 742.6 175.9 -742.6 -820.7 -449.4 136.8
5.01 -655.1 -605.8 -381 -810.9 -410.4 -791.4 -156.3 -420.1 381 175.9 68.39 -713.2 175.9 -361.5 625.3 48.85 -713.2 -762.1 -644.8 68.39
5.015 -547.6 -449.4 -390.8 -683.9 -400.6 -781.6 -205.2 -556.9 263.8 -9.77 78.16 -605.8 136.8 -351.7 508.1 -97.7 -605.8 -664.4 -693.7 48.85
5.02 -381 -302.9 -302.9 -537.4 -293.1 -674.6 -166.1 -625.3 175.9 -205.2 156.3 -478.7 156.3 -302.9 420.1 -234.5 -410.4 -488.5 -576.5 87.93
5.025 -136.8 -146.6 -68.39 -312.7 -58.62 -459.2 -29.31 -644.8 127 -400.6 342 -322.4 254 -224.7 390.8 -342 -97.7 -224.7 -332.2 175.9
5.03 97.7 29.31 185.6 -9.77 185.6 -146.6 97.7 -625.3 68.39 -576.5 547.1 -136.8 390.8 -117.2 351.7 -429.9 234.5 117.2 -58.62 224.7
5.035 293.1 224.7 439.7 332.2 410.4 195.4 205.2 -586.2 -9.77 -732.8 723 19.54 498.3 -39.08 302.9 -508.1 537.4 459.2 166.1 224.7
5.04 439.7 449.4 625.3 664.4 527.6 498.3 263.8 -517.8 -107.5 -801.2 810.9 175.9 527.6 19.54 224.7 -556.9 742.6 732.8 322.4 156.3
5.045 498.3 586.2 664.4 850 508.1 654.6 224.7 -400.6 -214.9 -810.9 791.4 244.3 478.7 29.31 87.93 -566.7 820.7 859.8 420.1 97.7
5.05 488.5 605.8 625.3 869.6 390.8 664.4 146.6 -214.9 -293.1 -732.8 732.8 214.9 371.3 19.54 -68.39 -527.6 801.2 830.5 508.1 87.93
5.055 459.2 566.7 537.4 791.4 224.7 605.8 48.85 68.39 -342 -537.4 654.6 146.6 254 48.85 -244.3 -381 732.8 723 596 87.93
5.06 410.4 478.7 459.2 654.6 68.39 547.1 -48.85 420.1 -351.7 -283.3 596 78.16 166.1 107.5 -410.4 -175.9 644.8 605.8 674.2 107.5
5.065 390.8 420.1 429.9 566.7 -9.77 566.7 -117.2 771.9 -332.2 0 586.2 68.39 127 195.4 -508.1 48.85 615.5 537.4 732.8 107.5
5.07 381 390.8 488.5 537.4 0 625.3 -136.8 1016 -293.1 244.3 605.8 78.16 146.6 293.1 -547.6 254 615.5 547.1 752.3 68.39
5.075 361.5 342 576.5 508.1 117.2 664.4 -87.93 1104 -224.7 390.8 644.8 78.16 205.2 312.7 -498.3 361.5 625.3 596 713.2 39.08
5.08 361.5 273.6 654.6 459.2 322.4 644.8 39.08 1026 -97.7 459.2 723 48.85 312.7 273.6 -351.7 371.3 625.3 654.6 654.6 29.31
5.085 332.2 175.9 693.7 351.7 537.4 527.6 214.9 830.5 68.39 459.2 801.2 -9.77 429.9 205.2 -127 302.9 586.2 674.2 576.5 29.31
5.09 263.8 68.39 635.1 214.9 674.2 342 400.6 596 254 449.4 830.5 -78.16 508.1 127 107.5 224.7 478.7 635.1 469 0
5.095 166.1 0 498.3 87.93 683.9 146.6 517.8 371.3 400.6 469 801.2 -117.2 527.6 68.39 332.2 185.6 312.7 537.4 312.7 -48.85
5.1 48.85 -58.62 332.2 -29.31 586.2 -39.08 508.1 136.8 469 478.7 732.8 -146.6 498.3 48.85 488.5 146.6 136.8 351.7 107.5 -117.2
5.105 -48.85 -117.2 166.1 -127 400.6 -205.2 410.4 -97.7 459.2 429.9 635.1 -156.3 429.9 39.08 566.7 87.93 -29.31 97.7 -127 -156.3
5.11 -97.7 -166.1 58.62 -175.9 205.2 -332.2 244.3 -342 390.8 322.4 576.5 -136.8 390.8 48.85 566.7 9.77 -117.2 -136.8 -342 -127
5.115 -78.16 -185.6 29.31 -156.3 78.16 -361.5 117.2 -527.6 312.7 175.9 586.2 -87.93 390.8 78.16 517.8 -78.16 -97.7 -293.1 -439.7 -39.08
5.12 0 -146.6 68.39 -39.08 39.08 -283.3 48.85 -596 234.5 29.31 596 -19.54 371.3 107.5 439.7 -156.3 0 -293.1 -420.1 19.54
5.125 68.39 -58.62 127 127 87.93 -107.5 48.85 -508.1 185.6 -19.54 596 29.31 342 136.8 371.3 -195.4 97.7 -127 -273.6 29.31
5.13 68.39 0 156.3 273.6 166.1 107.5 97.7 -322.4 166.1 -29.31 527.6 58.62 283.3 146.6 293.1 -205.2 166.1 97.7 -68.39 0
5.135 0 19.54 97.7 342 195.4 302.9 166.1 -68.39 146.6 9.77 420.1 58.62 205.2 146.6 254 -166.1 136.8 302.9 127 -78.16
5.14 -87.93 -48.85 9.77 283.3 175.9 420.1 224.7 185.6 166.1 78.16 332.2 0 146.6 146.6 244.3 -87.93 29.31 381 302.9 -117.2
5.145 -166.1 -205.2 -117.2 97.7 58.62 400.6 254 361.5 195.4 127 283.3 -78.16 97.7 127 254 0 -117.2 254 410.4 -87.93
5.15 -185.6 -332.2 -263.8 -97.7 -117.2 312.7 234.5 488.5 244.3 185.6 283.3 -136.8 68.39 136.8 283.3 107.5 -283.3 19.54 439.7 -29.31
5.155 -175.9 -449.4 -390.8 -302.9 -342 166.1 156.3 547.1 263.8 244.3 263.8 -214.9 9.77 127 254 195.4 -449.4 -273.6 371.3 29.31
5.16 -205.2 -517.8 -508.1 -449.4 -576.5 9.77 0 527.6 234.5 273.6 195.4 -263.8 -68.39 97.7 156.3 244.3 -596 -517.8 234.5 58.62
5.165 -224.7 -498.3 -556.9 -469 -693.7 -58.62 -156.3 517.8 166.1 322.4 127 -263.8 -156.3 87.93 29.31 283.3 -644.8 -576.5 78.16 29.31
5.17 -244.3 -429.9 -537.4 -410.4 -674.6 -58.62 -293.1 508.1 58.62 351.7 78.16 -254 -205.2 58.62 -127 293.1 -615.5 -459.2 -48.85 -29.31
5.175 -234.5 -312.7 -429.9 -273.6 -488.5 39.08 -371.3 556.9 -58.62 390.8 87.93 -224.7 -175.9 68.39 -254 332.2 -488.5 -166.1 -117.2 -136.8
5.18 -185.6 -156.3 -224.7 -78.16 -175.9 214.9 -351.7 683.9 -156.3 459.2 156.3 -175.9 -97.7 117.2 -342 400.6 -273.6 214.9 -107.5 -234.5
5.185 -127 -39.08 -19.54 48.85 127 361.5 -312.7 781.6 -263.8 488.5 234.5 -136.8 0 146.6 -400.6 420.1 -78.16 517.8 -78.16 -283.3
5.19 -107.5 -9.77 136.8 97.7 361.5 400.6 -273.6 810.9 -322.4 488.5 263.8 -107.5 78.16 156.3 -400.6 400.6 48.85 654.6 -58.62 -273.6
5.195 -107.5 -48.85 195.4 39.08 439.7 293.1 -263.8 693.7 -332.2 410.4 234.5 -48.85 117.2 117.2 -351.7 293.1 78.16 566.7 -78.16 -195.4
5.2 -156.3 -146.6 117.2 -117.2 361.5 19.54 -273.6 439.7 -302.9 283.3 136.8 -9.77 107.5 29.31 -244.3 117.2 -19.54 302.9 -166.1 -87.93
5.205 -283.3 -293.1 -68.39 -351.7 166.1 -332.2 -302.9 97.7 -234.5 136.8 -48.85 -19.54 48.85 -87.93 -97.7 -78.16 -224.7 -9.77 -312.7 -29.31
5.21 -478.7 -469 -332.2 -605.8 -68.39 -703.5 -312.7 -254 -166.1 -9.77 -293.1 -68.39 -48.85 -234.5 19.54 -273.6 -478.7 -293.1 -478.7 0
5.215 -713.2 -664.4 -576.5 -830.5 -283.3 -967.8 -293.1 -537.4 -107.5 -136.8 -566.7 -146.6 -205.2 -361.5 117.2 -429.9 -713.2 -469 -615.5 0
5.22 -957.5 -840.3 -781.6 -977.5 -439.7 -1055 -254 -683.9 -68.39 -234.5 -850 -195.4 -381 -429.9 136.8 -488.5 -908.6 -547.6 -683.9 -19.54
5.225 -1163 -987.3 -908.6 -1016 -537.4 -977.5 -195.4 -703.5 -29.31 -283.3 -1055 -185.6 -517.8 -420.1 127 -469 -996.6 -537.4 -644.8 -39.08
5.23 -1270 -1055 -938 -938 -576.5 -762.1 -117.2 -576.5 9.77 -283.3 -1163 -127 -586.2 -322.4 97.7 -361.5 -996.6 -449.4 -527.6 -97.7
5.235 -1299 -1036 -918.4 -801.2 -605.8 -537.4 -68.39 -410.4 48.85 -254 -1172 -48.85 -596 -205.2 48.85 -234.5 -957.5 -371.3 -390.8 -156.3
5.24 -1231 -967.8 -830.5 -674.6 -586.2 -381 0 -244.3 127 -205.2 -1075 0 -537.4 -127 9.77 -146.6 -840.3 -302.9 -214.9 -166.1
5.245 -1104 -879.8 -713.2 -556.9 -547.6 -293.1 58.62 -87.93 224.7 -127 -938 19.54 -478.7 -97.7 -9.77 -58.62 -713.2 -254 -48.85 -146.6
5.25 -977.5 -781.6 -596 -498.3 -478.7 -273.6 117.2 39.08 342 -19.54 -830.5 19.54 -439.7 -97.7 -29.31 9.77 -576.5 -234.5 87.93 -78.16
5.255 -830.5 -713.2 -439.7 -439.7 -351.7 -244.3 195.4 175.9 459.2 78.16 -683.9 9.77 -371.3 -87.93 -29.31 107.5 -410.4 -205.2 224.7 19.54
5.26 -693.7 -644.8 -302.9 -371.3 -224.7 -156.3 224.7 312.7 527.6 185.6 -566.7 9.77 -322.4 -48.85 -48.85 244.3 -263.8 -146.6 302.9 117.2
5.265 -556.9 -566.7 -175.9 -273.6 -78.16 -29.31 205.2 420.1 517.8 244.3 -459.2 9.77 -254 9.77 -78.16 381 -117.2 -48.85 332.2 175.9
5.27 -381 -469 -39.08 -136.8 87.93 127 175.9 478.7 439.7 273.6 -332.2 48.85 -156.3 107.5 -127 488.5 39.08 97.7 332.2 224.7
5.275 -224.7 -371.3 97.7 9.77 263.8 293.1 136.8 498.3 332.2 254 -234.5 97.7 -78.16 185.6 -156.3 566.7 205.2 273.6 322.4 254
5.28 -97.7 -302.9 263.8 166.1 459.2 420.1 146.6 478.7 254 244.3 -166.1 136.8 0 254 -146.6 605.8 371.3 469 332.2 283.3
5.285 9.77 -224.7 469 322.4 664.4 498.3 224.7 449.4 234.5 224.7 -78.16 175.9 68.39 322.4 -87.93 596 576.5 635.1 410.4 342
5.29 97.7 -166.1 644.8 449.4 820.7 498.3 293.1 390.8 234.5 185.6 -19.54 205.2 107.5 351.7 -29.31 547.1 752.3 723 478.7 410.4
5.295 146.6 -78.16 732.8 556.9 889.1 469 322.4 351.7 185.6 146.6 -9.77 224.7 78.16 381 0 488.5 840.3 781.6 517.8 410.4
5.3 175.9 29.31 752.3 615.5 869.6 410.4 302.9 322.4 107.5 117.2 -9.77 254 19.54 371.3 -19.54 410.4 869.6 801.2 527.6 361.5
5.305 156.3 87.93 693.7 576.5 762.1 332.2 214.9 302.9 -19.54 78.16 -68.39 234.5 -87.93 302.9 -97.7 322.4 781.6 781.6 508.1 273.6
5.31 87.93 107.5 586.2 508.1 635.1 283.3 166.1 342 -117.2 87.93 -156.3 195.4 -205.2 224.7 -166.1 283.3 654.6 781.6 517.8 175.9
5.315 0 87.93 459.2 410.4 527.6 283.3 175.9 439.7 -136.8 156.3 -273.6 136.8 -302.9 166.1 -185.6 302.9 508.1 791.4 576.5 68.39
5.32 -127 48.85 302.9 312.7 439.7 312.7 224.7 547.1 -78.16 254 -390.8 78.16 -381 156.3 -175.9 342 342 810.9 635.1 -19.54
5.325 -244.3 0 127 224.7 361.5 312.7 322.4 635.1 39.08 351.7 -478.7 39.08 -400.6 175.9 -117.2 381 195.4 762.1 674.2 -78.16
5.33 -302.9 -39.08 -9.77 127 293.1 254 400.6 635.1 185.6 390.8 -508.1 9.77 -390.8 185.6 -29.31 381 68.39 625.3 654.6 -78.16
5.335 -263.8 -127 -78.16 -9.77 234.5 107.5 439.7 517.8 293.1 322.4 -459.2 -39.08 -332.2 156.3 48.85 293.1 -9.77 381 576.5 0
5.34 -166.1 -195.4 -117.2 -136.8 156.3 -39.08 390.8 342 332.2 185.6 -400.6 -97.7 -302.9 107.5 117.2 156.3 -58.62 107.5 429.9 117.2
5.345 -78.16 -205.2 -136.8 -185.6 39.08 -127 234.5 175.9 244.3 9.77 -351.7 -146.6 -312.7 68.39 117.2 29.31 -87.93 -87.93 195.4 156.3
5.35 -48.85 -136.8 -136.8 -156.3 -87.93 -97.7 0 68.39 78.16 -146.6 -342 -146.6 -371.3 68.39 58.62 -68.39 -87.93 -166.1 -97.7 107.5
5.355 -78.16 -39.08 -156.3 -58.62 -205.2 -9.77 -263.8 19.54 -87.93 -263.8 -390.8 -97.7 -439.7 78.16 -9.77 -117.2 -78.16 -156.3 -400.6 9.77
5.36 -127 58.62 -136.8 39.08 -273.6 97.7 -449.4 0 -224.7 -332.2 -439.7 -29.31 -498.3 87.93 -68.39 -175.9 -39.08 -78.16 -615.5 -68.39
5.365 -146.6 136.8 -87.93 136.8 -224.7 205.2 -508.1 0 -254 -351.7 -459.2 29.31 -488.5 87.93 -78.16 -224.7 39.08 29.31 -664.4 -97.7
5.37 -127 146.6 -19.54 195.4 -107.5 263.8 -449.4 0 -214.9 -342 -449.4 58.62 -439.7 48.85 -48.85 -293.1 127 117.2 -576.5 -58.62
5.375 -87.93 156.3 29.31 224.7 29.31 283.3 -322.4 -19.54 -136.8 -312.7 -381 58.62 -361.5 29.31 -19.54 -351.7 185.6 195.4 -390.8 0
5.38 -29.31 107.5 58.62 195.4 136.8 205.2 -166.1 -78.16 -68.39 -283.3 -293.1 0 -263.8 0 0 -390.8 205.2 224.7 -175.9 58.62
5.385 0 19.54 58.62 97.7 175.9 39.08 -48.85 -146.6 -19.54 -273.6 -214.9 -78.16 -175.9 -39.08 9.77 -390.8 175.9 175.9 9.77 117.2
5.39 -9.77 -78.16 29.31 -48.85 136.8 -166.1 9.77 -224.7 -19.54 -263.8 -175.9 -185.6 -127 -97.7 0 -342 107.5 68.39 146.6 166.1
5.395 -78.16 -214.9 -29.31 -234.5 19.54 -371.3 29.31 -283.3 -29.31 -244.3 -166.1 -283.3 -117.2 -136.8 -39.08 -244.3 -19.54 -78.16 224.7 175.9
5.4 -214.9 -322.4 -156.3 -390.8 -136.8 -478.7 19.54 -273.6 -58.62 -185.6 -234.5 -332.2 -175.9 -136.8 -78.16 -97.7 -185.6 -205.2 234.5 127
5.405 -420.1 -429.9 -361.5 -547.6 -322.4 -498.3 -48.85 -244.3 -97.7 -127 -381 -390.8 -283.3 -136.8 -127 19.54 -439.7 -342 166.1 39.08
5.41 -625.3 -517.8 -576.5 -664.4 -469 -429.9 -107.5 -195.4 -127 -78.16 -517.8 -420.1 -400.6 -127 -136.8 127 -683.9 -420.1 78.16 -58.62
5.415 -801.2 -576.5 -762.1 -713.2 -547.6 -322.4 -146.6 -136.8 -136.8 -48.85 -693.7 -429.9 -498.3 -136.8 -97.7 175.9 -869.6 -439.7 -9.77 -156.3
5.42 -928.2 -566.7 -908.6 -674.6 -615.5 -205.2 -205.2 -87.93 -156.3 -9.77 -840.3 -420.1 -556.9 -156.3 -58.62 185.6 -1006 -390.8 -156.3 -293.1
5.425 -977.5 -469 -977.5 -556.9 -635.6 -97.7 -244.3 -9.77 -156.3 48.85 -918.4 -351.7 -576.5 -136.8 0 214.9 -1055 -293.1 -302.9 -429.9
5.43 -996.6 -342 -1016 -400.6 -674.6 -9.77 -322.4 68.39 -175.9 146.6 -987.3 -263.8 -605.8 -78.16 48.85 263.8 -1085 -214.9 -478.7 -566.7
5.435 -996.6 -224.7 -1055 -293.1 -762.1 9.77 -439.7 127 -195.4 224.7 -996.6 -214.9 -635.6 0 68.39 322.4 -1114 -205.2 -664.4 -664.4
5.44 -957.5 -205.2 -1045 -283.3 -810.9 -48.85 -537.4 117.2 -185.6 244.3 -957.5 -234.5 -644.8 19.54 97.7 361.5 -1094 -302.9 -791.4 -635.6
5.445 -898.9 -263.8 -996.6 -351.7 -801.2 -166.1 -576.5 39.08 -117.2 214.9 -898.9 -312.7 -615.5 9.77 146.6 342 -1036 -469 -850 -508.1
5.45 -801.2 -332.2 -908.6 -478.7 -742.6 -302.9 -547.6 -97.7 -19.54 127 -781.6 -410.4 -527.6 -48.85 205.2 273.6 -938 -655.1 -850 -322.4
5.455 -693.7 -410.4 -781.6 -586.2 -664.4 -449.4 -478.7 -293.1 68.39 0 -644.8 -488.5 -420.1 -156.3 263.8 146.6 -820.7 -830.5 -820.7 -127
5.46 -566.7 -429.9 -664.4 -644.8 -615.5 -576.5 -439.7 -508.1 107.5 -146.6 -527.6 -527.6 -322.4 -263.8 273.6 -29.31 -723 -957.5 -820.7 0
5.465 -439.7 -361.5 -566.7 -644.8 -605.8 -693.7 -429.9 -723 58.62 -293.1 -429.9 -517.8 -263.8 -351.7 214.9 -205.2 -625.3 -1006 -830.5 68.39
5.47 -273.6 -263.8 -469 -576.5 -605.8 -801.2 -459.2 -918.4 -48.85 -439.7 -342 -469 -254 -400.6 87.93 -371.3 -517.8 -987.3 -820.7 97.7
5.475 -78.16 -136.8 -351.7 -469 -527.6 -859.8 -449.4 -1036 -185.6 -537.4 -254 -390.8 -234.5 -400.6 -48.85 -478.7 -371.3 -879.8 -723 117.2
5.48 107.5 19.54 -185.6 -322.4 -371.3 -830.5 -371.3 -1016 -273.6 -566.7 -146.6 -273.6 -205.2 -322.4 -175.9 -478.7 -185.6 -664.4 -498.3 127
5.485 234.5 107.5 -58.62 -195.4 -175.9 -703.5 -234.5 -889.1 -322.4 -537.4 -58.62 -175.9 -175.9 -234.5 -273.6 -400.6 -58.62 -439.7 -214.9 136.8
5.49 244.3 166.1 0 -78.16 9.77 -488.5 -78.16 -635.6 -322.4 -410.4 -9.77 -97.7 -146.6 -107.5 -332.2 -224.7 -9.77 -214.9 78.16 107.5
5.495 146.6 166.1 -9.77 -29.31 117.2 -234.5 39.08 -312.7 -273.6 -214.9 -9.77 -58.62 -146.6 0 -322.4 0 -78.16 -68.39 302.9 48.85
5.5 -9.77 68.39 -146.6 -87.93 97.7 -58.62 97.7 -29.31 -244.3 -29.31 -87.93 -97.7 -175.9 48.85 -312.7 214.9 -263.8 -39.08 390.8 -29.31
5.505 -185.6 -39.08 -312.7 -175.9 0 19.54 87.93 185.6 -214.9 146.6 -166.1 -166.1 -214.9 78.16 -263.8 400.6 -478.7 -107.5 361.5 -127
5.51 -312.7 -166.1 -459.2 -342 -175.9 -19.54 19.54 302.9 -195.4 254 -234.5 -244.3 -273.6 68.39 -205.2 508.1 -693.7 -273.6 224.7 -175.9
5.515 -410.4 -293.1 -586.2 -527.6 -381 -146.6 -78.16 342 -185.6 302.9 -293.1 -322.4 -351.7 29.31 -156.3 556.9 -898.9 -469 29.31 -214.9
5.52 -449.4 -361.5 -703.5 -683.9 -566.7 -273.6 -195.4 371.3 -156.3 342 -302.9 -381 -410.4 19.54 -87.93 596 -1064 -644.8 -156.3 -273.6
5.525 -498.3 -420.1 -840.3 -820.7 -762.1 -371.3 -312.7 381 -117.2 371.3 -342 -439.7 -469 0 -39.08 615.5 -1231 -791.4 -342 -342
5.53 -556.9 -469 -967.8 -898.9 -918.4 -410.4 -410.4 410.4 -58.62 420.1 -410.4 -498.3 -527.6 -19.54 0 615.5 -1358 -859.8 -488.5 -420.1
5.535 -596 -478.7 -1045 -898.9 -1016 -400.6 -488.5 400.6 -9.77 459.2 -459.2 -537.4 -556.9 -48.85 19.54 586.2 -1416 -859.8 -586.2 -488.5
5.54 -625.3 -469 -1045 -840.3 -1064 -390.8 -556.9 332.2 0 459.2 -488.5 -566.7 -586.2 -117.2 9.77 488.5 -1397 -810.9 -683.9 -547.6
5.545 -586.2 -390.8 -947.7 -703.5 -1025 -371.3 -586.2 195.4 -9.77 410.4 -449.4 -556.9 -586.2 -175.9 0 322.4 -1280 -713.2 -771.9 -586.2
5.55 -488.5 -214.9 -820.7 -488.5 -957.5 -332.2 -625.3 19.54 -48.85 322.4 -361.5 -508.1 -576.5 -214.9 -29.31 146.6 -1114 -596 -879.8 -655.1
5.555 -400.6 0 -723 -244.3 -908.6 -283.3 -674.6 -185.6 -136.8 214.9 -283.3 -410.4 -566.7 -224.7 -78.16 -19.54 -967.8 -459.2 -1025 -762.1
5.56 -322.4 205.2 -655.1 -39.08 -859.8 -254 -732.8 -420.1 -254 78.16 -254 -312.7 -576.5 -224.7 -146.6 -185.6 -850 -342 -1192 -879.8
5.565 -273.6 371.3 -596 97.7 -810.9 -263.8 -801.2 -713.2 -410.4 -107.5 -244.3 -254 -566.7 -263.8 -254 -361.5 -742.6 -254 -1329 -938
5.57 -254 498.3 -547.6 205.2 -762.1 -254 -879.8 -977.5 -605.8 -332.2 -244.3 -166.1 -566.7 -293.1 -400.6 -508.1 -644.8 -146.6 -1446 -977.5
5.575 -224.7 596 -469 283.3 -693.7 -224.7 -947.7 -1182 -820.7 -556.9 -224.7 -97.7 -566.7 -322.4 -576.5 -625.3 -517.8 -48.85 -1485 -977.5
5.58 -195.4 664.4 -351.7 371.3 -605.8 -117.2 -987.3 -1231 -1006 -713.2 -166.1 -58.62 -556.9 -322.4 -752.3 -674.6 -371.3 78.16 -1436 -967.8
5.585 -195.4 713.2 -254 488.5 -537.4 87.93 -1025 -1064 -1182 -723 -127 -19.54 -576.5 -263.8 -938 -625.3 -263.8 283.3 -1299 -1016
5.59 -205.2 674.2 -146.6 547.1 -449.4 293.1 -1006 -791.4 -1280 -664.4 -117.2 -9.77 -596 -185.6 -1094 -556.9 -175.9 449.4 -1064 -1006
5.595 -185.6 586.2 -58.62 547.1 -342 469 -928.2 -449.4 -1270 -566.7 -136.8 -9.77 -586.2 -97.7 -1172 -478.7 -87.93 566.7 -732.8 -908.6
5.6 -127 459.2 0 469 -224.7 547.1 -801.2 -136.8 -1182 -478.7 -156.3 58.62 -537.4 -29.31 -1211 -410.4 0 576.5 -361.5 -664.4
5.605 39.08 390.8 68.39 351.7 -97.7 537.4 -605.8 107.5 -1025 -429.9 -117.2 195.4 -429.9 29.31 -1163 -322.4 156.3 478.7 29.31 -312.7
5.61 293.1 371.3 175.9 254 29.31 488.5 -351.7 332.2 -791.4 -361.5 0 342 -273.6 97.7 -1036 -185.6 361.5 361.5 390.8 29.31
5.615 498.3 371.3 302.9 205.2 156.3 449.4 -58.62 537.4 -498.3 -205.2 97.7 449.4 -107.5 166.1 -820.7 0 556.9 244.3 703.5 312.7
5.62 644.8 420.1 469 254 293.1 488.5 244.3 781.6 -166.1 48.85 175.9 498.3 39.08 263.8 -556.9 244.3 723 234.5 938 439.7
5.625 654.6 449.4 586.2 351.7 420.1 566.7 527.6 1016 156.3 390.8 156.3 469 136.8 332.2 -293.1 498.3 801.2 302.9 1075 400.6
5.63 537.4 420.1 625.3 439.7 517.8 625.3 732.8 1172 439.7 713.2 29.31 381 166.1 342 -68.39 664.4 781.6 381 1104 283.3
5.635 400.6 420.1 615.5 537.4 605.8 674.2 859.8 1260 644.8 957.5 -87.93 332.2 156.3 322.4 78.16 752.3 742.6 498.3 1055 117.2
5.64 312.7 439.7 635.1 615.5 703.5 674.2 947.7 1241 791.4 1065 -185.6 302.9 146.6 263.8 205.2 713.2 742.6 605.8 1006 0
5.645 293.1 449.4 693.7 654.6 791.4 615.5 1006 1104 879.3 1016 -205.2 283.3 156.3 195.4 302.9 556.9 801.2 664.4 967.3 -9.77
5.65 361.5 527.6 781.6 713.2 850 537.4 1026 947.7 898.9 889.1 -166.1 342 185.6 156.3 371.3 381 879.3 703.5 918.4 -19.54
5.655 420.1 596 820.7 713.2 820.7 400.6 957.5 683.9 801.2 664.4 -117.2 361.5 185.6 97.7 381 156.3 918.4 664.4 801.2 -19.54
5.66 410.4 625.3 752.3 664.4 654.6 195.4 723 312.7 547.1 361.5 -136.8 361.5 136.8 0 312.7 -68.39 830.5 537.4 508.1 -58.62
5.665 390.8 683.9 625.3 625.3 429.9 9.77 371.3 -97.7 195.4 29.31 -146.6 390.8 78.16 -78.16 205.2 -263.8 713.2 371.3 78.16 -107.5
5.67 351.7 683.9 488.5 576.5 205.2 -127 -48.85 -576.5 -224.7 -332.2 -175.9 420.1 9.77 -146.6 68.39 -439.7 596 185.6 -420.1 -156.3
5.675 342 723 351.7 586.2 0 -146.6 -488.5 -987.3 -655.1 -674.6 -205.2 508.1 -58.62 -166.1 -78.16 -566.7 498.3 68.39 -908.6 -224.7
5.68 390.8 771.9 263.8 674.2 -107.5 -29.31 -810.9 -1270 -987.3 -947.7 -195.4 654.6 -117.2 -127 -214.9 -655.1 478.7 29.31 -1240 -254
5.685 400.6 801.2 185.6 781.6 -175.9 146.6 -1006 -1436 -1221 -1163 -234.5 810.9 -185.6 -68.39 -361.5 -752.3 469 58.62 -1397 -254
5.69 439.7 840.3 136.8 889.1 -195.4 342 -1036 -1466 -1309 -1270 -273.6 967.3 -214.9 0 -469 -820.7 478.7 136.8 -1319 -214.9
5.695 469 830.5 156.3 938 -146.6 469 -918.4 -1406 -1240 -1319 -283.3 1094 -205.2 39.08 -517.8 -889.1 537.4 205.2 -1055 -87.93
5.7 469 791.4 195.4 918.4 -87.93 508.1 -732.8 -1270 -1104 -1280 -283.3 1153 -175.9 78.16 -556.9 -918.4 596 254 -693.7 29.31
5.705 478.7 732.8 234.5 830.5 -68.39 459.2 -547.6 -1085 -918.4 -1163 -283.3 1163 -156.3 97.7 -566.7 -879.8 625.3 244.3 -351.7 117.2
5.71 429.9 596 224.7 635.1 -127 302.9 -420.1 -898.9 -771.9 -996.6 -322.4 1065 -156.3 48.85 -576.5 -791.4 556.9 136.8 -97.7 166.1
5.715 332.2 439.7 166.1 400.6 -224.7 107.5 -322.4 -693.7 -635.6 -791.4 -371.3 879.3 -166.1 -9.77 -537.4 -664.4 420.1 0 48.85 166.1
5.72 185.6 263.8 19.54 156.3 -371.3 -87.93 -263.8 -478.7 -517.8 -547.6 -469 644.8 -205.2 -68.39 -488.5 -488.5 195.4 -166.1 107.5 97.7
5.725 9.77 127 -136.8 0 -488.5 -205.2 -205.2 -214.9 -400.6 -263.8 -576.5 439.7 -254 -107.5 -420.1 -263.8 -9.77 -263.8 127 0
5.73 -127 68.39 -263.8 -58.62 -527.6 -224.7 -117.2 68.39 -263.8 39.08 -655.1 322.4 -302.9 -107.5 -332.2 0 -166.1 -273.6 127 -107.5
5.735 -234.5 48.85 -371.3 -39.08 -517.8 -205.2 -58.62 302.9 -136.8 322.4 -742.6 293.1 -342 -78.16 -283.3 244.3 -283.3 -234.5 68.39 -205.2
5.74 -302.9 48.85 -400.6 19.54 -449.4 -175.9 0 449.4 0 527.6 -771.9 312.7 -342 -68.39 -214.9 449.4 -312.7 -175.9 0 -244.3
5.745 -273.6 68.39 -351.7 68.39 -322.4 -195.4 39.08 469 127 625.3 -723 342 -263.8 -58.62 -127 527.6 -273.6 -127 -68.39 -224.7
5.75 -195.4 136.8 -263.8 117.2 -205.2 -224.7 68.39 400.6 234.5 615.5 -615.5 390.8 -146.6 -48.85 -58.62 498.3 -185.6 -78.16 -136.8 -195.4
5.755 -68.39 234.5 -127 185.6 -107.5 -254 78.16 263.8 273.6 527.6 -469 449.4 -29.31 -39.08 0 371.3 -48.85 -9.77 -195.4 -166.1
5.76 19.54 234.5 -9.77 175.9 -9.77 -234.5 58.62 117.2 185.6 361.5 -273.6 429.9 58.62 -39.08 19.54 146.6 19.54 19.54 -195.4 -117.2
5.765 39.08 156.3 78.16 136.8 78.16 -136.8 58.62 19.54 9.77 234.5 -78.16 390.8 117.2 -9.77 48.85 -87.93 48.85 68.39 -127 -68.39
5.77 -68.39 -9.77 117.2 97.7 166.1 -19.54 68.39 0 -175.9 166.1 -19.54 312.7 117.2 0 68.39 -254 39.08 136.8 -39.08 -39.08
5.775 -263.8 -254 127 29.31 254 107.5 107.5 29.31 -312.7 166.1 -58.62 205.2 97.7 9.77 136.8 -342 19.54 205.2 68.39 0
5.78 -429.9 -410.4 136.8 0 322.4 205.2 146.6 97.7 -351.7 234.5 -166.1 166.1 78.16 39.08 205.2 -312.7 29.31 312.7 146.6 29.31
5.785 -596 -527.6 107.5 -19.54 302.9 224.7 127 127 -332.2 302.9 -371.3 127 39.08 29.31 234.5 -214.9 29.31 351.7 146.6 29.31
5.79 -703.5 -625.3 29.31 -87.93 234.5 175.9 68.39 107.5 -302.9 361.5 -488.5 68.39 0 19.54 244.3 -117.2 -19.54 302.9 107.5 29.31
5.795 -742.6 -683.9 -78.16 -185.6 117.2 68.39 -9.77 39.08 -263.8 371.3 -498.3 29.31 -29.31 9.77 224.7 -39.08 -117.2 166.1 29.31 39.08
5.8 -732.8 -762.1 -195.4 -293.1 19.54 -58.62 -58.62 -68.39 -185.6 342 -449.4 -9.77 -58.62 0 214.9 19.54 -205.2 -29.31 -19.54 97.7
5.805 -674.6 -810.9 -283.3 -381 -48.85 -185.6 -48.85 -175.9 -78.16 283.3 -371.3 -39.08 -68.39 -9.77 214.9 68.39 -254 -214.9 -39.08 185.6
5.81 -605.8 -850 -322.4 -429.9 -68.39 -283.3 0 -234.5 48.85 224.7 -312.7 -68.39 -78.16 -9.77 234.5 87.93 -244.3 -342 0 283.3
5.815 -527.6 -840.3 -312.7 -429.9 -39.08 -293.1 97.7 -195.4 195.4 205.2 -263.8 -78.16 -68.39 0 263.8 107.5 -195.4 -361.5 97.7 332.2
5.82 -498.3 -771.9 -283.3 -400.6 9.77 -224.7 205.2 -78.16 332.2 234.5 -244.3 -78.16 -48.85 39.08 293.1 127 -146.6 -273.6 224.7 293.1
5.825 -488.5 -693.7 -263.8 -351.7 58.62 -136.8 293.1 68.39 429.9 263.8 -244.3 -78.16 -29.31 78.16 322.4 117.2 -136.8 -185.6 312.7 214.9
