    T[sec] Fp2 Fp1  F3  F4  C3  C4  P3  P4  O1  O2  F7  F8  T3  T4  T5  T6
41 161.1 161.1 161.1 161.1 161.1 161.1 161.1 161.1 161.1 161.1 161.1 161.1 161.1 161.1 161.1 161.1
0 -3.067 -1.022 -9.045 0.9438 -31.07 -15.02 -55.06 -35 -67.01 -27.06 -11.01 25.96 -23.04 3.933 -51.04 3.933
0.005 2.989 1.966 0.9438 7.944 -29.02 -11.01 -55.06 -31.07 -55.06 -21 -7 28 -23.04 5.978 -49 1.966
0.01 18.96 14 7.944 21.94 -23.04 -9.045 -49 -27.06 -43.02 -17.07 -3.067 28 -17.07 9.989 -41.06 0.9438
0.015 30.99 25.96 15.97 29.97 -17.07 -7 -43.02 -25.01 -33.03 -21 0.9438 23.99 -13.06 11.96 -31.07 -11.01
0.02 35 29.97 15.97 31.93 -11.01 -9.045 -33.03 -25.01 -29.02 -27.06 0 15.97 -9.045 9.989 -23.04 -21
0.025 28.94 28 11.96 25.96 -5.034 -9.045 -23.04 -25.01 -25.01 -33.03 1.966 7.944 -7 3.933 -17.07 -29.02
0.03 14.94 17.93 3.933 14 0 -11.01 -11.01 -23.04 -17.07 -29.02 3.933 0 -1.022 0.9438 -9.045 -29.02
0.035 0.9438 3.933 0.9438 0.9438 9.989 -11.01 -2.045 -15.02 -5.034 -19.03 9.989 0.9438 1.966 -5.034 -2.045 -19.03
0.04 -7 0.9438 -5.034 -17.07 17.93 -11.01 9.989 -5.034 5.978 -5.034 14 -1.022 15.97 -7 14 -3.067
0.045 -11.01 -3.067 -3.067 -29.02 21.94 -9.045 19.98 3.933 17.93 1.966 17.93 0.9438 25.96 -3.067 28 3.933
0.05 -9.045 -3.067 0.9438 -31.07 21.94 -1.022 25.96 15.97 23.99 11.96 17.93 -2.045 28 1.966 33.98 11.96
0.055 -5.034 -3.067 0 -25.01 17.93 5.978 28 25.96 23.99 15.97 15.97 0 23.99 11.96 29.97 9.989
0.06 -1.022 -7 3.933 -11.01 11.96 19.98 25.96 33.98 19.98 15.97 11.96 3.933 15.97 19.98 17.93 1.966
0.065 7 -14 3.933 0.9438 5.978 29.97 19.98 33.98 11.96 14 11.96 5.978 5.978 22.97 7.944 0.9438
0.07 10.93 -22.02 1.966 1.966 0 28 11.96 28 5.978 7.944 11.96 7.944 1.966 18.96 1.966 -5.034
0.075 10.93 -29.02 -2.045 1.966 -1.022 17.93 1.966 15.97 -2.045 0 11.96 5.978 1.966 7.944 -2.045 -3.067
0.08 7 -28 0.9438 0.9438 0 1.966 0 4.955 -3.067 -5.034 14.94 1.966 3.933 -1.022 -1.022 -5.034
0.085 0.9438 -18.01 1.966 -3.067 -2.045 -6.056 -2.045 -2.045 -5.034 -15.02 8.966 0 3.933 -6.056 2.989 -6.056
0.09 -1.022 -7 0.9438 -5.034 -3.067 -17.07 -3.067 -9.045 -3.067 -23.04 1.966 0 3.933 -15.02 1.966 -13.06
0.095 -3.067 0.9438 0 -5.034 0 -14 -2.045 -14 -1.022 -25.01 1.966 1.966 -2.045 -19.03 2.989 -20.06
0.1 -5.034 0.9438 -2.045 -3.067 -1.022 -10.07 1.966 -13.06 0 -18.01 -1.022 7.944 0.9438 -17.07 3.933 -24.07
0.105 -5.034 -3.067 -3.067 -1.022 -2.045 -5.034 -2.045 -9.045 3.933 -7 -7 15.97 -3.067 -5.034 0 -19.03
0.11 -5.034 -11.01 -7 1.966 -1.022 -1.022 -1.022 0 3.933 0.9438 -8.022 17.93 -5.034 7 -1.022 -7
0.115 -3.067 -16.04 -9.045 -1.022 1.966 -1.022 -1.022 0.9438 3.933 9.989 -10.07 19.98 -5.034 21.94 0 3.933
0.12 -1.022 -14 -10.07 -1.022 -3.067 0 0.9438 5.978 1.966 10.93 -11.01 14 -5.034 25.96 1.966 12.98
0.125 0.9438 -12.03 -9.045 0.9438 -4.011 -5.034 -1.022 2.989 5.978 7.944 -14 11.96 -3.067 17.93 5.978 7.944
0.13 2.989 -7 -1.022 0.9438 0 -7 2.989 -1.022 15.97 2.989 -10.07 9.989 0.9438 2.989 12.98 -2.045
0.135 4.955 0.9438 5.978 -2.045 0 -9.045 5.978 -1.022 25.96 1.966 -3.067 5.978 3.933 -5.034 17.93 -7
0.14 7 -2.045 18.96 0.9438 8.966 -12.03 12.98 -5.034 33.98 2.989 1.966 3.933 9.989 -11.01 25.96 -16.04
0.145 7 0.9438 26.98 -1.022 16.99 -16.04 18.96 -12.03 33.98 1.966 7 -2.045 17.93 -13.06 22.97 -18.01
0.15 2.989 -9.045 29.97 -3.067 21.94 -25.01 21.94 -17.07 23.99 -2.045 11.96 -5.034 23.99 -19.03 21.94 -23.04
0.155 2.989 -14 26.98 -5.034 24.93 -28 24.93 -24.07 14 -7 16.99 -13.06 25.96 -22.02 18.96 -26.03
0.16 2.989 -16.04 19.98 -5.034 24.93 -29.02 26.98 -28 5.978 -13.06 21 -17.07 25.96 -28 16.99 -31.07
0.165 4.955 -9.045 14 -1.022 23.99 -19.03 28 -23.04 5.978 -9.045 23.99 -19.03 25.96 -29.02 17.93 -33.03
0.17 7 -1.022 7.944 -2.045 23.99 -3.067 29.97 -7 9.989 -2.045 23.99 -17.07 23.99 -20.06 15.97 -31.07
0.175 8.966 2.989 3.933 0 17.93 9.989 28 7.944 11.96 14 19.98 -13.06 19.98 -6.056 14 -25.01
0.18 10.93 0 1.966 1.966 5.978 25.96 19.98 23.99 7.944 23.99 9.989 -7 11.96 0 5.978 -15.02
0.185 7 -7 -2.045 0 -3.067 33.98 7.944 28 0 23.99 -2.045 -3.067 1.966 7.944 0.9438 -9.045
0.19 0.9438 -19.03 -5.034 -2.045 -15.02 33.98 -1.022 21.94 -5.034 14 -9.045 -1.022 -5.034 9.989 -13.06 -5.034
0.195 -3.067 -29.02 -11.01 -1.022 -23.04 28 -13.06 7.944 -11.01 3.933 -17.07 0.9438 -15.02 5.978 -27.06 -7
0.2 -13.06 -27.06 -19.03 -3.067 -23.04 17.93 -15.02 -3.067 -9.045 0 -19.03 0.9438 -19.03 1.966 -33.03 -11.01
0.205 -19.03 -17.07 -23.04 -5.034 -21 9.989 -11.01 -17.07 -1.022 1.966 -19.03 -1.022 -15.02 0 -31.07 -13.06
0.21 -21 -1.022 -21 -7 -15.02 1.966 0.9438 -25.01 7.944 7.944 -17.07 -1.022 -5.034 1.966 -19.03 -13.06
0.215 -21 5.978 -15.02 -5.034 -5.034 -1.022 11.96 -31.07 23.99 9.989 -13.06 0.9438 5.978 1.966 0.9438 -13.06
0.22 -19.03 11.96 -7 -1.022 3.933 -7 25.96 -37.04 35.94 3.933 -9.045 0.9438 19.98 1.966 15.97 -17.07
0.225 -15.02 9.989 -1.022 0 17.93 -15.02 35.94 -45.07 39.96 -3.067 -7 -2.045 28 -1.022 33.98 -23.04
0.23 -13.06 5.978 0.9438 0 25.96 -21 39.96 -51.04 35.94 -13.06 -3.067 0.9438 23.99 -11.01 42 -31.07
0.235 -9.045 0 -1.022 0 23.99 -27.06 33.98 -57.02 23.99 -17.07 -5.034 -3.067 9.989 -21 39.96 -35
0.24 -7 0.9438 -3.067 0.9438 9.989 -29.02 23.99 -55.06 11.96 -13.06 -9.045 -11.01 -1.022 -27.06 29.97 -33.03
0.245 -3.067 -1.022 -5.034 -1.022 -3.067 -31.07 11.96 -47.03 5.978 -3.067 -15.02 -17.07 -13.06 -25.01 17.93 -23.04
0.25 -3.067 -1.022 -5.034 -5.034 -21 -31.07 3.933 -35 5.978 1.966 -21 -23.04 -19.03 -19.03 7.944 -9.045
0.255 -5.034 -1.022 -3.067 -7 -31.07 -29.02 0.9438 -27.06 7.944 5.978 -25.01 -27.06 -17.07 -13.06 3.933 -1.022
0.26 -9.045 -3.067 -3.067 -11.01 -35 -25.01 -5.034 -23.04 7.944 3.933 -25.01 -33.03 -15.02 -11.01 1.966 0.9438
0.265 -15.02 -5.034 -5.034 -15.02 -33.03 -19.03 -9.045 -23.04 5.978 -2.045 -21 -35 -13.06 -13.06 3.933 -5.034
0.27 -19.03 -9.045 -5.034 -17.07 -27.06 -9.045 -9.045 -23.04 5.978 -1.022 -15.02 -33.03 -11.01 -15.02 5.978 -9.045
0.275 -23.04 -11.01 -5.034 -13.06 -13.06 0 -3.067 -15.02 7.944 -2.045 -9.045 -21 -5.034 -9.045 9.989 -9.045
0.28 -23.04 -7 -3.067 -3.067 0 17.93 3.933 -1.022 19.98 11.96 -5.034 -7 0.9438 -2.045 15.97 -1.022
0.285 -21 -2.045 -1.022 1.966 17.93 35.94 19.98 11.96 33.98 28 -3.067 3.933 3.933 14 23.99 5.978
0.29 -17.07 9.989 -1.022 7.944 28 49.94 35.94 25.96 42 42 -5.034 9.989 5.978 28 31.93 15.97
0.295 -13.06 17.93 -3.067 9.989 25.96 53.96 42 33.98 39.96 47.98 -11.01 9.989 1.966 33.98 33.98 23.99
0.3 -7 19.98 -7 7.944 9.989 47.98 39.96 33.98 28 47.98 -19.03 3.933 -3.067 31.93 28 28
0.305 -5.034 15.97 -9.045 7.944 -9.045 35.94 29.97 29.97 11.96 45.93 -27.06 -2.045 -17.07 28 15.97 29.97
0.31 -7 7.944 -9.045 9.989 -29.02 23.99 17.93 23.99 4.955 42 -29.02 0.9438 -25.01 19.98 2.989 28
0.315 -13.06 1.966 -9.045 11.96 -39.01 14 7.944 11.96 2.989 35.94 -28 -1.022 -29.02 11.96 -4.011 23.99
0.32 -17.07 0.9438 -7 7.944 -37.04 3.933 -2.045 -2.045 1.966 23.99 -25.01 -5.034 -25.01 0 -15.02 9.989
0.325 -17.07 -1.022 -5.034 1.966 -31.07 -5.034 -8.022 -17.07 -1.022 5.978 -18.01 -9.045 -19.03 -11.01 -16.04 -3.067
0.33 -15.02 -1.022 -3.067 -14 -21 -21 -22.02 -39.01 -8.022 -11.01 -10.07 -13.06 -15.02 -23.04 -18.01 -22.02
0.335 -15.02 0.9438 0.9438 -25.01 -11.01 -35 -33.03 -53.01 -23.04 -27.06 -1.022 -15.02 -11.01 -27.06 -19.03 -35
0.34 -11.01 3.933 3.933 -26.03 0.9438 -39.01 -34.06 -56 -29.02 -37.04 7 -11.01 -2.045 -21 -11.01 -30.04
0.345 -5.034 15.97 14.94 -14 8.966 -35 -26.03 -46.01 -23.04 -35 19.98 -7 0.9438 -7 -7 -14
0.35 0.9438 23.99 21.94 -1.022 21.94 -21 -7 -27.06 -1.022 -23.04 28 -3.067 11.96 0 0.9438 -2.045
0.355 10.93 28.94 26.98 7 30.99 -2.045 8.966 -6.056 16.99 -8.022 31.93 -1.022 17.93 7 2.989 9.989
0.36 21 22.97 19.98 14.94 28 2.989 18.96 2.989 28 1.966 24.93 1.966 14.94 4.955 1.966 5.978
0.365 16.99 11.96 10.93 9.989 16.99 5.978 18.96 7 18.96 7.944 14.94 -1.022 5.978 0 0.9438 -8.022
0.37 7 -1.022 0.9438 7 -2.045 0.9438 10.93 4.955 -2.045 5.978 7 -1.022 0 -4.011 -9.045 -33.03
0.375 -5.034 -4.011 -4.011 -1.022 -12.03 -2.045 0.9438 0.9438 -18.01 2.989 1.966 0.9438 -3.067 -10.07 -16.04 -47.03
0.38 -21 -3.067 -3.067 -2.045 -17.07 -7 0.9438 0.9438 -27.06 -2.045 0 -1.022 -1.022 -11.01 -17.07 -47.03
0.385 -17.07 1.966 -1.022 2.989 -8.022 -3.067 0.9438 -1.022 -17.07 -2.045 7.944 0.9438 2.989 -11.01 -7 -28
0.39 -7 14 1.966 10.93 1.966 -2.045 10.93 7 1.966 3.933 7 3.933 8.966 -9.045 1.966 -2.045
0.395 0.9438 19.98 3.933 15.97 9.989 7.944 15.97 9.989 9.989 11.96 5.978 11.96 7.944 -5.034 5.978 11.96
0.4 8.966 21.94 0 18.96 14 9.989 14.94 11.96 14.94 14 1.966 15.97 -2.045 0.9438 7 22.97
0.405 2.989 19.98 -2.045 16.99 7.944 11.96 4.955 5.978 7 9.989 -6.056 17.93 -7 3.933 1.966 14
0.41 -1.022 17.93 -1.022 9.989 -2.045 7.944 -3.067 0 -5.034 1.966 -13.06 11.96 -15.02 9.989 -13.06 3.933
0.415 -9.045 14 -1.022 3.933 -1.022 5.978 -11.01 -2.045 -16.04 -2.045 -14 9.989 -15.02 19.98 -18.01 0
0.42 -13.06 14 0.9438 1.966 -1.022 9.989 -9.045 3.933 -18.01 3.933 -13.06 11.96 -9.045 25.96 -20.06 7.944
0.425 -9.045 9.989 -1.022 3.933 0.9438 17.93 -5.034 11.96 -11.01 14 -11.01 15.97 -3.067 29.97 -19.03 23.99
0.43 -1.022 9.989 -3.067 3.933 0.9438 19.98 0.9438 19.98 -5.034 21.94 -9.045 15.97 -3.067 28 -17.07 35.94
0.435 2.989 5.978 -7 1.966 -3.067 14 -2.045 15.97 -3.067 21.94 -11.01 7.944 -9.045 19.98 -19.03 33.98
0.44 7 0 -9.045 0.9438 -9.045 0 -1.022 3.933 -5.034 7.944 -9.045 -2.045 -17.07 9.989 -21 21.94
0.445 7 -2.045 -5.034 -5.034 -13.06 -15.02 -5.034 -7 -11.01 -3.067 -5.034 -3.067 -19.03 1.966 -19.03 7.944
0.45 4.955 -2.045 0 -5.034 -5.034 -27.06 -3.067 -15.02 -13.06 -15.02 0 -3.067 -11.01 0 -11.01 0
0.455 -1.022 0 14 -1.022 3.933 -27.06 3.933 -11.01 -9.045 -15.02 7.944 0.9438 0.9438 1.966 -1.022 0
0.46 -3.067 -2.045 23.99 -2.045 21.94 -17.07 21.94 -2.045 0.9438 -5.034 15.97 0 11.96 3.933 3.933 5.978
0.465 -7 -1.022 23.99 -2.045 35.94 -5.034 35.94 11.96 1.966 1.966 17.93 -2.045 21.94 1.966 9.989 9.989
0.47 -5.034 -7 15.97 -3.067 39.96 -2.045 39.96 17.93 5.978 9.989 17.93 -5.034 23.99 0.9438 11.96 9.989
0.475 -1.022 -15.02 1.966 -9.045 35.94 0 33.98 17.93 7.944 9.989 14 -13.06 21.94 -1.022 7.944 7.944
0.48 7 -17.07 -7 -13.06 25.96 0 19.98 15.97 5.978 3.933 9.989 -13.06 15.97 0.9438 1.966 11.96
0.485 8.966 -17.07 -13.06 -7 11.96 1.966 5.978 14 1.966 -2.045 7.944 -7 9.989 3.933 -1.022 21.94
0.49 8.966 -15.02 -13.06 0 -1.022 7.944 -5.034 14 -5.034 -3.067 1.966 -2.045 0 11.96 -13.06 29.97
0.495 2.989 -9.045 -11.01 9.989 -17.07 15.97 -15.02 15.97 -25.01 -7 0.9438 3.933 -5.034 17.93 -27.06 33.98
0.5 0.9438 -5.034 -9.045 15.97 -31.07 19.98 -23.04 14 -45.07 -11.01 -3.067 1.966 -13.06 15.97 -37.04 28
0.505 -3.067 -2.045 -7 15.97 -39.01 15.97 -23.04 9.989 -55.06 -17.07 -5.034 0.9438 -15.02 9.989 -39.01 15.97
0.51 -3.067 1.966 -5.034 11.96 -33.03 9.989 -19.03 3.933 -53.01 -23.04 -1.022 -5.034 -9.045 5.978 -31.07 7.944
0.515 -3.067 5.978 -1.022 9.989 -19.03 3.933 -9.045 1.966 -39.01 -21 1.966 -7 -2.045 3.933 -17.07 3.933
0.52 -5.034 3.933 0 7.944 0.9438 1.966 0 1.966 -17.07 -15.02 9.989 -7 11.96 3.933 0.9438 5.978
0.525 -7 -2.045 1.966 1.966 15.97 1.966 9.989 3.933 -2.045 -7 14 -9.045 23.99 1.966 9.989 5.978
0.53 -9.045 -7 1.966 -3.067 29.97 1.966 17.93 5.978 9.989 -1.022 14 -17.07 29.97 -2.045 15.97 1.966
0.535 -11.01 -15.02 0 -17.07 35.94 0 19.98 3.933 11.96 -2.045 7.944 -27.06 28 -5.034 14 -1.022
0.54 -15.02 -19.03 -1.022 -27.06 33.98 -1.022 15.97 0 7.944 -1.022 0 -35 21.94 -13.06 8.966 -9.045
0.545 -17.07 -17.07 -5.034 -29.02 25.96 -9.045 5.978 -1.022 1.966 0 -1.022 -35 11.96 -17.07 0.9438 -17.07
0.55 -17.07 -11.01 -5.034 -23.04 14 -15.02 -1.022 -11.01 -11.01 -7 -5.034 -31.07 1.966 -17.07 -3.067 -23.04
0.555 -15.02 -2.045 -3.067 -13.06 0 -19.03 -17.07 -19.03 -20.06 -14 -3.067 -23.04 -3.067 -15.02 -4.011 -25.01
0.56 -5.034 1.966 0.9438 -5.034 -7 -23.04 -27.06 -27.06 -24.07 -22.02 0.9438 -17.07 -11.01 -15.02 -4.011 -25.01
0.565 2.989 -1.022 -2.045 -1.022 -21 -23.04 -33.03 -31.07 -23.04 -27.06 0 -15.02 -15.02 -15.02 -1.022 -21
0.57 12.98 -4.011 0.9438 -3.067 -26.03 -23.04 -28 -30.04 -20.06 -28 1.966 -12.03 -17.07 -13.06 0.9438 -13.06
0.575 16.99 -10.07 -4.011 -3.067 -34.06 -19.03 -20.06 -22.02 -19.03 -25.01 0 -12.03 -17.07 -7 -3.067 0.9438
0.58 12.98 -17.07 -11.01 -1.022 -37.04 -15.02 -17.07 -11.01 -29.02 -19.03 0.9438 -9.045 -19.03 -1.022 -11.01 5.978
0.585 2.989 -13.06 -14 -2.045 -36.02 -9.045 -14 1.966 -39.01 -9.045 -7 -4.011 -21 -2.045 -18.01 10.93
0.59 -1.022 -7 -14 0.9438 -32.01 -7 -16.04 5.978 -40.03 -1.022 -11.01 0 -23.04 0.9438 -19.03 8.966
0.595 -3.067 0 -7 1.966 -21 -3.067 -13.06 7.944 -27.06 9.989 -11.01 0.9438 -17.07 -3.067 -17.07 5.978
0.6 2.989 8.966 0 2.989 0 -1.022 -2.045 14.94 -1.022 18.96 -4.011 1.966 -9.045 -7 0 3.933
0.605 4.955 11.96 14 3.933 10.93 -2.045 11.96 18.96 19.98 26.98 -1.022 1.966 0 -7 12.98 9.989
0.61 8.966 3.933 16.99 2.989 24.93 -2.045 26.98 25.96 32.96 28 0 -1.022 0.9438 -3.067 25.96 14.94
0.615 2.989 -1.022 7.944 -2.045 26.98 -2.045 35.94 26.98 29.97 21 1.966 -4.011 0.9438 -1.022 24.93 17.93
0.62 -3.067 -12.03 -5.034 -2.045 21 -1.022 35 26.98 15.97 14.94 -4.011 -10.07 -2.045 -3.067 21 14
0.625 -15.02 -19.03 -21 -13.06 11.96 -5.034 28 21.94 9.989 11.96 -7 -13.06 -2.045 -9.045 11.96 3.933
0.63 -17.07 -23.04 -28 -16.04 7 -7 24.93 21.94 18.96 16.99 -7 -10.07 0 -15.02 14 0.9438
0.635 -17.07 -23.04 -28 -17.07 7 -5.034 22.97 18.96 31.93 19.98 -3.067 -8.022 5.978 -15.02 21 2.989
0.64 -9.045 -27.06 -21 -15.02 7.944 -1.022 19.98 15.97 42 19.98 0.9438 -5.034 5.978 -9.045 28 9.989
0.645 -5.034 -26.03 -14 -17.07 7 0 14.94 14.94 37.99 14 0.9438 -2.045 1.966 -3.067 29.97 17.93
0.65 -3.067 -26.03 -15.02 -21 1.966 1.966 2.989 8.966 14.94 -1.022 -3.067 -2.045 -3.067 -3.067 19.98 14
0.655 -3.067 -23.04 -17.07 -27.06 -15.02 -2.045 -7 0 -11.01 -13.06 -7 -11.01 -13.06 -9.045 0 0
0.66 -3.067 -16.04 -23.04 -31.07 -35 -7 -23.04 -7 -26.03 -26.03 -11.01 -17.07 -21 -19.03 -10.07 -11.01
0.665 -1.022 -14 -27.06 -33.03 -51.04 -19.03 -29.02 -17.07 -30.04 -32.01 -13.06 -23.04 -25.01 -25.01 -16.04 -25.01
0.67 -1.022 -17.07 -29.02 -35 -63 -35 -33.03 -27.06 -27.06 -35 -13.06 -29.02 -29.02 -29.02 -13.06 -29.02
0.675 -1.022 -21 -29.02 -35 -67.01 -47.03 -37.04 -35 -22.02 -32.01 -11.01 -31.07 -31.07 -29.02 -8.022 -25.01
0.68 0.9438 -23.04 -31.07 -35 -65.04 -53.01 -39.01 -39.01 -27.06 -30.04 -11.01 -31.07 -35 -25.01 -6.056 -17.07
0.685 -1.022 -23.04 -33.03 -35 -57.02 -51.04 -41.06 -39.01 -35 -29.02 -11.01 -27.06 -39.01 -19.03 -9.045 -13.06
0.69 -5.034 -23.04 -33.03 -31.07 -47.03 -41.06 -39.01 -31.07 -43.02 -25.01 -11.01 -19.03 -37.04 -13.06 -15.02 -13.06
0.695 -7 -19.03 -31.07 -25.01 -37.04 -29.02 -35 -21 -43.02 -19.03 -9.045 -9.045 -31.07 -5.034 -21 -13.06
0.7 -7 -17.07 -25.01 -17.07 -29.02 -17.07 -29.02 -7 -33.03 -7 -7 -1.022 -21 -2.045 -23.04 -5.034
0.705 -7 -15.02 -19.03 -11.01 -23.04 -9.045 -21 1.966 -19.03 0 -7 0.9438 -13.06 3.933 -19.03 1.966
0.71 -5.034 -13.06 -15.02 -7 -15.02 -5.034 -13.06 11.96 -5.034 7.944 -5.034 0.9438 -7 5.978 -13.06 14
0.715 -5.034 -11.01 -13.06 -5.034 -9.045 -5.034 -3.067 17.93 -2.045 7.944 -3.067 -3.067 -3.067 1.966 -7 15.97
0.72 -7 -9.045 -13.06 -5.034 -3.067 -5.034 1.966 14 3.933 0 -3.067 -7 -3.067 0.9438 0.9438 5.978
0.725 -11.01 -11.01 -11.01 -5.034 -2.045 -7 11.96 3.933 7.944 -7 -3.067 -13.06 -1.022 -7 1.966 -5.034
0.73 -15.02 -17.07 -9.045 -9.045 0 -9.045 15.97 -3.067 9.989 -17.07 -1.022 -21 0.9438 -15.02 9.989 -19.03
0.735 -17.07 -25.01 -7 -13.06 -2.045 -11.01 14 -11.01 11.96 -21 0.9438 -27.06 -2.045 -17.07 15.97 -23.04
0.74 -19.03 -31.07 -9.045 -19.03 -3.067 -11.01 7.944 -13.06 11.96 -17.07 -2.045 -29.02 0 -15.02 19.98 -13.06
0.745 -21 -37.04 -13.06 -23.04 -7 -9.045 0 -7 11.96 -7 0.9438 -27.06 1.966 -7 21.94 0
0.75 -21 -41.06 -19.03 -25.01 -9.045 -5.034 0.9438 0 14 1.966 -3.067 -19.03 0 1.966 17.93 17.93
0.755 -19.03 -39.01 -23.04 -21 -9.045 -3.067 0.9438 14 17.93 14 -7 -7 0.9438 14 9.989 28
0.76 -13.06 -35 -23.04 -15.02 -9.045 0.9438 -2.045 19.98 21.94 23.99 -9.045 -2.045 -3.067 23.99 -2.045 31.93
0.765 -7 -25.01 -17.07 -5.034 -9.045 -2.045 0.9438 19.98 15.97 25.96 -9.045 3.933 -7 28 -9.045 31.93
0.77 0.9438 -13.06 -9.045 -2.045 -9.045 0 -7 11.96 -2.045 17.93 -7 3.933 -13.06 23.99 -17.07 28
0.775 2.989 -3.067 -5.034 0 -11.01 1.966 -19.03 0 -21 5.978 -5.034 3.933 -19.03 15.97 -23.04 21.94
0.78 2.989 0.9438 -3.067 -2.045 -9.045 -2.045 -25.01 -3.067 -39.01 -3.067 -3.067 3.933 -21 3.933 -21 11.96
0.785 -1.022 -3.067 -1.022 -1.022 -3.067 0 -23.04 -9.045 -41.06 -9.045 -1.022 3.933 -17.07 -1.022 -13.06 3.933
0.79 0.9438 -9.045 0.9438 -5.034 1.966 -6.056 -9.045 -11.01 -25.01 -9.045 0 7.944 -7 -7 -1.022 0.9438
0.795 0.9438 -17.07 0 -5.034 14 -11.01 1.966 -7 -1.022 -5.034 3.933 9.989 0 -5.034 5.978 0.9438
0.8 0.9438 -19.03 1.966 -5.034 15.97 -8.022 14 -1.022 11.96 0.9438 4.955 7.944 9.989 -2.045 11.96 0
0.805 4.955 -17.07 -1.022 -9.045 4.955 -4.011 11.96 -1.022 9.989 -1.022 -1.022 1.966 7.944 7 9.989 5.978
0.81 0.9438 -13.06 -11.01 -15.02 -11.01 -1.022 0.9438 -2.045 -3.067 0.9438 -9.045 0.9438 -3.067 11.96 -2.045 5.978
0.815 0.9438 -11.01 -26.03 -25.01 -32.01 -1.022 -19.03 -1.022 -23.04 1.966 -24.07 -3.067 -21 10.93 -12.03 1.966
0.82 -11.01 -9.045 -40.03 -33.03 -50.02 -5.034 -33.03 1.966 -32.01 -1.022 -34.06 -5.034 -36.02 7 -26.03 0.9438
0.825 -15.02 -7 -43.02 -31.07 -53.01 -7 -37.04 -2.045 -27.06 1.966 -35 -3.067 -41.06 3.933 -29.02 3.933
0.83 -11.01 -4.011 -32.01 -25.01 -44.04 -6.056 -33.03 0.9438 -12.03 7 -23.04 -2.045 -32.01 4.955 -20.06 16.99
0.835 -1.022 0 -13.06 -13.06 -25.01 0 -23.04 7.944 1.966 9.989 -11.01 1.966 -16.04 14 -5.034 26.98
0.84 0.9438 -2.045 0 -1.022 -3.067 14 -13.06 11.96 5.978 7.944 0 5.978 -1.022 19.98 0 28
0.845 8.966 5.978 11.96 2.989 12.98 28.94 -2.045 21 5.978 11.96 11.96 7.944 5.978 28.94 7 23.99
0.85 14.94 5.978 18.96 4.955 28.94 36.97 0.9438 24.93 8.966 14.94 21 8.966 16.99 28.94 3.933 14
0.855 21 7 21 7 35.94 37.99 5.978 25.96 11.96 18.96 24.93 4.955 19.98 23.99 3.933 8.966
0.86 22.97 3.933 18.96 8.966 32.96 30.99 8.966 24.93 12.98 18.96 24.93 0.9438 16.99 14.94 1.966 5.978
0.865 21 0 15.97 7 21 14.94 4.955 14.94 11.96 14 21.94 -3.067 9.989 0.9438 7 9.989
0.87 18.96 -1.022 7.944 1.966 1.966 -2.045 -1.022 1.966 9.989 1.966 17.93 -9.045 3.933 -7 14 9.989
0.875 14.94 1.966 7.944 -2.045 -9.045 -9.045 -9.045 -3.067 7 -1.022 14 -13.06 -1.022 -15.02 21.94 7
0.88 10.93 0.9438 8.966 -1.022 -20.06 -20.06 -15.02 -12.03 4.955 -6.056 11.96 -17.07 1.966 -20.06 22.97 0
0.885 14.94 5.978 11.96 -1.022 -21 -23.04 -15.02 -19.03 3.933 -9.045 11.96 -13.06 0.9438 -19.03 19.98 -17.07
0.89 21 14 18.96 0.9438 -16.04 -23.04 -9.045 -18.01 2.989 -10.07 10.93 -13.06 -1.022 -12.03 14.94 -28
0.895 26.98 17.93 21 0 -4.011 -21 -3.067 -18.01 3.933 -10.07 10.93 -11.01 1.966 -4.011 10.93 -35
0.9 26.98 15.97 15.97 1.966 5.978 -17.07 1.966 -15.02 7.944 -9.045 9.989 -9.045 3.933 0.9438 7.944 -31.07
0.905 16.99 7.944 10.93 1.966 21 -10.07 11.96 -6.056 11.96 -6.056 10.93 -9.045 7.944 2.989 9.989 -17.07
0.91 4.955 0.9438 1.966 1.966 33.98 1.966 19.98 0 11.96 -1.022 10.93 -7 9.989 5.978 9.989 0.9438
0.915 -1.022 -9.045 -2.045 3.933 39.96 9.989 23.99 14 5.978 0 7.944 -5.034 11.96 9.989 9.989 9.989
0.92 0.9438 -9.045 -2.045 5.978 37.99 22.97 23.99 23.99 -2.045 3.933 5.978 -1.022 9.989 15.97 7.944 15.97
0.925 7 0.9438 1.966 7.944 25.96 30.99 15.97 29.97 -1.022 9.989 3.933 0.9438 3.933 19.98 3.933 11.96
0.93 18.96 14 1.966 9.989 9.989 33.98 7.944 28 0.9438 19.98 1.966 0.9438 0.9438 23.99 0 1.966
0.935 24.93 25.96 0 9.989 -1.022 29.97 -2.045 21.94 5.978 31.93 0 0.9438 -7 23.99 0 -3.067
0.94 21 28 -1.022 3.933 -13.06 23.99 -7 11.96 15.97 37.99 -2.045 0.9438 -11.01 17.93 1.966 -9.045
0.945 12.98 17.93 -5.034 0.9438 -21 14 -13.06 1.966 17.93 35.94 -2.045 0.9438 -11.01 9.989 3.933 -9.045
0.95 7 5.978 -5.034 -5.034 -25.01 3.933 -19.03 0.9438 9.989 23.99 0 -1.022 -7 1.966 5.978 -11.01
0.955 7 -2.045 -2.045 -7 -27.06 0.9438 -21 -7 0 7.944 5.978 -5.034 -1.022 0.9438 5.978 -13.06
0.96 16.99 0.9438 9.989 -3.067 -25.01 -3.067 -19.03 -11.01 0.9438 0.9438 11.96 -11.01 1.966 -5.034 9.989 -13.06
0.965 26.98 -2.045 19.98 -1.022 -17.07 -7 -9.045 -13.06 1.966 -1.022 17.93 -17.07 7.944 -7 14 -11.01
0.97 30.99 -2.045 25.96 0.9438 -5.034 -9.045 1.966 -15.02 15.97 -2.045 21.94 -19.03 14 -7 19.98 -7
0.975 28.94 -1.022 25.96 -3.067 5.978 -9.045 15.97 -13.06 31.93 5.978 21.94 -17.07 19.98 -3.067 23.99 -1.022
0.98 18.96 -7 19.98 -7 23.99 -3.067 28 -13.06 37.99 11.96 23.99 -13.06 23.99 0.9438 23.99 0.9438
0.985 7 -7 11.96 -11.01 37.99 -2.045 35.94 -11.01 35.94 14 23.99 -9.045 25.96 1.966 21.94 -3.067
0.99 -1.022 -5.034 5.978 -11.01 49.94 5.978 43.97 -7 29.97 17.93 23.99 -5.034 29.97 5.978 21.94 -9.045
0.995 -11.01 -3.067 1.966 -9.045 57.97 9.989 51.99 -3.067 28 25.96 21.94 -3.067 33.98 5.978 25.96 -11.01
1 -19.03 -5.034 0 -9.045 59.93 7.944 61.98 0.9438 29.97 33.98 17.93 -5.034 35.94 3.933 31.93 -7
1.005 -23.04 -11.01 -2.045 -11.01 56 3.933 65.99 -2.045 31.93 37.99 9.989 -7 31.93 0 39.96 -2.045
1.01 -23.04 -19.03 -2.045 -13.06 45.93 0 61.98 -2.045 29.97 35.94 1.966 -11.01 19.98 -2.045 39.96 5.978
1.015 -17.07 -17.07 -2.045 -13.06 29.97 0 49.94 0.9438 17.93 23.99 0.9438 -11.01 3.933 -2.045 31.93 7.944
1.02 -11.01 -7 0 -7 15.97 9.989 32.96 -1.022 1.966 11.96 -5.034 -5.034 -7 0 14 5.978
1.025 -5.034 3.933 0 -2.045 3.933 21.94 14 -1.022 -7 1.966 -7 0 -19.03 5.978 -1.022 -2.045
1.03 -1.022 15.97 0 11.96 0.9438 33.98 0.9438 0.9438 -13.06 -2.045 -9.045 9.989 -23.04 11.96 -17.07 0.9438
1.035 -1.022 17.93 -2.045 23.99 1.966 42 0 0 -11.01 1.966 -11.01 17.93 -23.04 17.93 -25.01 0.9438
1.04 -3.067 14 -1.022 28 -5.034 42 -3.067 1.966 -1.022 5.978 -11.01 19.98 -21 21.94 -25.01 0
1.045 -13.06 4.955 -7 25.96 -16.04 33.98 -4.011 0 1.966 11.96 -11.01 19.98 -17.07 23.99 -19.03 1.966
1.05 -25.01 1.966 -13.06 17.93 -32.01 21.94 -8.022 -1.022 5.978 11.96 -9.045 15.97 -13.06 21.94 -11.01 2.989
1.055 -35 -5.034 -15.02 7.944 -49 7.944 -15.02 -13.06 3.933 3.933 -7 9.989 -11.01 11.96 -7 0
1.06 -41.06 -4.011 -13.06 0.9438 -57.02 -9.045 -21 -27.06 -2.045 -2.045 -5.034 0 -10.07 -1.022 -5.034 0
1.065 -35 -4.011 -9.045 -7 -57.02 -25.01 -21 -43.02 -3.067 -16.04 -2.045 -9.045 -10.07 -12.03 -5.034 -10.07
1.07 -21 -3.067 -3.067 -13.06 -43.02 -37.04 -15.02 -55.06 -1.022 -29.02 0.9438 -21 -7 -29.02 0.9438 -17.07
1.075 -9.045 0.9438 0 -17.07 -24.07 -43.02 -5.034 -64.02 0 -32.01 2.989 -32.01 -1.022 -36.02 0 -26.03
1.08 -5.034 -4.011 7 -19.03 -5.034 -41.06 2.989 -62.06 14.94 -22.02 7 -34.06 7.944 -36.02 7.944 -27.06
1.085 -11.01 -7 7.944 -17.07 5.978 -31.07 17.93 -51.04 23.99 -7 7.944 -27.06 15.97 -33.03 17.93 -23.04
1.09 -19.03 -8.022 8.966 -12.03 21 -17.07 33.98 -29.02 30.99 7.944 7.944 -13.06 22.97 -20.06 21.94 -9.045
1.095 -23.04 -4.011 7.944 -3.067 31.93 1.966 43.97 -4.011 28 24.93 7.944 1.966 25.96 -7 25.96 2.989
1.1 -21 1.966 8.966 1.966 40.98 10.93 49.94 11.96 22.97 33.98 4.955 11.96 28 4.955 23.99 21
1.105 -15.02 0.9438 5.978 9.989 45.93 24.93 51.99 22.97 19.98 30.99 0 18.96 25.96 17.93 23.99 32.96
1.11 -15.02 0.9438 0.9438 14.94 44.99 33.98 49.94 28 22.97 23.99 -1.022 23.99 22.97 28.94 21.94 35.94
1.115 -19.03 0.9438 0.9438 15.97 35.94 39.96 39.96 23.99 25.96 15.97 -9.045 23.99 15.97 29.97 17.93 28
1.12 -23.04 1.966 -6.056 19.98 23.99 42 30.99 21 21 10.93 -18.01 26.98 5.978 28.94 5.978 21.94
1.125 -25.01 0 -15.02 19.98 4.955 39.96 14 12.98 1.966 4.955 -26.03 28.94 -8.022 22.97 -3.067 8.966
1.13 -19.03 5.978 -21 23.99 -11.01 31.93 -3.067 1.966 -17.07 -2.045 -35 31.93 -25.01 15.97 -23.04 0
1.135 -9.045 16.99 -21 25.96 -27.06 25.96 -23.04 -5.034 -37.04 -4.011 -32.01 29.97 -34.06 14.94 -35 -1.022
1.14 -1.022 18.96 -13.06 28 -33.03 14 -35 -17.07 -41.06 -12.03 -25.01 28 -34.06 12.98 -37.04 0.9438
1.145 0.9438 15.97 -3.067 25.96 -35 5.978 -41.06 -23.04 -35 -19.03 -15.02 23.99 -27.06 7.944 -33.03 1.966
1.15 2.989 8.966 5.978 23.99 -30.04 0.9438 -36.02 -25.01 -21 -19.03 -3.067 17.93 -15.02 -2.045 -23.04 0.9438
1.155 7 4.955 17.93 19.98 -20.06 -7 -28 -25.01 -17.07 -21 0 9.989 -7 -11.01 -21 -3.067
1.16 10.93 5.978 25.96 15.97 -13.06 -15.02 -25.01 -23.04 -19.03 -21 5.978 3.933 -3.067 -21 -23.04 -11.01
1.165 14.94 15.97 31.93 15.97 -6.056 -19.03 -18.01 -21 -21 -19.03 7.944 1.966 -3.067 -21 -27.06 -15.02
1.17 14.94 25.96 33.98 15.97 -2.045 -19.03 -14 -17.07 -13.06 -13.06 7.944 3.933 -1.022 -11.01 -25.01 -7
1.175 10.93 25.96 31.93 19.98 -1.022 -13.06 -5.034 -9.045 0 -3.067 5.978 9.989 -2.045 0 -17.07 3.933
1.18 4.955 17.93 28 19.98 -2.045 -9.045 2.989 -3.067 19.98 0 3.933 15.97 3.933 9.989 -1.022 19.98
1.185 0.9438 3.933 21.94 15.97 0 -5.034 9.989 -1.022 31.93 1.966 1.966 17.93 7.944 11.96 5.978 23.99
1.19 -5.034 -1.022 15.97 5.978 3.933 -5.034 14 -3.067 28 -1.022 -2.045 15.97 9.989 3.933 14 15.97
1.195 -9.045 -5.034 14 -2.045 7.944 -5.034 11.96 -7 11.96 -13.06 -2.045 9.989 11.96 -1.022 14 1.966
1.2 -13.06 -1.022 14 -3.067 14 -5.034 14 -9.045 -2.045 -21 -2.045 5.978 14 -5.034 9.989 -1.022
1.205 -17.07 1.966 15.97 -3.067 21.94 0.9438 19.98 -3.067 0.9438 -15.02 0 3.933 17.93 -3.067 5.978 -2.045
1.21 -17.07 7.944 17.93 -2.045 28 5.978 29.97 3.933 3.933 0.9438 1.966 5.978 17.93 -2.045 3.933 7.944
1.215 -15.02 7.944 17.93 3.933 28 15.97 37.99 17.93 15.97 11.96 1.966 9.989 15.97 1.966 1.966 19.98
1.22 -11.01 5.978 14 7.944 21.94 21.94 39.96 25.96 19.98 19.98 0 9.989 11.96 1.966 0 23.99
1.225 -3.067 3.933 9.989 7.944 14 21.94 31.93 23.99 14 11.96 0 7.944 7.944 0.9438 -2.045 17.93
1.23 0.9438 1.966 7.944 3.933 5.978 15.97 19.98 14 -2.045 -1.022 3.933 3.933 9.989 -5.034 -3.067 7.944
1.235 7 5.978 7.944 3.933 3.933 9.989 7.944 1.966 -7 -19.03 9.989 3.933 11.96 -7 -7 0
1.24 10.93 9.989 11.96 7.944 5.978 3.933 -2.045 -3.067 -11.01 -29.02 14 5.978 11.96 -5.034 -13.06 0.9438
1.245 8.966 19.98 15.97 15.97 5.978 1.966 -3.067 -9.045 -7 -31.07 15.97 9.989 7.944 -1.022 -17.07 0.9438
1.25 7 28 17.93 25.96 1.966 0 -5.034 -9.045 0.9438 -27.06 11.96 11.96 1.966 -2.045 -17.07 -2.045
1.255 4.955 35.94 19.98 31.93 -1.022 0 -5.034 -7 1.966 -19.03 7.944 11.96 0.9438 0.9438 -11.01 0
1.26 8.966 39.96 21.94 31.93 -9.045 -2.045 -1.022 -3.067 9.989 -13.06 3.933 7.944 0.9438 -3.067 -1.022 1.966
1.265 14.94 35.94 21.94 23.99 -9.045 0.9438 0.9438 0 14 -5.034 1.966 3.933 1.966 -5.034 5.978 5.978
1.27 18.96 28 19.98 14 -5.034 -1.022 0 5.978 14 0 1.966 -2.045 7.944 -3.067 17.93 7.944
1.275 16.99 14 15.97 3.933 -1.022 -3.067 -2.045 9.989 9.989 5.978 1.966 -1.022 9.989 -1.022 21 9.989
1.28 8.966 3.933 5.978 0.9438 -2.045 -9.045 0.9438 7.944 0 7.944 0 -5.034 3.933 -2.045 16.99 7.944
1.285 -1.022 0.9438 0.9438 -7 -2.045 -15.02 -5.034 5.978 -7 3.933 -2.045 -7 0.9438 1.966 5.978 5.978
1.29 -3.067 0 -5.034 -13.06 -2.045 -19.03 -7 3.933 -11.01 -2.045 -2.045 -7 -1.022 3.933 -1.022 3.933
1.295 -3.067 0 -9.045 -21 1.966 -21 -3.067 3.933 -4.011 -2.045 -2.045 -9.045 1.966 1.966 0 3.933
1.3 -7 -1.022 -11.01 -29.02 7.944 -21 -2.045 5.978 3.933 0 0 -15.02 14 0.9438 -2.045 1.966
1.305 -9.045 -2.045 -12.03 -33.03 14 -21 5.978 7.944 21 7 0 -23.04 21.94 -9.045 4.955 -2.045
1.31 -17.07 -6.056 -14 -33.03 14 -21 7.944 1.966 30.99 4.955 0.9438 -29.02 19.98 -19.03 15.97 -5.034
1.315 -23.04 -5.034 -15.02 -29.02 5.978 -19.03 7.944 0.9438 29.97 -2.045 -3.067 -33.03 11.96 -25.01 15.97 -11.01
1.32 -21 -1.022 -14 -21 1.966 -22.02 1.966 -8.022 18.96 -10.07 -5.034 -29.02 0 -27.06 16.99 -16.04
1.325 -15.02 0 -10.07 -13.06 -6.056 -24.07 0 -12.03 11.96 -22.02 -5.034 -21 -1.022 -23.04 18.96 -14
1.33 -7 0.9438 -5.034 -9.045 -11.01 -25.01 -2.045 -9.045 3.933 -23.04 -3.067 -9.045 0.9438 -11.01 17.93 -5.034
1.335 0.9438 -2.045 0 -4.011 -5.034 -15.02 1.966 1.966 7 -12.03 -1.022 1.966 2.989 -1.022 22.97 1.966
1.34 2.989 -10.07 1.966 -3.067 0.9438 -3.067 8.966 8.966 14.94 0 -2.045 2.989 4.955 8.966 28.94 8.966
1.345 0.9438 -22.02 -2.045 -3.067 -2.045 1.966 12.98 18.96 15.97 16.99 -2.045 2.989 7 12.98 23.99 15.97
1.35 0.9438 -28 -1.022 0.9438 1.966 11.96 8.966 24.93 14.94 21.94 -2.045 2.989 2.989 12.98 16.99 10.93
1.355 0.9438 -28 1.966 1.966 1.966 14 0.9438 24.93 4.955 16.99 0.9438 2.989 1.966 7 2.989 4.955
1.36 0.9438 -21 -1.022 -2.045 0.9438 5.978 -13.06 17.93 -7 1.966 -3.067 1.966 -3.067 -2.045 -9.045 0.9438
1.365 2.989 -10.07 1.966 1.966 -4.011 1.966 -29.02 8.966 -19.03 -8.022 -5.034 3.933 -9.045 -1.022 -16.04 -2.045
1.37 4.955 0 0.9438 5.978 -10.07 -6.056 -37.04 -1.022 -26.03 -18.01 -1.022 7.944 -15.02 -5.034 -16.04 -2.045
1.375 10.93 7.944 7.944 14 -15.02 -9.045 -39.01 -1.022 -23.04 -21 1.966 14 -13.06 0.9438 -13.06 -1.022
1.38 21 14.94 18.96 21.94 -15.02 -3.067 -31.07 0.9438 -10.07 -14 11.96 23.99 -13.06 1.966 0.9438 0.9438
1.385 30.99 14.94 24.93 28 -9.045 1.966 -21 5.978 -1.022 -4.011 19.98 28 -5.034 11.96 7 1.966
1.39 30.99 11.96 21.94 25.96 0.9438 11.96 -9.045 17.93 5.978 1.966 17.93 25.96 -1.022 15.97 14 7.944
1.395 24.93 8.966 14 17.93 3.933 17.93 -5.034 25.96 4.955 7.944 9.989 17.93 0.9438 11.96 16.99 9.989
1.4 14.94 2.989 1.966 3.933 7.944 17.93 -5.034 25.96 -1.022 9.989 -2.045 3.933 0.9438 1.966 14.94 14
1.405 4.955 0 0.9438 -3.067 5.978 14 -7 19.98 -7 7.944 -3.067 0.9438 -2.045 -7 7.944 14
1.41 0.9438 1.966 -1.022 -9.045 5.978 5.978 -3.067 11.96 -5.034 7.944 -3.067 -3.067 1.966 -17.07 4.955 11.96
1.415 7 5.978 0 -7 7.944 0 1.966 9.989 5.978 9.989 0.9438 -1.022 9.989 -17.07 7 5.978
1.42 12.98 9.989 3.933 -1.022 9.989 -3.067 14 9.989 25.96 11.96 1.966 -2.045 15.97 -13.06 11.96 0
1.425 12.98 7.944 3.933 -2.045 7.944 -9.045 17.93 9.989 37.99 9.989 1.966 1.966 15.97 -7 15.97 -1.022
1.43 8.966 5.978 0.9438 -2.045 -2.045 -15.02 9.989 5.978 33.98 5.978 -3.067 3.933 1.966 -3.067 14 -1.022
1.435 -1.022 1.966 -11.01 0.9438 -17.07 -19.03 -3.067 -2.045 15.97 0 -15.02 1.966 -13.06 -3.067 5.978 0.9438
1.44 -7 1.966 -23.04 0.9438 -41.06 -23.04 -25.01 -5.034 0.9438 -1.022 -27.06 0 -33.03 -5.034 -3.067 1.966
1.445 -13.06 3.933 -31.07 -2.045 -61.03 -21 -39.01 -9.045 -15.02 -3.067 -31.07 0 -47.03 -3.067 -15.02 3.933
1.45 -15.02 7.944 -35 0 -71.02 -15.02 -43.02 -3.067 -21 -1.022 -29.02 0 -49 -2.045 -21 3.933
1.455 -13.06 5.978 -33.03 0 -67.01 -7 -35 0 -19.03 -1.022 -23.04 0 -41.06 3.933 -21 0
1.46 -9.045 0 -29.02 -1.022 -51.04 -2.045 -21 5.978 -11.01 -1.022 -15.02 -2.045 -25.01 5.978 -19.03 0.9438
1.465 -5.034 -3.067 -19.03 -7 -27.06 3.933 -5.034 9.989 -1.022 0.9438 -7 -1.022 -7 0 -15.02 -1.022
1.47 -1.022 -5.034 -9.045 -9.045 -3.067 5.978 3.933 9.989 5.978 0 -2.045 -5.034 3.933 -3.067 -9.045 0.9438
1.475 -1.022 -1.022 0 -3.067 14 3.933 15.97 9.989 14 7.944 9.989 -7 19.98 -11.01 0.9438 1.966
1.48 4.955 5.978 9.989 1.966 28 0 21.94 9.989 21.94 11.96 17.93 -7 29.97 -11.01 5.978 5.978
1.485 7 17.93 15.97 9.989 33.98 -1.022 23.99 11.96 21.94 7.944 21.94 -5.034 29.97 -7 11.96 3.933
1.49 8.966 21.94 15.97 11.96 31.93 -3.067 17.93 9.989 14 -2.045 17.93 -3.067 23.99 0.9438 11.96 0.9438
1.495 8.966 17.93 9.989 5.978 21.94 -3.067 7.944 3.933 1.966 -13.06 7.944 -1.022 11.96 0 5.978 -9.045
1.5 10.93 7.944 3.933 -2.045 9.989 -1.022 -3.067 0 -7 -23.04 0 -1.022 1.966 0 0.9438 -17.07
1.505 14.94 3.933 3.933 -1.022 1.966 -2.045 -17.07 -2.045 -17.07 -23.04 0.9438 -1.022 -1.022 0 -11.01 -17.07
1.51 21 5.978 11.96 -2.045 0.9438 3.933 -25.01 1.966 -21 -13.06 0.9438 -2.045 -1.022 1.966 -21 -7
1.515 26.98 15.97 21.94 9.989 -2.045 9.989 -27.06 7.944 -21 0.9438 0 0 0.9438 5.978 -29.02 1.966
1.52 30.99 30.99 29.97 25.96 1.966 17.93 -21 14 -19.03 3.933 3.933 1.966 0 9.989 -33.03 11.96
1.525 30.99 38.93 29.97 35.94 9.989 21.94 -13.06 15.97 -15.02 3.933 1.966 3.933 1.966 10.93 -31.07 18.96
1.53 24.93 37.99 21.94 35.94 15.97 23.99 -5.034 14 -9.045 0.9438 -2.045 3.933 3.933 7.944 -25.01 14
1.535 16.99 32.96 9.989 29.97 19.98 22.97 -2.045 9.989 -5.034 -6.056 0.9438 2.989 7.944 7 -13.06 4.955
1.54 8.966 24.93 0 15.97 19.98 14.94 3.933 5.978 -1.022 -10.07 0.9438 0.9438 11.96 7 -1.022 -2.045
1.545 2.989 17.93 -1.022 3.933 17.93 3.933 9.989 3.933 0 -7 1.966 -2.045 14 7.944 5.978 -11.01
1.55 2.989 14 -1.022 -1.022 14 1.966 17.93 8.966 8.966 1.966 7.944 0 16.99 10.93 11.96 -12.03
1.555 4.955 9.989 -1.022 -5.034 11.96 -6.056 25.96 12.98 18.96 8.966 9.989 -4.011 14.94 14.94 14.94 -8.022
1.56 7 7.944 0.9438 -3.067 9.989 -9.045 29.97 17.93 29.97 15.97 3.933 -5.034 11.96 9.989 14 0.9438
1.565 8.966 7 -1.022 -1.022 7.944 -8.022 29.97 21 38.93 17.93 -2.045 -1.022 8.966 1.966 12.98 5.978
1.57 7 11.96 -3.067 -2.045 3.933 -5.034 21.94 21 36.97 14.94 -3.067 -1.022 2.989 -1.022 8.966 14.94
1.575 7 17.93 -7 0 -2.045 -1.022 11.96 15.97 28 11.96 -7 3.933 -2.045 -2.045 3.933 17.93
1.58 10.93 26.98 -7 0 -2.045 3.933 0 14.94 12.98 12.98 -8.022 12.98 -7 11.96 -1.022 19.98
1.585 12.98 28 -4.011 -2.045 -5.034 11.96 -4.011 21 1.966 18.96 -8.022 14.94 -12.03 28 -11.01 19.98
1.59 14.94 25.96 -2.045 0.9438 -3.067 19.98 -8.022 28 -10.07 28.94 -9.045 16.99 -13.06 39.96 -22.02 17.93
1.595 12.98 15.97 1.966 -2.045 0.9438 25.96 -10.07 35 -13.06 32.96 -10.07 16.99 -16.04 43.97 -27.06 15.97
1.6 8.966 12.98 0 3.933 -1.022 29.97 -11.01 35 -18.01 30.99 -10.07 18.96 -15.02 37.99 -29.02 14
1.605 7 14 3.933 11.96 1.966 28 -11.01 28 -19.03 19.98 -5.034 19.98 -13.06 25.96 -25.01 14
1.61 7 19.98 1.966 15.97 5.978 28 -17.07 16.99 -20.06 7 -3.067 18.96 -12.03 16.99 -20.06 14.94
1.615 7 22.97 0 14 5.978 18.96 -19.03 4.955 -24.07 -5.034 0.9438 17.93 -10.07 9.989 -18.01 11.96
1.62 4.955 17.93 -1.022 3.933 5.978 9.989 -23.04 -3.067 -29.02 -19.03 -1.022 9.989 -9.045 5.978 -17.07 11.96
1.625 2.989 7.944 -11.01 -5.034 0 1.966 -23.04 -6.056 -24.07 -26.03 -5.034 4.955 -6.056 4.955 -12.03 4.955
1.63 0.9438 0 -21 -17.07 -1.022 -8.022 -21 -8.022 -16.04 -28 -9.045 0.9438 -2.045 4.955 -11.01 0
1.635 -5.034 -3.067 -27.06 -21 -7 -15.02 -17.07 -7 -11.01 -25.01 -11.01 3.933 -1.022 1.966 -5.034 -11.01
1.64 -3.067 0 -25.01 -13.06 -11.01 -14 -11.01 -3.067 -5.034 -20.06 -11.01 12.98 -1.022 4.955 -3.067 -14
1.645 0.9438 0.9438 -17.07 -1.022 -11.01 -9.045 -9.045 -1.022 -5.034 -12.03 -7 21 -3.067 7 -1.022 -16.04
1.65 0.9438 5.978 -7 5.978 -9.045 -1.022 -11.01 -1.022 -7 -5.034 -5.034 28 -5.034 7.944 -3.067 -9.045
1.655 10.93 8.966 -2.045 14 -7 3.933 -15.02 -2.045 -7 -1.022 -5.034 29.97 -9.045 12.98 -9.045 1.966
1.66 21 12.98 5.978 17.93 -5.034 9.989 -19.03 3.933 -11.01 -2.045 -3.067 28 -11.01 14 -17.07 5.978
1.665 26.98 15.97 11.96 19.98 -5.034 15.97 -23.04 11.96 -13.06 0 0.9438 23.99 -9.045 15.97 -23.04 15.97
1.67 28.94 21.94 17.93 21.94 -3.067 19.98 -23.04 19.98 -17.07 0 3.933 17.93 -3.067 14 -23.04 17.93
1.675 26.98 23.99 23.99 21.94 -2.045 19.98 -19.03 21.94 -15.02 0.9438 14 11.96 1.966 11.96 -19.03 11.96
1.68 21 17.93 25.96 17.93 7.944 19.98 -11.01 21.94 -7 0.9438 19.98 7.944 11.96 7.944 -5.034 3.933
1.685 14.94 7.944 23.99 9.989 19.98 17.93 0 19.98 0 0 21.94 3.933 19.98 3.933 5.978 0
1.69 10.93 -1.022 17.93 0 29.97 17.93 17.93 19.98 15.97 9.989 17.93 1.966 23.99 1.966 21.94 1.966
1.695 10.93 -7 11.96 -3.067 39.96 17.93 33.98 23.99 28 19.98 11.96 1.966 25.96 3.933 31.93 7.944
1.7 12.98 -7 7.944 -7 43.97 19.98 42 28 33.98 21.94 7.944 3.933 25.96 5.978 31.93 11.96
1.705 16.99 -2.045 3.933 -9.045 42 17.93 42 28 29.97 14 7.944 1.966 23.99 3.933 25.96 5.978
1.71 16.99 5.978 0 -11.01 33.98 11.96 29.97 19.98 23.99 0.9438 7.944 0 21.94 -2.045 17.93 -3.067
1.715 10.93 9.989 0.9438 -17.07 21.94 0 15.97 5.978 17.93 -19.03 5.978 0.9438 15.97 -7 11.96 -19.03
1.72 4.955 9.989 -3.067 -21 7.944 -5.034 1.966 -3.067 11.96 -33.03 3.933 -3.067 7.944 -15.02 7.944 -27.06
1.725 0.9438 3.933 -5.034 -19.03 -2.045 -9.045 -1.022 -11.01 7.944 -31.07 1.966 -1.022 1.966 -17.07 7.944 -23.04
1.73 2.989 0 -1.022 -9.045 0.9438 -3.067 -5.034 -7 1.966 -19.03 1.966 0 0 -11.01 3.933 -7
1.735 10.93 -2.045 1.966 0 3.933 5.978 -7 0.9438 -1.022 -5.034 7.944 7.944 7.944 -2.045 0.9438 3.933
1.74 22.97 1.966 11.96 15.97 15.97 21.94 -7 5.978 -7 1.966 14 15.97 17.93 14 -5.034 14
1.745 30.99 5.978 17.93 23.99 25.96 31.93 -5.034 11.96 -7 3.933 17.93 19.98 25.96 21.94 -5.034 14
1.75 28.94 11.96 15.97 21.94 29.97 29.97 -3.067 11.96 -1.022 3.933 15.97 15.97 25.96 21.94 -1.022 5.978
1.755 16.99 11.96 5.978 9.989 23.99 17.93 0.9438 5.978 5.978 3.933 3.933 7.944 17.93 14 0 0
1.76 -1.022 7.944 -5.034 -1.022 11.96 1.966 -2.045 -2.045 14 7.944 -5.034 0 3.933 1.966 5.978 -2.045
1.765 -17.07 0 -21 -19.03 -2.045 -7 -2.045 -2.045 15.97 15.97 -17.07 -1.022 -5.034 -3.067 5.978 0
1.77 -29.02 -9.045 -29.02 -33.03 -9.045 -15.02 -1.022 -4.011 7.944 21.94 -23.04 -5.034 -11.01 -5.034 0 1.966
1.775 -31.07 -19.03 -29.02 -39.01 -11.01 -17.07 -7 -5.034 0.9438 25.96 -23.04 -7 -13.06 -5.034 -5.034 1.966
1.78 -21 -25.01 -21 -39.01 -11.01 -17.07 -11.01 -6.056 -11.01 23.99 -17.07 -7 -9.045 -1.022 -14 0.9438
1.785 -7 -25.01 -9.045 -33.03 -7 -15.02 -10.07 -6.056 -21 17.93 -11.01 -11.01 -3.067 0.9438 -20.06 -5.034
1.79 0.9438 -17.07 0.9438 -27.06 -3.067 -11.01 -9.045 -9.045 -19.03 11.96 -1.022 -15.02 -1.022 -1.022 -21 -11.01
1.795 7 -5.034 3.933 -17.07 -3.067 -3.067 0 -4.011 -13.06 7 0 -15.02 0.9438 -3.067 -14 -13.06
1.8 10.93 3.933 8.966 -8.022 0.9438 3.933 2.989 -3.067 -3.067 1.966 5.978 -13.06 0.9438 -3.067 -2.045 -15.02
1.805 7 15.97 9.989 -2.045 0 17.93 9.989 -7 -2.045 -11.01 5.978 -5.034 -2.045 -1.022 1.966 -17.07
1.81 4.955 25.96 12.98 10.93 5.978 28 14.94 -6.056 1.966 -20.06 5.978 0.9438 -1.022 0.9438 17.93 -20.06
1.815 7 32.96 14.94 18.96 15.97 31.93 21.94 -10.07 7.944 -26.03 1.966 4.955 2.989 1.966 21.94 -26.03
1.82 8.966 29.97 11.96 19.98 21.94 28 19.98 -19.03 11.96 -27.06 1.966 1.966 5.978 -1.022 19.98 -29.02
1.825 8.966 24.93 9.989 14 24.93 21 18.96 -26.03 17.93 -20.06 0.9438 1.966 7.944 -2.045 10.93 -26.03
1.83 4.955 11.96 1.966 3.933 21.94 10.93 8.966 -32.01 18.96 -10.07 0 -9.045 3.933 -7 1.966 -22.02
1.835 0.9438 4.955 0 0 7.944 1.966 0.9438 -39.01 10.93 -6.056 -3.067 -17.07 1.966 -4.011 -15.02 -20.06
1.84 -5.034 1.966 -3.067 -7 0.9438 -2.045 -14 -44.04 0 -4.011 -3.067 -13.06 -7 -3.067 -25.01 -18.01
1.845 -9.045 7 -3.067 -5.034 -12.03 -8.022 -26.03 -48.06 -15.02 -6.056 -2.045 -5.034 -13.06 -1.022 -24.07 -22.02
1.85 -9.045 15.97 -1.022 -1.022 -21 -13.06 -33.03 -49 -19.03 -11.01 -1.022 -1.022 -13.06 1.966 -17.07 -27.06
1.855 -3.067 24.93 -1.022 1.966 -23.04 -13.06 -27.06 -48.06 -13.06 -12.03 1.966 0.9438 -6.056 2.989 -5.034 -30.04
1.86 -3.067 28 0 0 -19.03 -11.01 -18.01 -40.03 -1.022 -8.022 5.978 2.989 1.966 3.933 1.966 -28
1.865 -9.045 23.99 -9.045 -5.034 -15.02 -3.067 -9.045 -31.07 7.944 -1.022 1.966 0 -2.045 5.978 3.933 -23.04
1.87 -15.02 14 -14 -12.03 -11.01 -2.045 1.966 -17.07 11.96 4.955 -1.022 -2.045 0.9438 5.978 7 -13.06
1.875 -31.07 1.966 -23.04 -19.03 -11.01 0 4.955 -10.07 14 12.98 -11.01 -1.022 -1.022 3.933 7 -5.034
1.88 -39.01 0.9438 -23.04 -21 -9.045 -2.045 9.989 -9.045 15.97 15.97 -17.07 -7 -3.067 3.933 5.978 -1.022
1.885 -43.02 0.9438 -21 -17.07 -9.045 0.9438 14.94 -4.011 19.98 17.93 -17.07 -9.045 -3.067 1.966 7 -2.045
1.89 -41.06 3.933 -17.07 -9.045 -5.034 -1.022 17.93 -4.011 28 17.93 -17.07 -7 -2.045 0 2.989 0
1.895 -41.06 14 -13.06 -1.022 -1.022 -2.045 19.98 -1.022 31.93 21.94 -15.02 -3.067 0 0 0.9438 5.978
1.9 -41.06 21.94 -13.06 0 -2.045 5.978 17.93 0.9438 31.93 25.96 -17.07 -2.045 -2.045 1.966 -9.045 11.96
1.905 -41.06 23.99 -15.02 1.966 0 17.93 14 4.955 25.96 31.93 -17.07 1.966 -1.022 5.978 -15.02 15.97
1.91 -37.04 23.99 -15.02 0 0 28 11.96 7.944 23.99 35.94 -15.02 5.978 -3.067 9.989 -13.06 14
1.915 -25.01 23.99 -11.01 1.966 0 31.93 14 9.989 28 29.97 -5.034 7.944 -1.022 9.989 -1.022 5.978
1.92 -5.034 25.96 -1.022 5.978 1.966 29.97 19.98 5.978 31.93 14 1.966 9.989 1.966 5.978 7.944 -3.067
1.925 10.93 33.98 7.944 14 3.933 19.98 25.96 0.9438 31.93 -3.067 15.97 7.944 11.96 -2.045 15.97 -17.07
1.93 21 39.96 21.94 17.93 7.944 5.978 25.96 -17.07 17.93 -23.04 28 1.966 19.98 -9.045 14 -29.02
1.935 21 42 29.97 17.93 9.989 -5.034 17.93 -37.04 0.9438 -29.02 31.93 -5.034 25.96 -23.04 5.978 -35
1.94 12.98 35.94 33.98 11.96 11.96 -21 5.978 -53.01 -17.07 -21 33.98 -17.07 25.96 -35 0 -41.06
1.945 2.989 23.99 33.98 1.966 14 -31.07 -2.045 -63 -21 -3.067 31.93 -27.06 25.96 -43.02 0 -43.02
1.95 -1.022 7.944 28 -1.022 15.97 -35 -1.022 -61.03 -11.01 11.96 29.97 -29.02 25.96 -41.06 3.933 -43.02
1.955 -5.034 -1.022 21.94 -7 19.98 -31.07 -2.045 -53.01 -1.022 19.98 21.94 -23.04 21.94 -35 5.978 -41.06
1.96 -13.06 -11.01 11.96 -7 19.98 -21 -2.045 -41.06 0.9438 15.97 11.96 -15.02 11.96 -25.01 0 -33.03
1.965 -21 -13.06 0 -5.034 14 -9.045 -3.067 -31.07 -11.01 5.978 0.9438 -7 0.9438 -15.02 -9.045 -21
1.97 -29.02 -11.01 -5.034 -3.067 1.966 -2.045 -17.07 -23.04 -27.06 -2.045 -13.06 -1.022 -17.07 -11.01 -25.01 -11.01
1.975 -29.02 -1.022 -9.045 -2.045 -5.034 9.989 -27.06 -17.07 -35 0 -19.03 0 -31.07 -7 -33.03 0.9438
1.98 -21 1.966 -7 3.933 -15.02 19.98 -31.07 -9.045 -31.07 11.96 -17.07 7.944 -35 -1.022 -27.06 3.933
1.985 -7 9.989 -2.045 9.989 -19.03 25.96 -23.04 -1.022 -19.03 25.96 -7 14 -27.06 1.966 -11.01 9.989
1.99 0.9438 9.989 5.978 14 -15.02 28 -11.01 1.966 -7 31.93 -2.045 17.93 -13.06 9.989 1.966 11.96
1.995 -1.022 3.933 9.989 14 -11.01 19.98 0.9438 1.966 -3.067 29.97 3.933 14 -1.022 14 15.97 11.96
2 -13.06 -1.022 5.978 11.96 -7 5.978 0 0 -3.067 25.96 1.966 5.978 1.966 7.944 23.99 7.944
2.005 -29.02 -7 0.9438 9.989 -5.034 -5.034 1.966 -2.045 0.9438 28 -1.022 -2.045 3.933 -2.045 31.93 3.933
2.01 -37.04 -11.01 -9.045 9.989 -3.067 -15.02 3.933 -2.045 7.944 35.94 -7 1.966 1.966 -7 39.96 3.933
2.015 -35 -9.045 -15.02 7.944 -1.022 -19.03 9.989 0 26.98 42 -10.07 0.9438 3.933 -9.045 45.93 7.944
2.02 -25.01 -7 -21 5.978 -3.067 -15.02 17.93 3.933 35.94 42 -9.045 7.944 7.944 -5.034 43.97 15.97
2.025 -17.07 -4.011 -23.04 0 -2.045 -10.07 15.97 5.978 32.96 29.97 -8.022 12.98 9.989 0.9438 33.98 23.99
2.03 -15.02 -4.011 -26.03 -3.067 -12.03 -6.056 5.978 5.978 14.94 15.97 -10.07 10.93 9.989 -2.045 15.97 23.99
2.035 -19.03 -3.067 -29.02 -7 -19.03 -5.034 -3.067 5.978 -3.067 5.978 -13.06 0 7.944 -1.022 0.9438 15.97
2.04 -21 1.966 -26.03 -7 -22.02 -4.011 -16.04 3.933 -16.04 5.978 -12.03 -5.034 1.966 -11.01 -10.07 1.966
2.045 -15.02 4.955 -20.06 0 -20.06 -4.011 -22.02 5.978 -13.06 11.96 -6.056 -13.06 -2.045 -17.07 -14 -5.034
2.05 -5.034 11.96 -11.01 -2.045 -11.01 -1.022 -15.02 7.944 -5.034 17.93 0.9438 -15.02 -2.045 -19.03 -9.045 -9.045
2.055 2.989 19.98 1.966 2.989 0.9438 1.966 -2.045 5.978 1.966 17.93 5.978 -12.03 3.933 -18.01 1.966 -5.034
2.06 8.966 17.93 5.978 1.966 1.966 0 -1.022 0 4.955 11.96 12.98 -11.01 14.94 -16.04 2.989 0
2.065 4.955 11.96 0 -5.034 -5.034 0.9438 -2.045 -1.022 0.9438 0 5.978 -15.02 15.97 -21 3.933 7.944
2.07 0.9438 5.978 -7 -15.02 -22.02 -8.022 -7 -6.056 -13.06 -1.022 0.9438 -17.07 10.93 -23.04 2.989 12.98
2.075 -9.045 1.966 -25.01 -18.01 -42 -15.02 -20.06 -6.056 -26.03 0 -15.02 -19.03 -1.022 -24.07 0 14.94
2.08 -13.06 -7 -41.06 -17.07 -54.03 -15.02 -29.02 0 -30.04 -1.022 -25.01 -18.01 -18.01 -15.02 1.966 14.94
2.085 -13.06 -6.056 -45.07 -14 -54.03 -11.01 -28 0.9438 -24.07 4.955 -23.04 -9.045 -31.07 -2.045 0 16.99
2.09 -5.034 -1.022 -39.01 -5.034 -46.01 -6.056 -19.03 7 -11.01 11.96 -13.06 0.9438 -24.07 5.978 4.955 21
2.095 4.955 1.966 -23.04 0 -27.06 -1.022 -7 11.96 0.9438 17.93 0.9438 1.966 -11.01 5.978 11.96 21.94
2.1 16.99 14 -1.022 10.93 -6.056 0.9438 2.989 11.96 7 23.99 7 9.989 0.9438 2.989 18.96 17.93
2.105 22.97 28 7 21 3.933 0.9438 8.966 14 9.989 29.97 9.989 8.966 11.96 0 21 11.96
2.11 18.96 28 7.944 23.99 11.96 -1.022 9.989 17.93 15.97 33.98 9.989 7.944 15.97 -5.034 17.93 3.933
2.115 10.93 21 8.966 26.98 16.99 1.966 10.93 21.94 21.94 35.94 4.955 7.944 15.97 -3.067 14.94 3.933
2.12 0.9438 8.966 7 21.94 18.96 0.9438 14.94 29.97 21 35.94 2.989 5.978 15.97 0 14.94 11.96
2.125 -7 -2.045 9.989 14 19.98 5.978 17.93 35.94 17.93 33.98 5.978 0 23.99 11.96 17.93 28
2.13 -7 0 18.96 9.989 26.98 10.93 23.99 37.99 16.99 28 14.94 1.966 31.93 17.93 23.99 35.94
2.135 0.9438 0.9438 28.94 7.944 32.96 12.98 28 33.98 14.94 19.98 22.97 -4.011 39.96 15.97 31.93 31.93
2.14 7 9.989 37.99 9.989 42 11.96 33.98 28 19.98 9.989 31.93 -5.034 45.93 9.989 33.98 19.98
2.145 14.94 15.97 39.96 15.97 43.97 14 39.96 21.94 24.93 1.966 38.93 -2.045 45.93 0 35.94 3.933
2.15 16.99 11.96 37.99 19.98 47.98 15.97 42 19.98 25.96 0.9438 39.96 1.966 42 -5.034 31.93 0.9438
2.155 14.94 1.966 33.98 19.98 43.97 19.98 39.96 17.93 15.97 -5.034 35.94 0.9438 33.98 -11.01 25.96 -2.045
2.16 8.966 -7 28 15.97 37.99 19.98 29.97 15.97 -2.045 -11.01 28 0.9438 28 -11.01 15.97 3.933
2.165 2.989 -15.02 19.98 9.989 29.97 17.93 14 9.989 -15.02 -17.07 19.98 -5.034 19.98 -9.045 7.944 5.978
2.17 -1.022 -17.07 14 1.966 19.98 11.96 0 3.933 -25.01 -21 14 -7 11.96 -7 1.966 0
2.175 0.9438 -13.06 7.944 -1.022 11.96 5.978 -1.022 0 -15.02 -19.03 11.96 -9.045 9.989 -1.022 0 -1.022
2.18 2.989 -7 1.966 -3.067 5.978 1.966 0.9438 3.933 -2.045 -11.01 7.944 -3.067 7.944 0 1.966 -5.034
2.185 7 -5.034 -2.045 -5.034 3.933 0 5.978 15.97 15.97 -2.045 1.966 0 5.978 7.944 1.966 0.9438
2.19 7 -7 -5.034 -7 0 1.966 11.96 28 17.93 11.96 -1.022 7.944 1.966 15.97 1.966 5.978
2.195 2.989 -13.06 -13.06 -9.045 0.9438 3.933 7.944 35.94 3.933 17.93 -13.06 9.989 -1.022 15.97 -2.045 9.989
2.2 -1.022 -19.03 -23.04 -9.045 -5.034 3.933 0 31.93 -9.045 19.98 -19.03 9.989 -7 11.96 -1.022 9.989
2.205 -9.045 -25.01 -27.06 -7 -7 3.933 -3.067 23.99 -19.03 17.93 -15.02 7.944 -7 5.978 0.9438 5.978
2.21 -13.06 -23.04 -23.04 -3.067 -1.022 3.933 -1.022 17.93 -11.01 15.97 -5.034 3.933 0.9438 1.966 5.978 7.944
2.215 -9.045 -17.07 -13.06 0 5.978 3.933 5.978 15.97 3.933 11.96 3.933 0 9.989 0 19.98 15.97
2.22 -1.022 -9.045 0.9438 7.944 19.98 7.944 17.93 19.98 21.94 5.978 14 -2.045 21.94 1.966 29.97 23.99
2.225 2.989 -1.022 3.933 9.989 28 7.944 23.99 19.98 25.96 -3.067 15.97 -3.067 25.96 1.966 31.93 23.99
2.23 8.966 -2.045 7.944 9.989 23.99 5.978 17.93 11.96 9.989 -19.03 9.989 -7 19.98 -2.045 23.99 11.96
2.235 12.98 1.966 5.978 7.944 11.96 -2.045 1.966 -2.045 -7 -29.02 3.933 -11.01 9.989 -3.067 9.989 -3.067
2.24 14.94 5.978 3.933 5.978 -2.045 -7 -9.045 -13.06 -23.04 -31.07 3.933 -7 0 -5.034 -2.045 -17.07
2.245 16.99 9.989 3.933 7.944 -5.034 -13.06 -19.03 -21 -25.01 -23.04 5.978 -3.067 0 -3.067 0.9438 -17.07
2.25 16.99 15.97 7.944 9.989 -3.067 -11.01 -17.07 -17.07 -15.02 -9.045 9.989 -2.045 1.966 0.9438 0 -5.034
2.255 16.99 17.93 14 11.96 0 -5.034 -11.01 -5.034 -5.034 -2.045 9.989 -2.045 3.933 -2.045 7.944 5.978
2.26 16.99 15.97 17.93 11.96 9.989 -2.045 -5.034 3.933 -1.022 3.933 7.944 -3.067 1.966 -2.045 11.96 14
2.265 12.98 14 17.93 5.978 15.97 0 -1.022 14 -3.067 1.966 5.978 -13.06 0 0.9438 9.989 11.96
2.27 10.93 7.944 14 0.9438 17.93 -2.045 -1.022 17.93 -9.045 -1.022 3.933 -21 -2.045 -3.067 1.966 0
2.275 8.966 4.955 5.978 -13.06 15.97 -5.034 -1.022 14 -15.02 -13.06 3.933 -27.06 -2.045 -7 -3.067 -7
2.28 4.955 0.9438 -2.045 -25.01 7.944 -17.07 -1.022 5.978 -17.07 -23.04 1.966 -27.06 -2.045 -11.01 -5.034 -15.02
2.285 2.989 -2.045 -7 -33.03 -2.045 -27.06 -3.067 -2.045 -16.04 -29.02 -2.045 -23.04 -2.045 -13.06 -7 -17.07
2.29 2.989 -4.011 -17.07 -31.07 -11.01 -27.06 -11.01 -4.011 -16.04 -25.01 -3.067 -14 -3.067 -11.01 -7 -13.06
2.295 0.9438 -3.067 -23.04 -19.03 -23.04 -19.03 -21 -7 -21 -17.07 -9.045 -3.067 -11.01 -3.067 -11.01 -5.034
2.3 2.989 -1.022 -20.06 -1.022 -29.02 -1.022 -27.06 1.966 -20.06 -5.034 -6.056 4.955 -14 3.933 -15.02 1.966
2.305 4.955 7.944 -16.04 7.944 -28 14 -27.06 7 -20.06 1.966 -2.045 14.94 -14 14 -19.03 0.9438
2.31 7 7.944 -9.045 15.97 -19.03 28 -19.03 15.97 -17.07 5.978 0.9438 17.93 -9.045 19.98 -19.03 0
2.315 8.966 7.944 -2.045 14 -6.056 32.96 -8.022 21.94 -12.03 4.955 1.966 15.97 0 16.99 -12.03 1.966
2.32 8.966 2.989 0 5.978 3.933 29.97 0 21.94 -7 1.966 1.966 11.96 0.9438 8.966 -2.045 -1.022
2.325 10.93 0.9438 0.9438 -2.045 16.99 19.98 7.944 21 -2.045 -5.034 0.9438 10.93 4.955 7.944 1.966 0.9438
2.33 10.93 2.989 4.955 0.9438 21.94 17.93 17.93 19.98 1.966 -6.056 0 11.96 4.955 7 0.9438 10.93
2.335 7 5.978 8.966 0 26.98 14.94 18.96 21.94 2.989 -2.045 -1.022 15.97 4.955 14.94 1.966 18.96
2.34 4.955 5.978 11.96 3.933 28 14 21.94 23.99 5.978 1.966 -5.034 21.94 1.966 19.98 -7 23.99
2.345 -1.022 3.933 12.98 5.978 28.94 15.97 21.94 28.94 10.93 7.944 -6.056 24.93 0.9438 23.99 -11.01 26.98
2.35 0.9438 -1.022 12.98 5.978 25.96 15.97 23.99 32.96 14.94 14 -10.07 24.93 0.9438 23.99 -5.034 24.93
2.355 4.955 0.9438 9.989 7.944 23.99 15.97 23.99 31.93 19.98 19.98 -13.06 21.94 -2.045 25.96 0 25.96
2.36 10.93 0.9438 9.989 7.944 19.98 17.93 17.93 35 26.98 17.93 -13.06 22.97 -2.045 28 7.944 29.97
2.365 18.96 2.989 7.944 9.989 7.944 21.94 11.96 37.99 24.93 15.97 -9.045 17.93 0.9438 28 9.989 28
2.37 18.96 0.9438 1.966 3.933 -1.022 19.98 0 33.98 14 9.989 -5.034 3.933 -3.067 17.93 5.978 19.98
2.375 10.93 -12.03 -3.067 -7 -17.07 9.989 -5.034 21.94 -2.045 1.966 -1.022 -13.06 -7 0 -2.045 3.933
2.38 -1.022 -35 -15.02 -27.06 -29.02 -5.034 -13.06 3.933 -9.045 -1.022 1.966 -37.04 -5.034 -21 -3.067 -11.01
2.385 -17.07 -53.01 -25.01 -43.02 -33.03 -29.02 -11.01 -9.045 -13.06 -7 11.96 -55.06 -2.045 -41.06 0.9438 -25.01
2.39 -21 -55.06 -25.01 -49 -23.04 -43.02 0.9438 -17.07 -5.034 -9.045 19.98 -57.02 7.944 -53.01 5.978 -31.07
2.395 -15.02 -43.02 -17.07 -41.06 -5.034 -45.07 7.944 -17.07 3.933 -7 23.99 -45.07 14 -47.03 15.97 -27.06
2.4 0.9438 -23.04 -9.045 -25.01 5.978 -33.03 15.97 -9.045 14 -5.034 19.98 -23.04 14 -29.02 19.98 -13.06
2.405 10.93 -5.034 -3.067 -7 14 -13.06 14 -1.022 11.96 -5.034 5.978 -1.022 3.933 -9.045 11.96 -1.022
2.41 14.94 -2.045 -5.034 1.966 9.989 1.966 0 0 0 -7 -9.045 11.96 -7 1.966 -1.022 5.978
2.415 10.93 0 -11.01 7.944 0.9438 11.96 -15.02 1.966 -15.02 -9.045 -27.06 23.99 -25.01 9.989 -25.01 11.96
2.42 2.989 1.966 -17.07 11.96 -13.06 14 -35 3.933 -33.03 -11.01 -39.01 29.97 -41.06 14 -43.02 15.97
2.425 -1.022 5.978 -15.02 15.97 -25.01 9.989 -45.07 3.933 -41.06 -11.01 -41.06 31.93 -51.04 15.97 -53.01 21.94
2.43 4.955 15.97 -5.034 21.94 -27.06 5.978 -45.07 5.978 -37.04 -7 -35 31.93 -53.01 17.93 -53.01 28
2.435 16.99 21.94 1.966 25.96 -23.04 5.978 -35 7.944 -25.01 -2.045 -25.01 29.97 -45.07 19.98 -45.07 33.98
2.44 26.98 21.94 9.989 25.96 -13.06 9.989 -19.03 9.989 -11.01 5.978 -17.07 25.96 -33.03 21.94 -31.07 35.94
2.445 28.94 14 7.944 21.94 -3.067 9.989 -3.067 9.989 -3.067 11.96 -13.06 23.99 -19.03 21.94 -19.03 31.93
2.45 21 3.933 1.966 14 0 5.978 3.933 7.944 -1.022 14 -15.02 19.98 -7 17.93 -9.045 23.99
2.455 8.966 0.9438 -1.022 7.944 1.966 1.966 9.989 7.944 -5.034 11.96 -17.07 17.93 -1.022 11.96 -1.022 14
2.46 0.9438 -2.045 -5.034 7.944 5.978 0.9438 11.96 7.944 -7 7.944 -17.07 15.97 -2.045 7.944 -2.045 7.944
2.465 0.9438 3.933 -3.067 9.989 5.978 0.9438 7.944 9.989 -5.034 3.933 -15.02 14 -2.045 3.933 -2.045 7.944
2.47 -1.022 9.989 -1.022 11.96 3.933 -2.045 1.966 11.96 -3.067 1.966 -13.06 11.96 0.9438 1.966 0.9438 11.96
2.475 0.9438 11.96 -3.067 7.944 0.9438 -2.045 -3.067 9.989 -3.067 0 -13.06 9.989 -5.034 1.966 -7 15.97
2.48 2.989 5.978 -9.045 -2.045 -17.07 -3.067 -17.07 3.933 -7 -2.045 -15.02 5.978 -15.02 0 -15.02 14
2.485 0.9438 0.9438 -17.07 -11.01 -35 -13.06 -33.03 0.9438 -15.02 -1.022 -15.02 0 -23.04 -1.022 -21 5.978
2.49 -1.022 -9.045 -23.04 -23.04 -49 -25.01 -43.02 -7 -23.04 -7 -11.01 -3.067 -27.06 -7 -22.02 0.9438
2.495 0.9438 -13.06 -25.01 -29.02 -49 -33.03 -45.07 -13.06 -27.06 -13.06 -1.022 -9.045 -25.01 -15.02 -21 -7
2.5 -1.022 -15.02 -23.04 -27.06 -37.04 -29.02 -39.01 -15.02 -25.01 -17.07 1.966 -15.02 -15.02 -21 -12.03 -11.01
2.505 -5.034 -13.06 -19.03 -19.03 -19.03 -21 -27.06 -11.01 -19.03 -19.03 3.933 -17.07 -7 -23.04 -2.045 -11.01
2.51 -11.01 -15.02 -17.07 -13.06 -5.034 -9.045 -17.07 -3.067 -13.06 -17.07 -2.045 -17.07 -1.022 -23.04 -2.045 -7
2.515 -17.07 -17.07 -17.07 -9.045 -2.045 -3.067 -9.045 0 -2.045 -15.02 -7 -15.02 -2.045 -21 4.955 -3.067
2.52 -15.02 -17.07 -13.06 -3.067 1.966 -1.022 -5.034 5.978 4.955 -9.045 -14 -11.01 -4.011 -17.07 10.93 -2.045
2.525 -7 -11.01 -5.034 1.966 3.933 0.9438 -1.022 9.989 11.96 -1.022 -17.07 -3.067 -7 -9.045 15.97 5.978
2.53 4.955 -1.022 1.966 17.93 7 1.966 -2.045 14 21 1.966 -10.07 4.955 -2.045 -2.045 21.94 12.98
2.535 21 12.98 14 38.93 12.98 11.96 5.978 15.97 24.93 5.978 -2.045 22.97 2.989 14 19.98 18.96
2.54 26.98 21.94 19.98 49.94 15.97 19.98 11.96 17.93 19.98 3.933 0.9438 33.98 7.944 29.97 17.93 17.93
2.545 21 18.96 15.97 49 10.93 23.99 10.93 15.97 14 0 -1.022 40.98 9.989 35.94 14 14.94
2.55 8.966 7 3.933 32.96 2.989 23.99 4.955 11.96 4.955 -3.067 0.9438 36.97 4.955 28 8.966 8.966
2.555 -3.067 -5.034 -5.034 7.944 -1.022 15.97 0.9438 3.933 0 -7 -3.067 25.96 -2.045 11.96 7.944 3.933
2.56 -5.034 -14 -15.02 -7 1.966 4.955 -2.045 1.966 4.955 -5.034 1.966 10.93 2.989 1.966 14 4.955
2.565 2.989 -14 -12.03 -14 5.978 -2.045 -1.022 -1.022 14.94 0 5.978 1.966 12.98 -6.056 21.94 7.944
2.57 7 -8.022 -2.045 -13.06 21 -8.022 8.966 0.9438 28.94 -1.022 14 1.966 26.98 -6.056 29.97 7
2.575 18.96 -2.045 4.955 -8.022 37.99 -8.022 21 1.966 32.96 -1.022 17.93 -1.022 36.97 0 37.99 3.933
2.58 21 -2.045 9.989 -3.067 40.98 -2.045 24.93 4.955 30.99 -1.022 17.93 0 38.93 1.966 42 -2.045
2.585 10.93 -11.01 7.944 0.9438 37.99 0.9438 17.93 5.978 19.98 -5.034 9.989 -1.022 31.93 -2.045 39.96 -13.06
2.59 0.9438 -18.01 3.933 0 28.94 3.933 14.94 5.978 10.93 0.9438 9.989 1.966 22.97 -2.045 40.98 -18.01
2.595 -3.067 -22.02 0.9438 0 18.96 7.944 12.98 9.989 11.96 11.96 8.966 2.989 19.98 1.966 37.99 -18.01
2.6 -7 -17.07 -3.067 -1.022 9.989 14 19.98 17.93 21.94 31.93 9.989 9.989 15.97 11.96 35.94 -11.01
2.605 0.9438 -4.011 -3.067 -1.022 10.93 17.93 33.98 25.96 42.94 45.93 12.98 18.96 16.99 21.94 31.93 1.966
2.61 0.9438 0.9438 -3.067 1.966 12.98 21.94 47.98 31.93 54.98 45.93 7 18.96 14.94 29.97 25.96 8.966
2.615 4.955 5.978 -1.022 5.978 11.96 17.93 51.99 28 53.96 29.97 -1.022 9.989 5.978 28 15.97 11.96
2.62 7 1.966 0.9438 5.978 9.989 9.989 42 11.96 38.93 5.978 -8.022 -2.045 1.966 14 2.989 5.978
2.625 7 -2.045 0 5.978 1.966 0.9438 23.99 -7 18.96 -11.01 -11.01 -9.045 -6.056 0.9438 -4.011 -7
2.63 4.955 -5.034 3.933 1.966 -1.022 -15.02 3.933 -35 0 -19.03 -7 -15.02 -9.045 -15.02 -11.01 -27.06
2.635 2.989 -15.02 5.978 -1.022 -5.034 -31.07 -5.034 -53.01 -1.022 -17.07 1.966 -17.07 -7 -25.01 -10.07 -41.06
2.64 0.9438 -25.01 9.989 -11.01 -1.022 -37.04 -9.045 -61.03 0.9438 -9.045 15.97 -15.02 0.9438 -29.02 -4.011 -47.03
2.645 -3.067 -31.07 9.989 -21 0 -37.04 -7 -57.02 0 -3.067 29.97 -15.02 3.933 -27.06 0 -43.02
2.65 -7 -33.03 9.989 -29.02 3.933 -29.02 -5.034 -47.03 0 -3.067 37.99 -17.07 7.944 -23.04 7 -35
2.655 -3.067 -27.06 9.989 -29.02 5.978 -19.03 -3.067 -37.04 -1.022 -7 42 -19.03 11.96 -19.03 7.944 -29.02
2.66 0.9438 -15.02 11.96 -23.04 5.978 -7 -1.022 -31.07 -5.034 -9.045 43.97 -17.07 14 -17.07 5.978 -25.01
2.665 12.98 -1.022 15.97 -13.06 5.978 -2.045 -2.045 -23.04 -7 -7 43.97 -13.06 19.98 -17.07 3.933 -23.04
2.67 21 0 19.98 -3.067 9.989 5.978 3.933 -17.07 -1.022 -1.022 43.97 -11.01 23.99 -15.02 5.978 -17.07
2.675 21 -2.045 21.94 -2.045 14 9.989 11.96 -11.01 1.966 -2.045 39.96 -11.01 28 -15.02 7.944 -11.01
2.68 12.98 -5.034 21.94 1.966 14 7.944 14 -11.01 7.944 -2.045 33.98 -13.06 23.99 -15.02 9.989 -7
2.685 -1.022 -13.06 17.93 0 5.978 3.933 9.989 -19.03 3.933 -3.067 21.94 -15.02 14 -19.03 7.944 -9.045
2.69 -9.045 -13.06 9.989 0 -3.067 0.9438 0 -33.03 0.9438 -13.06 9.989 -13.06 1.966 -25.01 1.966 -15.02
2.695 -13.06 -7 3.933 0 -17.07 -7 -7 -47.03 -7 -23.04 -2.045 -5.034 -5.034 -29.02 0.9438 -25.01
2.7 -13.06 -1.022 0.9438 -2.045 -23.04 -11.01 -17.07 -53.01 -11.01 -29.02 -7 0 -13.06 -29.02 -5.034 -31.07
2.705 -15.02 0.9438 -5.034 0.9438 -21 -9.045 -21 -49 -9.045 -27.06 -15.02 7.944 -17.07 -19.03 -3.067 -27.06
2.71 -25.01 -7 -9.045 -5.034 -15.02 -3.067 -17.07 -35 -5.034 -17.07 -21 14 -15.02 -5.034 0 -15.02
2.715 -37.04 -17.07 -13.06 -15.02 -9.045 0 -11.01 -21 -1.022 -5.034 -25.01 11.96 -13.06 3.933 7.944 -1.022
2.72 -49 -25.01 -15.02 -21 -3.067 5.978 -5.034 -13.06 -3.067 1.966 -25.01 7.944 -7 11.96 14 0
2.725 -53.01 -25.01 -15.02 -23.04 -1.022 3.933 0.9438 -13.06 -7 11.96 -23.04 1.966 -1.022 9.989 15.97 -2.045
2.73 -45.07 -21 -15.02 -19.03 -3.067 0 -2.045 -17.07 -9.045 19.98 -19.03 0.9438 0.9438 1.966 15.97 -5.034
2.735 -35 -17.07 -13.06 -13.06 -7 -5.034 -2.045 -23.04 -7 23.99 -15.02 -3.067 -1.022 -5.034 14 -13.06
2.74 -31.07 -17.07 -15.02 -9.045 -17.07 -15.02 -1.022 -25.01 -1.022 28 -15.02 -7 -9.045 -13.06 7.944 -15.02
2.745 -39.01 -23.04 -19.03 -13.06 -29.02 -25.01 -7 -23.04 -2.045 25.96 -17.07 -11.01 -17.07 -17.07 0 -11.01
2.75 -51.04 -29.02 -23.04 -19.03 -41.06 -33.03 -13.06 -23.04 0 19.98 -19.03 -13.06 -23.04 -19.03 -5.034 -7
2.755 -59.07 -29.02 -21 -23.04 -45.07 -37.04 -19.03 -25.01 -2.045 5.978 -19.03 -13.06 -23.04 -19.03 -13.06 -5.034
2.76 -49 -23.04 -11.01 -17.07 -36.02 -35 -19.03 -27.06 0.9438 -5.034 -11.01 -7 -17.07 -17.07 -17.07 -9.045
2.765 -25.01 -9.045 0 -3.067 -18.01 -25.01 -14 -29.02 -1.022 -21 0.9438 -2.045 -6.056 -13.06 -15.02 -15.02
2.77 -1.022 1.966 17.93 11.96 0.9438 -9.045 -9.045 -25.01 0.9438 -31.07 3.933 7.944 -1.022 -5.034 -13.06 -19.03
2.775 14.94 15.97 25.96 28 10.93 1.966 -4.011 -19.03 -1.022 -31.07 3.933 17.93 -2.045 -2.045 -10.07 -19.03
2.78 18.96 21.94 24.93 39.96 14.94 15.97 0 -13.06 -10.07 -27.06 0.9438 21 -8.022 5.978 -14 -11.01
2.785 7 23.99 7.944 43.97 3.933 23.99 -1.022 -11.01 -23.04 -25.01 -11.01 19.98 -15.02 5.978 -21 -7
2.79 -5.034 19.98 -2.045 40.98 -1.022 24.93 -4.011 -15.02 -28 -25.01 -17.07 18.96 -14 3.933 -20.06 -4.011
2.795 -19.03 15.97 -14 32.96 -9.045 21 -5.034 -21 -26.03 -23.04 -17.07 16.99 -11.01 3.933 -16.04 -4.011
2.8 -23.04 9.989 -15.02 23.99 -13.06 15.97 -5.034 -19.03 -19.03 -15.02 -11.01 17.93 -7 3.933 -9.045 -3.067
2.805 -15.02 2.989 -7 17.93 -9.045 14 0.9438 -12.03 -3.067 -3.067 -2.045 17.93 -1.022 7.944 1.966 -1.022
2.81 -9.045 0 1.966 11.96 -5.034 10.93 0 -1.022 -2.045 4.955 0 17.93 -4.011 7.944 -1.022 2.989
2.815 -3.067 -4.011 12.98 5.978 -5.034 7.944 1.966 0 1.966 7 0 12.98 -4.011 1.966 0 1.966
2.82 -3.067 -2.045 15.97 7.944 -13.06 1.966 -1.022 0.9438 -7 0 0 5.978 -8.022 -1.022 -6.056 -2.045
2.825 -1.022 0 14 7.944 -21 -10.07 -9.045 -12.03 -13.06 -23.04 1.966 0 -9.045 -13.06 -14 -14
2.83 -1.022 0.9438 7.944 5.978 -25.01 -19.03 -15.02 -23.04 -13.06 -39.01 -1.022 0.9438 -11.01 -19.03 -19.03 -23.04
2.835 -1.022 -2.045 4.955 10.93 -23.04 -24.07 -13.06 -25.01 -2.045 -41.06 0.9438 -1.022 -11.01 -19.03 -18.01 -18.01
2.84 2.989 -2.045 -1.022 12.98 -15.02 -14 -12.03 -17.07 2.989 -31.07 0.9438 7 -12.03 -13.06 -18.01 -6.056
2.845 2.989 -1.022 0.9438 11.96 -7 -1.022 -9.045 -3.067 9.989 -15.02 -3.067 11.96 -13.06 -5.034 -19.03 1.966
2.85 2.989 -11.01 -2.045 9.989 0.9438 9.989 -2.045 5.978 10.93 -1.022 -5.034 14.94 -12.03 -1.022 -16.04 9.989
2.855 -3.067 -21 -3.067 0 7 17.93 1.966 14 3.933 0.9438 -7 9.989 -8.022 -3.067 -12.03 11.96
2.86 -7 -29.02 -1.022 -5.034 7.944 15.97 3.933 11.96 3.933 -1.022 -7 1.966 -3.067 -9.045 -9.045 7.944
2.865 -7 -33.03 0.9438 -15.02 8.966 7.944 12.98 7.944 3.933 -5.034 -5.034 -5.034 1.966 -13.06 -5.034 1.966
2.87 -3.067 -31.07 -2.045 -21 8.966 0 21 1.966 9.989 -5.034 -1.022 -13.06 0 -15.02 -1.022 0
2.875 -3.067 -27.06 -2.045 -19.03 9.989 -1.022 25.96 1.966 15.97 0.9438 0.9438 -19.03 1.966 -15.02 0 0
2.88 0.9438 -23.04 -1.022 -17.07 7.944 -1.022 25.96 0 15.97 0 -1.022 -19.03 3.933 -17.07 1.966 0
2.885 -1.022 -23.04 -9.045 -13.06 0 -1.022 19.98 0.9438 9.989 0 -3.067 -19.03 3.933 -23.04 1.966 0.9438
2.89 0.9438 -25.01 -21 -11.01 -3.067 -3.067 9.989 -7 3.933 0.9438 -5.034 -17.07 1.966 -33.03 0 -5.034
2.895 0.9438 -25.01 -25.01 -7 -9.045 -7 1.966 -15.02 0 -9.045 -7 -13.06 -2.045 -39.01 -2.045 -13.06
2.9 0.9438 -17.07 -21 0.9438 -9.045 -13.06 -2.045 -23.04 0 -19.03 -3.067 -5.034 0.9438 -37.04 0.9438 -19.03
2.905 0.9438 0.9438 -5.034 9.989 0.9438 -11.01 0.9438 -21 1.966 -29.02 0 0 0.9438 -25.01 -1.022 -21
2.91 10.93 14 9.989 23.99 5.978 -3.067 0.9438 -15.02 -2.045 -33.03 9.989 9.989 -2.045 -9.045 -1.022 -17.07
2.915 22.97 29.97 29.97 33.98 11.96 3.933 -1.022 -7 -5.034 -37.04 17.93 17.93 1.966 1.966 -5.034 -11.01
2.92 32.96 37.99 39.96 35.94 9.989 14 -7 -3.067 -19.03 -37.04 23.99 19.98 5.978 9.989 -9.045 -3.067
2.925 35 35.94 39.96 29.97 1.966 15.97 -11.01 -3.067 -29.02 -37.04 21.94 15.97 7.944 7.944 -15.02 -2.045
2.93 28.94 29.97 35.94 17.93 -1.022 9.989 -13.06 -7 -33.03 -35 15.97 3.933 7.944 0 -19.03 0
2.935 22.97 21.94 28 3.933 -3.067 0.9438 -9.045 -11.01 -27.06 -33.03 9.989 -5.034 7.944 -7 -19.03 0
2.94 18.96 14 23.99 -1.022 0.9438 -11.01 -1.022 -17.07 -17.07 -33.03 9.989 -17.07 11.96 -19.03 -13.06 0.9438
2.945 18.96 5.978 21.94 -11.01 3.933 -23.04 0 -21 -7 -33.03 11.96 -25.01 15.97 -29.02 -9.045 -7
2.95 21 0 17.93 -15.02 9.989 -31.07 0 -23.04 -3.067 -31.07 14 -25.01 14 -33.03 -5.034 -15.02
2.955 18.96 0.9438 11.96 -17.07 7.944 -35 0.9438 -21 -3.067 -25.01 11.96 -15.02 5.978 -31.07 -5.034 -19.03
2.96 10.93 0.9438 0 -15.02 -2.045 -37.04 -5.034 -11.01 -5.034 -15.02 0 0.9438 -7 -21 -5.034 -15.02
2.965 -1.022 1.966 -9.045 -9.045 -11.01 -31.07 -9.045 0 -3.067 -1.022 -9.045 11.96 -25.01 -5.034 -9.045 -1.022
2.97 -7 7.944 -21 0.9438 -23.04 -17.07 -11.01 21.94 0.9438 7.944 -23.04 23.99 -39.01 5.978 -13.06 11.96
2.975 -9.045 14 -31.07 5.978 -31.07 -2.045 -13.06 43.97 0 19.98 -29.02 29.97 -45.07 19.98 -19.03 28
2.98 -5.034 17.93 -33.03 11.96 -39.01 17.93 -13.06 57.97 0 25.96 -29.02 28 -43.02 25.96 -23.04 33.98
2.985 0.9438 19.98 -33.03 14 -41.06 29.97 -17.07 59.93 0.9438 25.96 -25.01 21.94 -35 21.94 -25.01 28
2.99 2.989 18.96 -27.06 9.989 -39.01 33.98 -19.03 51.99 -7 17.93 -17.07 11.96 -25.01 14 -20.06 14
2.995 4.955 18.96 -21 5.978 -27.06 29.97 -15.02 38.93 -11.01 7.944 -9.045 1.966 -11.01 5.978 -10.07 0
3 2.989 15.97 -11.01 3.933 -7 21.94 -7 21.94 -9.045 -2.045 -1.022 -2.045 1.966 0 0 -1.022
3.005 4.955 14.94 -2.045 5.978 11.96 14 1.966 8.966 -1.022 -3.067 7.944 -2.045 23.99 0 16.99 -1.022
3.01 12.98 18.96 11.96 11.96 35.94 7.944 17.93 -1.022 1.966 -5.034 17.93 3.933 42 1.966 22.97 -2.045
3.015 24.93 28 23.99 19.98 51.99 1.966 29.97 -5.034 7.944 -7 28 11.96 53.96 0.9438 21.94 1.966
3.02 40.98 44.99 29.97 25.96 53.96 -5.034 29.97 -14 7.944 -10.07 28 15.97 53.96 -4.011 15.97 0.9438
3.025 52.93 63.94 33.98 25.96 42 -21 19.98 -22.02 1.966 -18.01 23.99 15.97 42 -16.04 5.978 -3.067
3.03 63 73.93 29.97 19.98 17.93 -37.04 0 -29.02 -1.022 -27.06 15.97 14 23.99 -23.04 -3.067 -9.045
3.035 68.98 78.97 23.99 9.989 -3.067 -51.04 -16.04 -35 -10.07 -32.01 10.93 10.93 5.978 -22.02 -12.03 -13.06
3.04 72.99 77 17.93 0.9438 -25.01 -53.01 -34.06 -32.01 -16.04 -28 7 10.93 -3.067 -15.02 -19.03 -8.022
3.045 68.98 71.97 11.96 0.9438 -37.04 -45.07 -41.06 -21 -17.07 -17.07 3.933 11.96 -11.01 -3.067 -27.06 -3.067
3.05 63 70.94 8.966 1.966 -31.07 -26.03 -37.04 1.966 -11.01 -1.022 3.933 17.93 -8.022 10.93 -30.04 0.9438
3.055 52.93 74.96 2.989 0 -23.04 -1.022 -31.07 19.98 -5.034 15.97 1.966 21 -6.056 25.96 -30.04 7.944
3.06 44.99 75.98 0 2.989 -13.06 9.989 -29.02 39.96 -6.056 22.97 -1.022 23.99 -7 33.98 -23.04 16.99
3.065 32.96 78.97 -6.056 3.933 -7 23.99 -27.06 53.96 -5.034 25.96 -7 24.93 -12.03 35.94 -16.04 25.96
3.07 30.99 74.96 -10.07 7 -7 28.94 -29.02 61.98 -3.067 24.93 -11.01 29.97 -18.01 35 -8.022 38.93
3.075 36.97 67.96 -7 9.989 -7 29.97 -29.02 63.94 -1.022 28 -9.045 33.98 -21 29.97 -5.034 47.98
3.08 52.93 66.93 0.9438 21 -1.022 33.98 -20.06 68.98 0.9438 32.96 0 40.98 -17.07 31.93 -1.022 52.93
3.085 68.98 70.94 7.944 35.94 1.966 37.99 -10.07 65.99 7 35 8.966 44.99 -9.045 30.99 0 45.93
3.09 80.93 79.99 17.93 45.93 11.96 37.99 -1.022 56 7.944 25.96 17.93 39.96 -2.045 25.96 0.9438 28
3.095 84.94 93.99 23.99 47.98 15.97 35.94 0 40.98 3.933 8.966 25.96 33.98 5.978 21 0 3.933
3.1 77 101 23.99 42 15.97 23.99 -2.045 16.99 -2.045 -8.022 28 25.96 9.989 8.966 7.944 -11.01
3.105 60.96 101.9 19.98 28 14 5.978 0.9438 -3.067 -1.022 -25.01 28 15.97 9.989 0.9438 9.989 -25.01
3.11 49 92.97 15.97 11.96 11.96 -9.045 -1.022 -18.01 -5.034 -35 23.99 7.944 9.989 -9.045 12.98 -29.02
3.115 38.93 77 14 1.966 9.989 -25.01 -5.034 -32.01 -11.01 -39.01 19.98 -2.045 7.944 -15.02 7 -29.02
3.12 32.96 56 11.96 0.9438 3.933 -37.04 -17.07 -45.07 -23.04 -43.02 15.97 -3.067 3.933 -21 0.9438 -29.02
3.125 30.99 40.98 11.96 -1.022 -3.067 -45.07 -33.03 -50.02 -37.04 -47.03 7.944 -7 0.9438 -23.04 -14 -25.01
3.13 28.94 28.94 9.989 -1.022 -19.03 -47.03 -51.04 -53.01 -51.04 -47.03 1.966 -3.067 -9.045 -17.07 -30.04 -19.03
3.135 26.98 25.96 3.933 -1.022 -35 -41.06 -63 -45.07 -53.01 -41.06 -1.022 -2.045 -21 -5.034 -39.01 -7
3.14 26.98 29.97 -2.045 -1.022 -47.03 -33.03 -67.01 -31.07 -45.07 -29.02 -7 5.978 -29.02 3.933 -37.04 1.966
3.145 24.93 31.93 -3.067 0.9438 -49 -21 -61.03 -13.06 -31.07 -17.07 -9.045 9.989 -35 15.97 -29.02 14
3.15 24.93 29.97 -5.034 -2.045 -45.07 -11.01 -51.04 -2.045 -21 -9.045 -9.045 9.989 -33.03 23.99 -17.07 21.94
3.155 21 21.94 -5.034 0 -33.03 -1.022 -41.06 7.944 -17.07 -9.045 -5.034 7.944 -29.02 25.96 -7 23.99
3.16 12.98 11.96 -1.022 0 -19.03 1.966 -33.03 11.96 -19.03 -11.01 0.9438 5.978 -19.03 21.94 0.9438 21.94
3.165 4.955 0 -2.045 -1.022 -5.034 7.944 -23.04 14 -21 -13.06 1.966 0 -7 15.97 3.933 15.97
3.17 -1.022 -5.034 0 -7 3.933 11.96 -11.01 15.97 -19.03 -9.045 3.933 -1.022 0.9438 7.944 14 5.978
3.175 -1.022 -15.02 -2.045 -13.06 14 14 -2.045 19.98 -7 -3.067 0 -11.01 1.966 0 23.99 0.9438
3.18 -3.067 -21 -3.067 -17.07 19.98 11.96 9.989 23.99 1.966 0 -3.067 -21 0 -3.067 31.93 -5.034
3.185 -3.067 -25.01 -7 -13.06 19.98 9.989 17.93 28 14 3.933 -11.01 -27.06 -1.022 -9.045 29.97 -3.067
3.19 -3.067 -21 -7 -7 17.93 7.944 19.98 31.93 21.94 7.944 -15.02 -27.06 -5.034 -9.045 23.99 1.966
3.195 -1.022 -11.01 -1.022 0.9438 14 7.944 11.96 31.93 23.99 9.989 -9.045 -21 -7 -5.034 11.96 14
3.2 0.9438 0.9438 1.966 1.966 7.944 5.978 0 28 15.97 5.978 -1.022 -13.06 -7 0.9438 1.966 19.98
3.205 8.966 3.933 9.989 3.933 0 1.966 -11.01 14 1.966 0.9438 1.966 -7 -7 -2.045 -1.022 14
3.21 14.94 5.978 14 3.933 -7 -3.067 -29.02 -1.022 -9.045 -15.02 3.933 -9.045 -11.01 -3.067 -9.045 -2.045
3.215 18.96 1.966 14 3.933 -15.02 -17.07 -41.06 -23.04 -25.01 -31.07 0 -11.01 -17.07 -13.06 -13.06 -17.07
3.22 18.96 0 14 1.966 -19.03 -31.07 -47.03 -39.01 -35 -37.04 0.9438 -13.06 -23.04 -23.04 -17.07 -29.02
3.225 14.94 3.933 15.97 -2.045 -13.06 -39.01 -41.06 -43.02 -37.04 -35 -2.045 -11.01 -19.03 -27.06 -17.07 -27.06
3.23 12.98 9.989 21.94 0.9438 -2.045 -39.01 -27.06 -33.03 -29.02 -25.01 7.944 -9.045 -7 -27.06 -9.045 -15.02
3.235 10.93 11.96 25.96 -5.034 17.93 -31.07 -3.067 -17.07 -15.02 -15.02 21.94 -11.01 7.944 -25.01 0 -3.067
3.24 10.93 7.944 25.96 -13.06 37.99 -19.03 15.97 -1.022 0.9438 -11.01 31.93 -15.02 29.97 -21 17.93 0.9438
3.245 7 -1.022 21.94 -19.03 49.94 -5.034 37.99 7.944 14 -11.01 35.94 -19.03 47.98 -19.03 33.98 -1.022
3.25 0.9438 -18.01 14 -25.01 56 3.933 53.96 17.93 28 -6.056 33.98 -23.04 56 -11.01 43.97 -3.067
3.255 -7 -30.04 3.933 -25.01 57.97 19.98 59.93 29.97 36.97 -1.022 23.99 -21 51.99 -1.022 39.96 -1.022
3.26 -13.06 -29.02 0.9438 -17.07 51.99 35.94 56 42 31.93 11.96 11.96 -11.01 35.94 14 28 5.978
3.265 -13.06 -18.01 -9.045 -3.067 35.94 49.94 42 51.99 18.96 28.94 -1.022 1.966 14 29.97 7.944 25.96
3.27 -7 -10.07 -23.04 5.978 15.97 57.97 22.97 57.97 0 36.97 -25.01 7 -11.01 39.96 -11.01 44.99
3.275 -3.067 -5.034 -35 17.93 -5.034 59.93 0 56 -23.04 29.97 -45.07 11.96 -41.06 42 -35 53.96
3.28 -7 -5.034 -45.07 19.98 -30.04 53.96 -16.04 46.96 -34.06 19.98 -59.07 14.94 -63 35.94 -55.06 49
3.285 -15.02 -9.045 -49 17.93 -44.04 43.97 -30.04 32.96 -33.03 5.978 -63 14.94 -71.02 29.97 -65.04 28.94
3.29 -21 -9.045 -43.02 14 -45.07 33.98 -35 17.93 -27.06 0.9438 -49 15.97 -63 29.97 -59.07 9.989
3.295 -19.03 -4.011 -25.01 12.98 -29.02 25.96 -31.07 9.989 -16.04 -4.011 -24.07 14.94 -44.04 32.96 -41.06 0.9438
3.3 -13.06 0.9438 -5.034 14 -7 16.99 -24.07 1.966 -6.056 -7 1.966 8.966 -17.07 29.97 -13.06 -1.022
3.305 -1.022 -3.067 9.989 11.96 12.98 10.93 -9.045 -2.045 0.9438 -13.06 21.94 -1.022 -2.045 15.97 9.989 1.966
3.31 7 -13.06 25.96 11.96 33.98 7 0.9438 0 4.955 -17.07 36.97 -18.01 21.94 -3.067 31.93 0.9438
3.315 14.94 -26.03 31.93 8.966 51.99 3.933 17.93 3.933 14.94 -14 50.97 -34.06 38.93 -28 45.93 -5.034
3.32 21 -33.03 33.98 5.978 59.93 5.978 37.99 7.944 25.96 -11.01 59.93 -41.06 51.99 -43.02 53.96 -15.02
3.325 24.93 -27.06 37.99 5.978 64.97 14 52.93 21 37.99 -1.022 61.98 -36.02 61.98 -41.06 56 -22.02
3.33 26.98 -9.045 35.94 11.96 68.98 25.96 58.99 26.98 38.93 3.933 61.98 -26.03 63.94 -25.01 53.96 -24.07
3.335 24.93 0.9438 31.93 14 57.97 29.97 49.94 29.97 29.97 -2.045 47.98 -15.02 53.96 -7 43.97 -21
3.34 16.99 0.9438 19.98 9.989 39.96 31.93 30.99 25.96 16.99 -6.056 28 -8.022 35.94 0 25.96 -16.04
3.345 8.966 -2.045 0 0 11.96 23.99 3.933 14 0.9438 -16.04 3.933 -6.056 7.944 5.978 3.933 -13.06
3.35 -1.022 -17.07 -15.02 -7 -13.06 9.989 -13.06 1.966 -7 -23.04 -11.01 -7 -7 3.933 -13.06 -13.06
3.355 -9.045 -32.01 -29.02 -15.02 -35 0.9438 -25.01 -2.045 -14 -14 -25.01 -7 -23.04 7.944 -25.01 -7
3.36 -13.06 -40.03 -35 -15.02 -41.06 -5.034 -25.01 3.933 -15.02 0.9438 -33.03 -1.022 -31.07 14 -31.07 1.966
3.365 -17.07 -39.01 -33.03 -9.045 -35 -3.067 -19.03 19.98 -11.01 21.94 -37.04 3.933 -35 23.99 -31.07 21.94
3.37 -19.03 -33.03 -29.02 -1.022 -25.01 0.9438 -13.06 33.98 -3.067 37.99 -39.01 9.989 -39.01 29.97 -31.07 37.99
3.375 -23.04 -29.02 -29.02 0.9438 -17.07 0 -7 39.96 0 43.97 -39.01 9.989 -41.06 29.97 -29.02 42
3.38 -27.06 -29.02 -33.03 -5.034 -11.01 -2.045 -3.067 35.94 9.989 39.96 -35 3.933 -39.01 25.96 -23.04 31.93
3.385 -29.02 -31.07 -37.04 -13.06 -9.045 -5.034 -2.045 21.94 17.93 29.97 -23.04 -1.022 -29.02 17.93 -9.045 11.96
3.39 -27.06 -35 -39.01 -21 -3.067 -15.02 7.944 7.944 17.93 21.94 -9.045 -9.045 -9.045 7.944 7.944 -1.022
3.395 -21 -39.01 -33.03 -25.01 1.966 -25.01 17.93 0.9438 11.96 15.97 -2.045 -13.06 7.944 -2.045 25.96 -13.06
3.4 -17.07 -45.07 -23.04 -29.02 14 -27.06 23.99 -5.034 3.933 14 3.933 -19.03 23.99 -9.045 37.99 -15.02
3.405 -15.02 -51.04 -17.07 -31.07 19.98 -25.01 25.96 -3.067 -2.045 14 1.966 -25.01 28 -17.07 37.99 -11.01
3.41 -17.07 -53.01 -17.07 -35 17.93 -15.02 23.99 0.9438 1.966 17.93 -2.045 -31.07 23.99 -21 31.93 -5.034
3.415 -21 -51.04 -21 -37.04 9.989 -3.067 23.99 5.978 17.93 23.99 -2.045 -37.04 17.93 -19.03 31.93 -7
3.42 -21 -43.02 -23.04 -31.07 5.978 5.978 28 15.97 35.94 31.93 5.978 -39.01 17.93 -13.06 37.99 -15.02
3.425 -15.02 -33.03 -13.06 -17.07 7.944 17.93 37.99 25.96 49.94 35.94 19.98 -37.04 23.99 -1.022 49.94 -23.04
3.43 0.9438 -23.04 1.966 -2.045 15.97 29.97 45.93 31.93 53.96 37.99 37.99 -29.02 35.94 1.966 57.97 -27.06
3.435 12.98 -21 21.94 9.989 23.99 35.94 47.98 31.93 43.97 33.98 49.94 -23.04 43.97 7.944 57.97 -23.04
3.44 22.97 -25.01 33.98 9.989 25.96 33.98 39.96 21.94 25.96 25.96 51.99 -21 43.97 5.978 47.98 -15.02
3.445 21 -35 31.93 -3.067 19.98 19.98 21.94 5.978 5.978 15.97 45.93 -29.02 35.94 -2.045 29.97 -9.045
3.45 7 -47.03 15.97 -29.02 5.978 -1.022 0 -13.06 -9.045 3.933 35.94 -39.01 25.96 -11.01 11.96 -11.01
3.455 -9.045 -57.02 -2.045 -55.06 -3.067 -31.07 -15.02 -41.06 -23.04 -3.067 28 -49 15.97 -27.06 0 -19.03
3.46 -25.01 -63 -11.01 -69.06 -13.06 -57.02 -25.01 -63 -29.02 -13.06 19.98 -55.06 11.96 -39.01 -1.022 -29.02
3.465 -33.03 -63 -17.07 -69.06 -15.02 -69.06 -25.01 -73.07 -27.06 -19.03 11.96 -53.01 11.96 -43.02 -1.022 -37.04
3.47 -29.02 -61.03 -15.02 -57.02 -13.06 -67.01 -13.06 -69.06 -17.07 -19.03 5.978 -47.03 14 -41.06 1.966 -35
3.475 -21 -55.06 -11.01 -41.06 -7 -53.01 -2.045 -55.06 -5.034 -13.06 0 -39.01 14 -31.07 0 -29.02
3.48 -13.06 -45.07 -11.01 -25.01 -1.022 -35 11.96 -33.03 2.989 -1.022 -1.022 -29.02 11.96 -21 2.989 -21
3.485 -11.01 -33.03 -13.06 -11.01 0.9438 -15.02 19.98 -15.02 10.93 7.944 -3.067 -18.01 7.944 -9.045 2.989 -13.06
3.49 -9.045 -19.03 -15.02 -2.045 0.9438 -2.045 21.94 -3.067 9.989 17.93 -5.034 -5.034 0 -2.045 1.966 -5.034
3.495 -7 -9.045 -10.07 11.96 -2.045 14.94 18.96 -2.045 10.93 23.99 -2.045 4.955 0 9.989 2.989 0.9438
3.5 -5.034 0.9438 0 25.96 2.989 26.98 16.99 0 8.966 22.97 0 16.99 -8.022 21.94 4.955 0
3.505 -3.067 0 5.978 33.98 5.978 29.97 14 -2.045 9.989 15.97 0.9438 21.94 -11.01 28 5.978 3.933
3.51 -3.067 0 18.96 32.96 14.94 26.98 16.99 -3.067 12.98 10.93 0.9438 18.96 -8.022 21.94 9.989 3.933
3.515 -3.067 -2.045 22.97 22.97 18.96 14.94 16.99 -11.01 9.989 4.955 4.955 8.966 0 7.944 16.99 3.933
3.52 -1.022 -1.022 23.99 11.96 19.98 -2.045 17.93 -17.07 1.966 3.933 7.944 -1.022 5.978 -3.067 19.98 3.933
3.525 -1.022 -4.011 23.99 4.955 21 -7 21.94 -20.06 0.9438 7 17.93 -13.06 21.94 -14 23.99 5.978
3.53 0.9438 -8.022 17.93 0.9438 19.98 -11.01 22.97 -18.01 0 9.989 21.94 -16.04 30.99 -14 26.98 7
3.535 0.9438 -15.02 17.93 3.933 15.97 -7 23.99 -9.045 0 11.96 28 -11.01 31.93 -7 23.99 7.944
3.54 2.989 -14 18.96 12.98 22.97 0.9438 28.94 0 14.94 15.97 28.94 0.9438 30.99 3.933 23.99 7
3.545 -1.022 -10.07 19.98 15.97 24.93 18.96 35 7 24.93 12.98 25.96 5.978 24.93 14.94 21.94 3.933
3.55 -1.022 -1.022 21.94 22.97 23.99 32.96 32.96 11.96 31.93 7 21 14 18.96 17.93 18.96 -1.022
3.555 -1.022 -1.022 21.94 23.99 21 42.94 28.94 7 24.93 2.989 11.96 17.93 10.93 14.94 14 -7
3.56 4.955 2.989 21 26.98 12.98 44.99 21 0 14.94 0 2.989 19.98 4.955 11.96 7.944 -10.07
3.565 4.955 0 14 25.96 0 39.96 9.989 -9.045 3.933 -1.022 -1.022 15.97 0.9438 1.966 0 -17.07
3.57 0.9438 0 3.933 18.96 -7 28 2.989 -18.01 2.989 -5.034 -7 12.98 -6.056 -1.022 0 -12.03
3.575 -13.06 -6.056 -3.067 8.966 -18.01 9.989 1.966 -28 0.9438 -12.03 -11.01 3.933 -11.01 1.966 -7 -7
3.58 -29.02 -9.045 -17.07 0.9438 -25.01 -7 -1.022 -37.04 -5.034 -23.04 -21 -2.045 -19.03 -2.045 -19.03 0.9438
3.585 -37.04 -9.045 -26.03 -4.011 -26.03 -22.02 -2.045 -41.06 -11.01 -24.07 -22.02 0 -24.07 3.933 -26.03 1.966
3.59 -37.04 -7 -30.04 -6.056 -26.03 -28 -2.045 -37.04 -16.04 -18.01 -28 -1.022 -26.03 9.989 -37.04 7.944
3.595 -35 -7 -31.07 -1.022 -23.04 -21 -3.067 -25.01 -17.07 -1.022 -33.03 7.944 -29.02 17.93 -47.03 14
3.6 -35 -11.01 -30.04 3.933 -20.06 -2.045 -2.045 -7 -12.03 12.98 -34.06 24.93 -32.01 29.97 -54.03 28
3.605 -39.01 -11.01 -28 11.96 -21 10.93 -10.07 5.978 -10.07 23.99 -38.07 38.93 -40.03 39.96 -60.01 43.97
3.61 -43.02 -9.045 -27.06 17.93 -21 23.99 -23.04 17.93 -21 25.96 -41.06 45.93 -47.03 45.93 -67.01 57.97
3.615 -41.06 -5.034 -21 21.94 -23.04 29.97 -39.01 19.98 -36.02 17.93 -39.01 44.99 -51.04 47.98 -70 59.93
3.62 -33.03 -1.022 -9.045 21.94 -21 25.96 -47.03 15.97 -53.01 7.944 -33.03 37.99 -47.03 42 -70 51.99
3.625 -19.03 -2.045 0 21.94 -13.06 19.98 -47.03 7.944 -53.01 3.933 -19.03 28 -33.03 33.98 -63 35.94
3.63 -1.022 -2.045 14 15.97 -1.022 9.989 -35 5.978 -35 5.978 -5.034 21.94 -11.01 25.96 -44.04 21.94
3.635 7 0.9438 19.98 9.989 5.978 1.966 -15.02 5.978 -5.034 9.989 3.933 17.93 5.978 19.98 -23.04 14
3.64 12.98 -1.022 15.97 1.966 11.96 0.9438 0 7.944 15.97 7.944 9.989 9.989 19.98 15.97 -3.067 14
3.645 10.93 -5.034 3.933 -1.022 9.989 -7 7.944 5.978 25.96 0 5.978 0 19.98 5.978 3.933 15.97
3.65 0.9438 -11.01 -7 -7 -2.045 -17.07 3.933 0.9438 14 -5.034 0.9438 -9.045 7.944 -5.034 5.978 9.989
3.655 -5.034 -17.07 -19.03 -9.045 -13.06 -27.06 -3.067 -13.06 0.9438 -15.02 -9.045 -23.04 -3.067 -25.01 0 -1.022
3.66 -11.01 -19.03 -21 -9.045 -23.04 -35 -13.06 -25.01 -11.01 -19.03 -11.01 -29.02 -13.06 -37.04 -1.022 -23.04
3.665 -11.01 -13.06 -11.01 -5.034 -25.01 -35 -13.06 -27.06 -5.034 -19.03 -5.034 -27.06 -11.01 -39.01 0.9438 -41.06
3.67 -5.034 -5.034 0 -1.022 -15.02 -29.02 -1.022 -21 5.978 -19.03 1.966 -17.07 0.9438 -25.01 5.978 -45.07
3.675 0.9438 0 14 -2.045 -1.022 -15.02 9.989 -9.045 23.99 -19.03 9.989 -7 9.989 -7 17.93 -35
3.68 0.9438 5.978 15.97 1.966 1.966 0.9438 23.99 0 31.93 -13.06 9.989 0.9438 19.98 5.978 23.99 -13.06
3.685 -5.034 5.978 5.978 3.933 1.966 5.978 29.97 11.96 29.97 -3.067 0.9438 -2.045 17.93 14 17.93 7.944
3.69 -15.02 0 -7 1.966 -1.022 9.989 28 15.97 21.94 9.989 -15.02 0 7.944 15.97 5.978 25.96
3.695 -25.01 0.9438 -23.04 3.933 -13.06 9.989 21.94 17.93 15.97 29.97 -29.02 5.978 -1.022 17.93 -1.022 35.94
3.7 -27.06 -1.022 -31.07 5.978 -23.04 7.944 15.97 17.93 11.96 43.97 -35 14 -15.02 21.94 -11.01 39.96
3.705 -23.04 -2.045 -27.06 11.96 -23.04 7.944 11.96 15.97 5.978 47.98 -35 23.99 -25.01 29.97 -17.07 39.96
3.71 -15.02 3.933 -15.02 15.97 -17.07 9.989 7.944 14 0 39.96 -31.07 28 -31.07 35.94 -23.04 37.99
3.715 -9.045 9.989 -3.067 17.93 -7 11.96 3.933 14 -3.067 29.97 -27.06 23.99 -33.03 33.98 -27.06 35.94
3.72 -5.034 11.96 3.933 15.97 0 14 0 19.98 -7 21.94 -25.01 15.97 -27.06 25.96 -29.02 29.97
3.725 -7 11.96 9.989 9.989 7.944 15.97 0 28 -5.034 19.98 -19.03 7.944 -17.07 15.97 -27.06 19.98
3.73 -11.01 7.944 11.96 1.966 15.97 17.93 3.933 37.99 0.9438 19.98 -7 1.966 -1.022 7.944 -16.04 7.944
3.735 -15.02 0 11.96 0.9438 21.94 21.94 11.96 45.93 5.978 17.93 0 -2.045 7.944 3.933 -5.034 1.966
3.74 -15.02 -2.045 14 -3.067 25.96 25.96 21 45.93 9.989 11.96 10.93 0.9438 21 1.966 4.955 2.989
3.745 -9.045 -6.056 18.96 -1.022 28 29.97 26.98 42 10.93 5.978 18.96 -6.056 26.98 -2.045 8.966 7
3.75 -5.034 -9.045 21.94 0.9438 25.96 29.97 25.96 31.93 7.944 3.933 19.98 -17.07 28 -3.067 11.96 9.989
3.755 -1.022 -8.022 26.98 -2.045 19.98 25.96 18.96 19.98 2.989 5.978 21 -30.04 26.98 -8.022 8.966 8.966
3.76 -1.022 -10.07 24.93 -1.022 12.98 14 10.93 7 -1.022 3.933 18.96 -40.03 24.93 -14 7 -1.022
3.765 -5.034 -13.06 15.97 -11.01 1.966 -1.022 1.966 -7 0.9438 -2.045 15.97 -49 15.97 -21 5.978 -11.01
3.77 -3.067 -15.02 7 -21 -2.045 -21 1.966 -22.02 0 -11.01 19.98 -52.07 9.989 -28 7.944 -21
3.775 0.9438 -19.03 0 -29.02 -10.07 -37.04 0.9438 -36.02 0.9438 -26.03 18.96 -49 0 -33.03 10.93 -22.02
3.78 4.955 -15.02 0.9438 -29.02 -13.06 -45.07 -1.022 -41.06 -1.022 -35 19.98 -49 -2.045 -39.01 14 -23.04
3.785 18.96 -8.022 3.933 -21 -7 -42 5.978 -33.03 3.933 -30.04 26.98 -45.07 4.955 -38.07 19.98 -20.06
3.79 24.93 -1.022 14.94 -8.022 2.989 -30.04 17.93 -15.02 14.94 -17.07 30.99 -41.06 21.94 -34.06 28.94 -18.01
3.795 24.93 3.933 26.98 0 23.99 -11.01 33.98 0.9438 26.98 -1.022 35 -40.03 42 -27.06 37.99 -16.04
3.8 14.94 9.989 32.96 -1.022 38.93 0 43.97 15.97 36.97 5.978 38.93 -33.03 53.96 -22.02 40.98 -14
3.805 12.98 12.98 35.94 -3.067 43.97 2.989 47.98 17.93 42 2.989 35 -27.06 54.98 -16.04 39.96 -12.03
3.81 4.955 7.944 25.96 -9.045 39.96 0 37.99 9.989 31.93 -9.045 21.94 -21 39.96 -15.02 23.99 -7
3.815 0.9438 -2.045 15.97 -19.03 24.93 -5.034 19.98 0 14 -26.03 8.966 -11.01 17.93 -11.01 7 -4.011
3.82 -3.067 -3.067 -1.022 -25.01 4.955 -13.06 1.966 -12.03 -8.022 -43.02 -5.034 -8.022 -1.022 -10.07 -15.02 -3.067
3.825 -13.06 -9.045 -9.045 -25.01 -7 -19.03 -21 -17.07 -31.07 -45.07 -23.04 -1.022 -25.01 -3.067 -31.07 -1.022
3.83 -19.03 -4.011 -16.04 -19.03 -14 -13.06 -32.01 -12.03 -44.04 -39.01 -32.01 4.955 -30.04 4.955 -38.07 0.9438
3.835 -19.03 2.989 -12.03 -7 -17.07 -1.022 -34.06 -3.067 -40.03 -31.07 -28 12.98 -28 12.98 -34.06 12.98
3.84 -9.045 15.97 -3.067 0 -11.01 7.944 -25.01 3.933 -29.02 -21 -19.03 21.94 -21 23.99 -21 21.94
3.845 -1.022 24.93 -1.022 7.944 -5.034 17.93 -14 11.96 -12.03 -11.01 -12.03 26.98 -14 25.96 -6.056 30.99
3.85 4.955 21 1.966 7.944 -3.067 19.98 -5.034 17.93 0.9438 -7 -6.056 25.96 -10.07 28 2.989 32.96
3.855 -1.022 9.989 0.9438 1.966 -3.067 19.98 -1.022 15.97 1.966 0.9438 -9.045 21.94 -13.06 25.96 9.989 31.93
3.86 -5.034 -2.045 -7 -2.045 -3.067 11.96 -1.022 11.96 0 0.9438 -9.045 14 -11.01 21.94 14.94 25.96
3.865 -13.06 -2.045 -7 -2.045 -1.022 3.933 -3.067 1.966 -1.022 -3.067 -5.034 7.944 -7 14 11.96 15.97
3.87 -15.02 5.978 -1.022 0 -2.045 0.9438 -7 -3.067 -7 -11.01 -2.045 1.966 -1.022 3.933 9.989 3.933
3.875 -9.045 17.93 1.966 1.966 1.966 -9.045 -9.045 -11.01 -13.06 -21 5.978 -3.067 0 -3.067 7.944 -3.067
3.88 -3.067 25.96 7.944 0 1.966 -19.03 -11.01 -17.07 -17.07 -29.02 7.944 -13.06 1.966 -11.01 5.978 -9.045
3.885 -3.067 21.94 3.933 -7 -1.022 -25.01 -13.06 -17.07 -15.02 -31.07 5.978 -21 0 -19.03 3.933 -13.06
3.89 -7 11.96 0.9438 -19.03 -13.06 -29.02 -17.07 -15.02 -11.01 -29.02 0 -27.06 0.9438 -23.04 3.933 -15.02
3.895 -11.01 1.966 -5.034 -25.01 -27.06 -29.02 -23.04 -13.06 -7 -27.06 0.9438 -27.06 -5.034 -27.06 3.933 -17.07
3.9 -9.045 0 -1.022 -23.04 -31.07 -27.06 -27.06 -15.02 -1.022 -25.01 -2.045 -21 -5.034 -25.01 5.978 -19.03
3.905 -1.022 7.944 9.989 -9.045 -25.01 -23.04 -23.04 -15.02 -2.045 -23.04 5.978 -7 0.9438 -19.03 9.989 -19.03
3.91 16.99 25.96 33.98 7.944 -3.067 -17.07 -9.045 -9.045 7.944 -15.02 15.97 1.966 5.978 -5.034 15.97 -11.01
3.915 35 43.97 51.99 29.97 19.98 -3.067 7.944 0 17.93 -1.022 19.98 17.93 17.93 9.989 21.94 1.966
3.92 42.94 57.97 59.93 43.97 43.97 9.989 31.93 23.99 29.97 9.989 15.97 31.93 23.99 31.93 23.99 23.99
3.925 40.98 63.94 51.99 49.94 57.97 31.93 47.98 45.93 39.96 28 5.978 39.96 21.94 49.94 21.94 43.97
3.93 35 63.94 37.99 49.94 56 49.94 51.99 59.93 43.97 39.96 -1.022 42 14 56 15.97 56
3.935 30.99 59.93 25.96 43.97 42 61.98 43.97 59.93 39.96 45.93 -9.045 37.99 1.966 51.99 7.944 56
3.94 28.94 51.99 19.98 37.99 23.99 63.94 28 51.99 28 43.97 -13.06 29.97 -1.022 39.96 1.966 45.93
3.945 28.94 42 15.97 29.97 5.978 56 9.989 37.99 11.96 31.93 -15.02 19.98 -9.045 29.97 -1.022 29.97
3.95 22.97 29.97 9.989 17.93 -5.034 42 -3.067 23.99 -5.034 11.96 -17.07 9.989 -15.02 19.98 -9.045 7.944
3.955 8.966 14 0 1.966 -21 23.99 -19.03 7.944 -21 -5.034 -19.03 -2.045 -19.03 9.989 -19.03 -5.034
3.96 -3.067 -2.045 -7 -9.045 -31.07 3.933 -31.07 0.9438 -29.02 -21 -17.07 -9.045 -21 0 -25.01 -19.03
3.965 -11.01 -7 -17.07 -23.04 -35 -9.045 -33.03 -7 -23.04 -25.01 -9.045 -21 -13.06 -5.034 -19.03 -23.04
3.97 -7 -13.06 -15.02 -27.06 -25.01 -21 -23.04 -9.045 -5.034 -15.02 0 -27.06 -2.045 -15.02 -3.067 -17.07
3.975 2.989 -11.01 -5.034 -23.04 -7 -25.01 -3.067 -5.034 10.93 -3.067 14 -29.02 17.93 -21 11.96 -7
3.98 16.99 -5.034 0 -11.01 5.978 -21 9.989 0.9438 19.98 0.9438 21.94 -27.06 28 -25.01 23.99 0.9438
3.985 21 -2.045 3.933 0.9438 16.99 -13.06 16.99 0 18.96 -3.067 16.99 -23.04 25.96 -25.01 25.96 0.9438
3.99 14.94 3.933 0 5.978 12.98 -7 8.966 -2.045 -1.022 -13.06 2.989 -17.07 11.96 -21 11.96 -1.022
3.995 7 9.989 -1.022 9.989 -2.045 -3.067 -5.034 -1.022 -17.07 -19.03 -7 -11.01 0.9438 -15.02 0.9438 -7
4 4.955 11.96 -5.034 9.989 -10.07 -1.022 -22.02 -4.011 -32.01 -19.03 -16.04 -3.067 -9.045 -4.011 -13.06 -11.01
4.005 7 9.989 -5.034 5.978 -18.01 0.9438 -32.01 -6.056 -33.03 -10.07 -14 -2.045 -8.022 2.989 -17.07 -9.045
4.01 10.93 5.978 -7 0 -17.07 -2.045 -31.07 -5.034 -29.02 -5.034 -11.01 1.966 -1.022 11.96 -13.06 -1.022
4.015 7 0 -9.045 -5.034 -9.045 -2.045 -21 0 -23.04 -4.011 -3.067 3.933 0.9438 16.99 -7 0
4.02 -1.022 -3.067 -15.02 -15.02 -3.067 -1.022 -15.02 0 -14 -8.022 -3.067 0.9438 2.989 12.98 -4.011 3.933
4.025 -9.045 -7 -23.04 -19.03 -2.045 -5.034 -15.02 -3.067 -9.045 -15.02 -9.045 -1.022 -2.045 1.966 -5.034 5.978
4.03 -17.07 -2.045 -27.06 -20.06 0 -6.056 -13.06 -2.045 -1.022 -13.06 -18.01 -2.045 -3.067 0.9438 -6.056 4.955
4.035 -17.07 1.966 -22.02 -16.04 4.955 -5.034 -7 1.966 10.93 0 -27.06 -1.022 -5.034 0 -7 4.955
4.04 -11.01 1.966 -18.01 -5.034 7.944 1.966 0 8.966 28 15.97 -35 2.989 -4.011 5.978 0 12.98
4.045 -5.034 3.933 -14 -1.022 10.93 9.989 9.989 26.98 40.98 35 -39.01 11.96 -3.067 21 3.933 28.94
4.05 -3.067 0.9438 -11.01 7 7.944 21 19.98 46.96 43.97 51.99 -38.07 21 -3.067 37.99 12.98 49
4.055 -7 0.9438 -9.045 11.96 3.933 29.97 21.94 57.97 37.99 59.93 -37.04 23.99 -5.034 51.99 14 67.96
4.06 -11.01 0.9438 -5.034 17.93 -2.045 39.96 17.93 64.97 24.93 58.99 -29.02 26.98 -10.07 58.99 12.98 75.98
4.065 -11.01 1.966 -1.022 21.94 1.966 42 5.978 60.96 7.944 50.97 -17.07 23.99 -14 54.98 0.9438 67.96
4.07 0.9438 11.96 1.966 23.99 0.9438 39.96 -7 45.93 -7 33.98 -9.045 17.93 -17.07 42 -15.02 45.93
4.075 12.98 19.98 9.989 25.96 1.966 31.93 -20.06 28.94 -21 14.94 -1.022 11.96 -14 26.98 -29.02 17.93
4.08 28.94 25.96 19.98 25.96 0.9438 17.93 -28 10.93 -32.01 0.9438 8.966 5.978 -7 8.966 -33.03 -1.022
4.085 40.98 23.99 19.98 19.98 1.966 1.966 -35 0.9438 -37.04 -15.02 14 -2.045 -3.067 -3.067 -29.02 -15.02
4.09 38.93 15.97 15.97 14 -1.022 -5.034 -34.06 -5.034 -36.02 -21 18.96 -5.034 -2.045 -11.01 -23.04 -17.07
4.095 24.93 5.978 3.933 0 -4.011 -15.02 -34.06 -7 -30.04 -19.03 14.94 -13.06 0.9438 -13.06 -19.03 -13.06
4.1 4.955 -3.067 -11.01 -11.01 -17.07 -21 -37.04 -11.01 -31.07 -13.06 3.933 -19.03 -3.067 -11.01 -21 -7
4.105 -9.045 -19.03 -29.02 -31.07 -27.06 -27.06 -41.06 -19.03 -30.04 -11.01 -1.022 -23.04 -9.045 -11.01 -25.01 -5.034
4.11 -19.03 -29.02 -43.02 -49 -31.07 -33.03 -45.07 -27.06 -31.07 -15.02 -9.045 -25.01 -11.01 -13.06 -25.01 -11.01
4.115 -17.07 -33.03 -45.07 -59.07 -27.06 -41.06 -41.06 -33.03 -27.06 -23.04 -7 -27.06 -11.01 -21 -19.03 -17.07
4.12 -7 -31.07 -37.04 -59.07 -19.03 -45.07 -29.02 -33.03 -17.07 -29.02 -2.045 -27.06 -5.034 -29.02 -7 -19.03
4.125 2.989 -19.03 -23.04 -49 -11.01 -47.03 -13.06 -29.02 -3.067 -31.07 11.96 -23.04 0.9438 -31.07 1.966 -17.07
4.13 14.94 -3.067 -11.01 -35 -5.034 -43.02 0.9438 -19.03 -2.045 -25.01 23.99 -15.02 0 -27.06 7.944 -9.045
4.135 22.97 5.978 -1.022 -21 -7 -33.03 1.966 -11.01 0.9438 -17.07 25.96 -9.045 1.966 -19.03 3.933 -5.034
4.14 24.93 9.989 -2.045 -11.01 -17.07 -25.01 0.9438 -7 -9.045 -13.06 21.94 -5.034 -2.045 -11.01 -1.022 -5.034
4.145 18.96 3.933 0.9438 -9.045 -29.02 -19.03 -13.06 -9.045 -21 -13.06 11.96 -3.067 -5.034 -7 -13.06 -13.06
4.15 8.966 -5.034 -3.067 -11.01 -37.04 -19.03 -27.06 -11.01 -25.01 -17.07 1.966 -5.034 -13.06 -11.01 -17.07 -21
4.155 -1.022 -21 -9.045 -15.02 -41.06 -21 -35 -13.06 -19.03 -19.03 -2.045 -9.045 -19.03 -15.02 -13.06 -25.01
4.16 -5.034 -29.02 -11.01 -21 -37.04 -23.04 -33.03 -11.01 -7 -13.06 -2.045 -11.01 -21 -19.03 -3.067 -23.04
4.165 -7 -27.06 -7 -23.04 -27.06 -23.04 -23.04 -5.034 -2.045 -3.067 -2.045 -13.06 -19.03 -17.07 -2.045 -15.02
4.17 -3.067 -17.07 -1.022 -23.04 -17.07 -21 -13.06 -1.022 0.9438 1.966 -2.045 -11.01 -13.06 -13.06 -2.045 -7
4.175 -1.022 -5.034 0 -19.03 -9.045 -15.02 -9.045 -2.045 -7 9.989 0.9438 -9.045 -9.045 -7 -5.034 0.9438
4.18 4.955 -2.045 3.933 -15.02 -5.034 -11.01 -9.045 1.966 -15.02 14 -1.022 -7 -9.045 -3.067 -17.07 1.966
4.185 7 1.966 0 -11.01 -3.067 -9.045 -13.06 3.933 -19.03 15.97 -5.034 -3.067 -11.01 0.9438 -25.01 5.978
4.19 4.955 -2.045 -3.067 -11.01 -5.034 -11.01 -17.07 5.978 -19.03 9.989 -11.01 -3.067 -15.02 0 -29.02 5.978
4.195 0.9438 -5.034 -13.06 -19.03 -11.01 -17.07 -19.03 1.966 -17.07 0 -17.07 -3.067 -17.07 -2.045 -31.07 -2.045
4.2 -3.067 -17.07 -25.01 -31.07 -17.07 -27.06 -21 -3.067 -19.03 -13.06 -21 -7 -17.07 -3.067 -33.03 -11.01
4.205 -11.01 -29.02 -33.03 -43.02 -25.01 -37.04 -23.04 -15.02 -23.04 -29.02 -23.04 -11.01 -13.06 -15.02 -31.07 -27.06
4.21 -17.07 -33.03 -35 -51.04 -29.02 -43.02 -25.01 -27.06 -27.06 -43.02 -19.03 -15.02 -7 -27.06 -29.02 -41.06
4.215 -19.03 -33.03 -33.03 -51.04 -27.06 -41.06 -25.01 -35 -27.06 -45.07 -9.045 -17.07 -1.022 -37.04 -23.04 -45.07
4.22 -19.03 -27.06 -23.04 -45.07 -19.03 -31.07 -23.04 -35 -21 -37.04 0.9438 -17.07 -2.045 -39.01 -13.06 -39.01
4.225 -19.03 -19.03 -11.01 -33.03 -7 -19.03 -17.07 -27.06 -9.045 -25.01 1.966 -15.02 1.966 -31.07 -3.067 -27.06
4.23 -13.06 -12.03 -1.022 -23.04 0 -5.034 -9.045 -15.02 -2.045 -9.045 1.966 -13.06 1.966 -19.03 1.966 -19.03
4.235 -11.01 -6.056 0 -15.02 9.989 0 0.9438 -3.067 7.944 -2.045 -1.022 -9.045 1.966 -3.067 3.933 -13.06
4.24 -11.01 -5.034 1.966 -9.045 14 5.978 1.966 0 15.97 7.944 -13.06 -3.067 -2.045 5.978 3.933 -9.045
4.245 -3.067 0 0 -3.067 9.989 12.98 7.944 5.978 15.97 17.93 -19.03 0 -3.067 15.97 2.989 -6.056
4.25 2.989 2.989 -2.045 0 5.978 16.99 7.944 9.989 11.96 23.99 -22.02 7.944 -9.045 19.98 -1.022 0
4.255 4.955 14 -2.045 11.96 0.9438 19.98 3.933 14 3.933 28 -21 15.97 -13.06 17.93 -1.022 0
4.26 12.98 21.94 0.9438 21.94 -5.034 24.93 0.9438 15.97 -2.045 30.99 -16.04 23.99 -19.03 15.97 -2.045 7
4.265 12.98 25.96 -1.022 28.94 -9.045 28.94 1.966 14 -1.022 30.99 -14 28 -15.02 16.99 -2.045 10.93
4.27 4.955 21.94 -2.045 25.96 -9.045 29.97 0.9438 11.96 -2.045 28 -13.06 25.96 -9.045 15.97 0 11.96
4.275 -1.022 14 -1.022 16.99 -4.011 30.99 2.989 10.93 7 22.97 -13.06 23.99 -1.022 18.96 7 5.978
4.28 -15.02 5.978 -1.022 7.944 1.966 28 16.99 7.944 16.99 18.96 -8.022 21 7 17.93 15.97 0.9438
4.285 -17.07 3.933 -1.022 2.989 11.96 18.96 28.94 0 18.96 16.99 -5.034 14.94 16.99 16.99 22.97 0.9438
4.29 -17.07 1.966 14 1.966 25.96 9.989 38.93 -1.022 18.96 18.96 1.966 12.98 24.93 9.989 25.96 -2.045
4.295 -9.045 3.933 28 2.989 32.96 -1.022 40.98 -10.07 18.96 22.97 1.966 9.989 29.97 4.955 32.96 0.9438
4.3 -5.034 1.966 31.93 1.966 33.98 0.9438 37.99 -13.06 17.93 28 7.944 9.989 29.97 -1.022 31.93 5.978
4.305 -9.045 1.966 26.98 1.966 25.96 0 35 -9.045 19.98 32.96 8.966 5.978 28 -6.056 32.96 12.98
4.31 -15.02 -5.034 12.98 -5.034 17.93 -1.022 32.96 -7 23.99 32.96 2.989 1.966 19.98 -11.01 24.93 12.98
4.315 -25.01 -17.07 -2.045 -11.01 7.944 5.978 29.97 -3.067 28 23.99 -1.022 0.9438 15.97 -13.06 14 3.933
4.32 -27.06 -24.07 -1.022 -9.045 5.978 12.98 29.97 -3.067 25.96 14 -6.056 -5.034 9.989 -11.01 10.93 0
4.325 -27.06 -24.07 0.9438 -3.067 5.978 16.99 29.97 -3.067 23.99 3.933 -9.045 -9.045 11.96 -7 8.966 -8.022
4.33 -25.01 -19.03 1.966 -2.045 11.96 21.94 31.93 -5.034 19.98 0 -9.045 -7 14 -7 14 -11.01
4.335 -21 -18.01 5.978 0 15.97 21.94 28 -7 14 0 -7 -11.01 15.97 -7 21.94 -9.045
4.34 -25.01 -16.04 5.978 -2.045 15.97 17.93 25.96 -9.045 9.989 3.933 -5.034 -15.02 14 -11.01 31.93 -9.045
4.345 -31.07 -19.03 -2.045 -3.067 11.96 9.989 19.98 -13.06 9.989 9.989 -5.034 -19.03 11.96 -13.06 33.98 -13.06
4.35 -35 -15.02 -5.034 -7 5.978 3.933 14 -19.03 14 11.96 -5.034 -17.07 7.944 -13.06 29.97 -19.03
4.355 -33.03 -5.034 -11.01 -7 -2.045 -2.045 7.944 -23.04 11.96 11.96 -7 -11.01 5.978 -9.045 21.94 -21
4.36 -25.01 3.933 -11.01 -1.022 -3.067 0.9438 0.9438 -27.06 0 5.978 -9.045 -1.022 0 -5.034 7.944 -19.03
4.365 -17.07 15.97 -7 0 -9.045 -1.022 -13.06 -31.07 -15.02 0.9438 -11.01 1.966 -1.022 -3.067 -3.067 -11.01
4.37 -13.06 21.94 0.9438 5.978 -13.06 -3.067 -27.06 -35 -35 -5.034 -11.01 5.978 -9.045 -7 -17.07 -5.034
4.375 -11.01 19.98 1.966 9.989 -15.02 -3.067 -35 -37.04 -45.07 -9.045 -9.045 3.933 -15.02 -9.045 -21 -1.022
4.38 -13.06 11.96 7.944 14 -15.02 -3.067 -35 -39.01 -41.06 -5.034 -5.034 -2.045 -15.02 -11.01 -17.07 -3.067
4.385 -17.07 3.933 9.989 14 -13.06 -3.067 -27.06 -39.01 -25.01 0.9438 -3.067 -3.067 -13.06 -11.01 -9.045 -7
4.39 -19.03 -2.045 3.933 7.944 -13.06 -5.034 -19.03 -35 -7 3.933 -3.067 -11.01 -9.045 -9.045 -3.067 -9.045
4.395 -23.04 -2.045 -1.022 -1.022 -17.07 -9.045 -15.02 -29.02 0.9438 9.989 -7 -17.07 -9.045 -9.045 -3.067 -7
4.4 -25.01 -2.045 -15.02 -15.02 -27.06 -17.07 -17.07 -25.01 -3.067 11.96 -15.02 -17.07 -11.01 -7 -11.01 -3.067
4.405 -27.06 0 -25.01 -27.06 -35 -23.04 -23.04 -19.03 -13.06 11.96 -23.04 -13.06 -15.02 -1.022 -19.03 0
4.41 -25.01 1.966 -29.02 -29.02 -41.06 -23.04 -25.01 -13.06 -21 9.989 -25.01 -3.067 -19.03 5.978 -25.01 7.944
4.415 -21 3.933 -23.04 -19.03 -39.01 -15.02 -23.04 -5.034 -21 11.96 -23.04 5.978 -17.07 19.98 -25.01 14
4.42 -17.07 5.978 -13.06 -1.022 -31.07 -1.022 -13.06 0 -9.045 15.97 -17.07 17.93 -13.06 25.96 -19.03 17.93
4.425 -11.01 7.944 -3.067 9.989 -19.03 7.944 0.9438 5.978 0 17.93 -7 23.99 -5.034 23.99 -9.045 19.98
4.43 -7 9.989 1.966 19.98 -5.034 15.97 7.944 9.989 11.96 19.98 0.9438 23.99 0.9438 15.97 -1.022 17.93
4.435 -3.067 14 9.989 23.99 3.933 19.98 17.93 9.989 15.97 14 3.933 17.93 3.933 3.933 0 15.97
4.44 -1.022 21.94 19.98 23.99 14 17.93 23.99 9.989 14 3.933 11.96 9.989 9.989 0.9438 1.966 9.989
4.445 8.966 33.98 31.93 28 21.94 15.97 25.96 5.978 9.989 -5.034 17.93 0 15.97 -5.034 0 -2.045
4.45 18.96 43.97 42 29.97 28 11.96 28 0 5.978 -21 23.99 -5.034 17.93 -15.02 -2.045 -17.07
4.455 26.98 47.98 49.94 31.93 33.98 9.989 28 -5.034 5.978 -35 29.97 -15.02 19.98 -29.02 -2.045 -37.04
4.46 32.96 43.97 53.96 29.97 37.99 5.978 28 -13.06 7.944 -41.06 42 -18.01 23.99 -41.06 3.933 -51.04
4.465 36.97 35.94 56 25.96 43.97 5.978 28 -19.03 9.989 -37.04 53.96 -14 29.97 -45.07 15.97 -53.01
4.47 38.93 28 57.97 21.94 47.98 5.978 28 -19.03 7.944 -27.06 63.94 -5.034 39.96 -35 28 -43.02
4.475 36.97 29.97 53.96 22.97 47.98 9.989 22.97 -13.06 0 -15.02 67.96 4.955 47.98 -17.07 31.93 -27.06
4.48 30.99 33.98 47.98 26.98 43.97 14 16.99 -5.034 -7 -9.045 61.98 10.93 49.94 0.9438 28 -13.06
4.485 18.96 37.99 33.98 25.96 33.98 9.989 7.944 -3.067 -17.07 -9.045 49.94 9.989 47.98 3.933 21.94 -9.045
4.49 4.955 37.99 15.97 24.93 17.93 1.966 -1.022 -5.034 -19.03 -9.045 33.98 5.978 38.93 -2.045 11.96 -10.07
4.495 -1.022 30.99 -2.045 14.94 1.966 -3.067 -6.056 -13.06 -17.07 -11.01 19.98 -1.022 28.94 -2.045 8.966 -14
4.5 -5.034 17.93 -9.045 0 -11.01 -15.02 -13.06 -15.02 -11.01 -5.034 5.978 -3.067 11.96 -5.034 3.933 -11.01
4.505 -7 7 -21 -8.022 -22.02 -23.04 -17.07 -14 -8.022 0.9438 -1.022 0 0.9438 -2.045 -1.022 -2.045
4.51 -7 0.9438 -27.06 -17.07 -32.01 -26.03 -29.02 -14 -12.03 -1.022 -15.02 -2.045 -12.03 -2.045 -10.07 1.966
4.515 -11.01 0 -27.06 -21 -39.01 -27.06 -39.01 -17.07 -19.03 -9.045 -27.06 3.933 -25.01 -3.067 -27.06 3.933
4.52 -7 1.966 -20.06 -7 -31.07 -20.06 -42 -17.07 -25.01 -19.03 -35 7.944 -34.06 -9.045 -39.01 0.9438
4.525 -3.067 11.96 -7 7.944 -19.03 -5.034 -43.02 -14 -23.04 -19.03 -33.03 18.96 -37.04 -9.045 -42 0
4.53 2.989 22.97 1.966 31.93 -4.011 10.93 -37.04 -3.067 -14 -9.045 -27.06 28 -34.06 1.966 -35 -3.067
4.535 10.93 29.97 14 49.94 5.978 33.98 -25.01 12.98 1.966 7.944 -15.02 36.97 -25.01 11.96 -24.07 0.9438
4.54 12.98 31.93 10.93 51.99 11.96 54.98 -8.022 39.96 14 31.93 -7 37.99 -18.01 28 -11.01 16.99
4.545 2.989 25.96 1.966 42 5.978 57.97 0.9438 53.96 19.98 45.93 -5.034 29.97 -13.06 35.94 -5.034 29.97
4.55 -3.067 12.98 -7 28 0 49 -2.045 56.94 21 47.98 -7 15.97 -12.03 28.94 -2.045 37.99
4.555 -13.06 1.966 -17.07 4.955 -16.04 28 0 40.98 14.94 42 -11.01 -1.022 -10.07 14.94 -2.045 26.98
4.56 -19.03 -11.01 -19.03 -11.01 -25.01 0 -3.067 15.97 5.978 28 -9.045 -13.06 -9.045 -3.067 -1.022 9.989
4.565 -17.07 -14 -15.02 -26.03 -29.02 -25.01 -8.022 -7 0 11.96 -5.034 -27.06 -8.022 -20.06 1.966 0
4.57 -11.01 -13.06 -7 -36.02 -23.04 -49 -10.07 -27.06 0.9438 0.9438 0 -29.02 -6.056 -37.04 1.966 -16.04
4.575 -7 -9.045 -2.045 -41.06 -11.01 -65.04 -7 -41.06 -2.045 -13.06 7.944 -35 -1.022 -49 7.944 -25.01
4.58 0.9438 -3.067 7.944 -34.06 -2.045 -71.02 -2.045 -45.07 1.966 -29.02 14 -30.04 0 -51.04 11.96 -27.06
4.585 4.955 0 15.97 -15.02 9.989 -63 0.9438 -41.06 9.989 -37.04 19.98 -20.06 9.989 -45.07 17.93 -25.01
4.59 12.98 9.989 15.97 0 14 -45.07 3.933 -31.07 14 -39.01 15.97 -9.045 14 -31.07 19.98 -23.04
4.595 14.94 14 5.978 14 5.978 -19.03 0 -19.03 9.989 -37.04 7.944 1.966 7.944 -15.02 15.97 -21
4.6 4.955 11.96 -7 14 -3.067 -2.045 -7 -5.034 1.966 -33.03 -5.034 0.9438 -1.022 -7 1.966 -23.04
4.605 -7 1.966 -27.06 0 -23.04 9.989 -21 -2.045 -5.034 -27.06 -23.04 -1.022 -19.03 -9.045 -9.045 -25.01
4.61 -25.01 -7 -43.02 -17.07 -37.04 11.96 -31.07 3.933 -15.02 -19.03 -35 -9.045 -29.02 -15.02 -21 -25.01
4.615 -35 -15.02 -49 -35 -41.06 7.944 -35 5.978 -15.02 -9.045 -37.04 -17.07 -31.07 -21 -23.04 -21
4.62 -33.03 -13.06 -41.06 -37.04 -31.07 0 -29.02 5.978 -7 -1.022 -31.07 -13.06 -21 -19.03 -15.02 -11.01
4.625 -21 -3.067 -23.04 -25.01 -13.06 0.9438 -17.07 5.978 -2.045 1.966 -17.07 -1.022 -7 -7 -5.034 -1.022
4.63 -1.022 9.989 -1.022 -3.067 3.933 0.9438 -5.034 5.978 1.966 5.978 -1.022 9.989 1.966 3.933 0 0
4.635 10.93 23.99 11.96 11.96 25.96 0 3.933 5.978 3.933 3.933 9.989 19.98 14 14 5.978 3.933
4.64 24.93 29.97 23.99 28 39.96 3.933 14 7.944 1.966 3.933 21.94 21.94 25.96 17.93 7.944 5.978
4.645 28.94 29.97 29.97 35.94 47.98 5.978 23.99 14 3.933 9.989 31.93 17.93 33.98 17.93 9.989 14
4.65 28.94 25.96 28 39.96 49.94 11.96 33.98 21.94 11.96 21.94 35.94 15.97 39.96 17.93 11.96 28
4.655 22.97 19.98 19.98 42 45.93 15.97 42 33.98 23.99 39.96 37.99 17.93 39.96 23.99 14 45.93
4.66 18.96 11.96 9.989 39.96 35.94 21.94 45.93 47.98 33.98 57.97 31.93 23.99 31.93 31.93 11.96 59.93
4.665 14.94 3.933 0 33.98 21.94 28 45.93 59.93 35.94 70 19.98 29.97 17.93 39.96 7.944 65.99
4.67 10.93 0.9438 -1.022 23.99 5.978 29.97 39.96 65.99 33.98 71.97 3.933 28 1.966 39.96 1.966 61.98
4.675 8.966 -5.034 -3.067 11.96 -1.022 29.97 29.97 67.96 29.97 63.94 -9.045 21.94 -9.045 35.94 -2.045 49.94
4.68 7 -9.045 -3.067 0 -9.045 28 19.98 61.98 23.99 51.99 -19.03 11.96 -19.03 28 0 37.99
4.685 2.989 -7 -5.034 -3.067 -11.01 21.94 11.96 49.94 19.98 35.94 -21 1.966 -23.04 21.94 1.966 29.97
4.69 0.9438 -5.034 -5.034 -7 -5.034 14 5.978 35.94 17.93 19.98 -13.06 -2.045 -19.03 17.93 7.944 23.99
4.695 2.989 -1.022 -7 -9.045 0 5.978 5.978 21.94 15.97 7.944 -1.022 0.9438 -9.045 11.96 14 15.97
4.7 8.966 0.9438 -5.034 -11.01 11.96 0.9438 7.944 9.989 14 0.9438 5.978 -3.067 0 3.933 19.98 3.933
4.705 14.94 -2.045 -5.034 -13.06 19.98 -7 11.96 0 14 -9.045 11.96 -7 14 -3.067 25.96 -3.067
4.71 12.98 0.9438 -7 -17.07 23.99 -13.06 14 -3.067 11.96 -18.01 7.944 -13.06 19.98 -15.02 25.96 -14
4.715 4.955 -1.022 -13.06 -21 19.98 -17.07 14 -9.045 5.978 -27.06 1.966 -17.07 19.98 -21 19.98 -19.03
4.72 -1.022 -5.034 -19.03 -23.04 9.989 -19.03 9.989 -15.02 0.9438 -30.04 -1.022 -17.07 11.96 -21 9.989 -14
4.725 -5.034 -7 -21 -19.03 0 -17.07 5.978 -13.06 -11.01 -26.03 -3.067 -11.01 3.933 -13.06 -2.045 -8.022
4.73 -1.022 -3.067 -13.06 -11.01 -1.022 -11.01 3.933 -5.034 -17.07 -17.07 -2.045 0.9438 0 -1.022 -3.067 -3.067
4.735 8.966 1.966 -1.022 -2.045 -1.022 -1.022 1.966 2.989 -14 -4.011 7 7.944 1.966 3.933 -4.011 1.966
4.74 26.98 2.989 14.94 9.989 -2.045 4.955 3.933 14.94 -8.022 1.966 14.94 14 1.966 7 -2.045 1.966
4.745 36.97 5.978 25.96 19.98 1.966 7.944 3.933 14 -3.067 0.9438 15.97 14 1.966 1.966 -3.067 -2.045
4.75 38.93 7 26.98 21 5.978 8.966 1.966 8.966 -4.011 -7 16.99 7.944 0.9438 -4.011 -4.011 -2.045
4.755 30.99 3.933 21 14.94 5.978 0.9438 0.9438 0.9438 -10.07 -20.06 14 -2.045 -7 -16.04 -10.07 1.966
4.76 18.96 -1.022 14 0 3.933 -7 -3.067 -15.02 -19.03 -33.03 9.989 -5.034 -11.01 -23.04 -13.06 -5.034
4.765 4.955 -8.022 9.989 -3.067 2.989 -17.07 -6.056 -22.02 -26.03 -39.01 12.98 -6.056 -7 -25.01 -10.07 -13.06
4.77 -1.022 -11.01 10.93 -9.045 2.989 -22.02 -4.011 -22.02 -19.03 -38.07 15.97 -4.011 0.9438 -20.06 1.966 -21
4.775 -1.022 -11.01 14 -8.022 8.966 -19.03 0.9438 -17.07 -6.056 -29.02 23.99 1.966 14.94 -11.01 11.96 -18.01
4.78 4.955 -9.045 16.99 0.9438 14.94 -12.03 12.98 -8.022 7.944 -16.04 28 4.955 26.98 -4.011 30.99 -7
4.785 10.93 -10.07 15.97 0 22.97 -3.067 24.93 -1.022 21 -1.022 28.94 8.966 35.94 0 42.94 7.944
4.79 8.966 -13.06 11.96 -2.045 25.96 1.966 29.97 9.989 25.96 7.944 17.93 7.944 33.98 5.978 43.97 17.93
4.795 0.9438 -17.07 2.989 0 21.94 7 28 19.98 22.97 18.96 7.944 3.933 23.99 7 36.97 24.93
4.8 -7 -24.07 -4.011 -8.022 9.989 7 15.97 28.94 14.94 25.96 -8.022 3.933 5.978 12.98 18.96 25.96
4.805 -17.07 -23.04 -17.07 -9.045 -1.022 5.978 3.933 35.94 7.944 31.93 -25.01 11.96 -9.045 19.98 1.966 28
4.81 -21 -16.04 -22.02 -1.022 -13.06 12.98 -3.067 46.96 8.966 43.97 -30.04 25.96 -23.04 30.99 -2.045 36.97
4.815 -17.07 -6.056 -24.07 7.944 -21 21.94 -9.045 52.93 7 46.96 -32.01 39.96 -31.07 42 -4.011 44.99
4.82 -7 0.9438 -19.03 23.99 -21 33.98 -13.06 51.99 0 37.99 -23.04 47.98 -31.07 47.98 -7 39.96
4.825 0.9438 0 -9.045 33.98 -15.02 37.99 -17.07 42 -9.045 16.99 -13.06 43.97 -23.04 47.98 -9.045 30.99
4.83 4.955 0.9438 -2.045 35.94 -9.045 35.94 -25.01 23.99 -29.02 -8.022 -1.022 29.97 -15.02 35.94 -13.06 12.98
4.835 10.93 -3.067 9.989 29.97 -3.067 28 -31.07 1.966 -39.01 -37.04 3.933 14 -7 19.98 -11.01 0
4.84 16.99 -7 19.98 19.98 0 14 -33.03 -11.01 -37.04 -46.01 14 1.966 -2.045 1.966 -5.034 0
4.845 22.97 -7 25.96 9.989 7.944 3.933 -25.01 -17.07 -17.07 -41.06 23.99 0.9438 5.978 -7 7.944 0.9438
4.85 26.98 -5.034 25.96 3.933 15.97 -2.045 -13.06 -17.07 1.966 -25.01 29.97 -1.022 11.96 -19.03 25.96 -1.022
4.855 24.93 -1.022 17.93 -2.045 14 -3.067 -3.067 -13.06 15.97 -9.045 29.97 -7 11.96 -25.01 35.94 -7
4.86 18.96 -3.067 5.978 -1.022 3.933 -13.06 -3.067 -13.06 14 -5.034 21.94 -15.02 5.978 -25.01 33.98 -21
4.865 7 -11.01 -5.034 -9.045 -11.01 -27.06 -11.01 -21 0 -11.01 7.944 -21 0.9438 -25.01 23.99 -33.03
4.87 -1.022 -19.03 -19.03 -17.07 -33.03 -43.02 -19.03 -27.06 -9.045 -15.02 -1.022 -25.01 -7 -21 17.93 -35
4.875 -11.01 -25.01 -27.06 -23.04 -45.07 -53.01 -23.04 -29.02 -13.06 -13.06 -11.01 -23.04 -11.01 -17.07 19.98 -23.04
4.88 -17.07 -25.01 -29.02 -23.04 -45.07 -53.01 -17.07 -23.04 -3.067 -3.067 -17.07 -17.07 -9.045 -15.02 28 -3.067
4.885 -19.03 -21 -27.06 -21 -33.03 -43.02 -5.034 -9.045 5.978 3.933 -17.07 -13.06 -7 -11.01 35.94 14
4.89 -19.03 -15.02 -25.01 -17.07 -19.03 -29.02 1.966 0 14 9.989 -17.07 -9.045 -5.034 -5.034 33.98 25.96
4.895 -15.02 -11.01 -23.04 -13.06 -9.045 -13.06 3.933 11.96 7.944 5.978 -19.03 -7 -7 -2.045 17.93 25.96
4.9 -11.01 -9.045 -21 -9.045 -5.034 -1.022 0 17.93 -1.022 0 -21 -5.034 -11.01 7.944 0.9438 19.98
4.905 -5.034 -3.067 -17.07 -7 -3.067 5.978 -1.022 23.99 -13.06 0 -19.03 0.9438 -15.02 15.97 -17.07 14
4.91 -1.022 5.978 -7 -2.045 0 17.93 -1.022 35.94 -15.02 9.989 -15.02 9.989 -13.06 25.96 -23.04 14
4.915 8.966 21.94 3.933 11.96 15.97 31.93 1.966 51.99 -5.034 29.97 -7 25.96 -7 35.94 -19.03 23.99
4.92 16.99 39.96 23.99 29.97 35.94 47.98 15.97 67.96 7.944 49.94 0.9438 39.96 -2.045 43.97 -7 37.99
4.925 24.93 47.98 37.99 43.97 56 59.93 31.93 79.99 23.99 59.93 0 45.93 9.989 45.93 0 47.98
4.93 32.96 43.97 45.93 51.99 63.94 63.94 42 77.94 28 59.93 0 42 15.97 42 9.989 51.99
4.935 36.97 33.98 45.93 47.98 61.98 56 43.97 65.99 21.94 45.93 1.966 29.97 19.98 31.93 15.97 45.93
4.94 40.98 19.98 39.96 39.96 49.94 37.99 35.94 43.97 11.96 25.96 3.933 15.97 21.94 19.98 21.94 33.98
4.945 40.98 11.96 29.97 28 31.93 19.98 25.96 23.99 3.933 3.933 5.978 5.978 21.94 9.989 23.99 21.94
4.95 36.97 5.978 19.98 17.93 15.97 3.933 11.96 7.944 0 -9.045 9.989 1.966 19.98 5.978 25.96 11.96
4.955 22.97 0 5.978 9.989 5.978 0.9438 1.966 0.9438 0.9438 -23.04 7.944 1.966 15.97 3.933 23.99 3.933
4.96 2.989 -7 -3.067 0 0 -3.067 -3.067 -7 -3.067 -31.07 3.933 1.966 9.989 0 17.93 0.9438
4.965 -9.045 -21 -15.02 -7 0.9438 -4.011 -9.045 -8.022 -8.022 -29.02 -2.045 -2.045 2.989 0.9438 11.96 -7
4.97 -21 -31.07 -20.06 -15.02 1.966 -10.07 -10.07 -14 -14 -21 -2.045 -3.067 1.966 -10.07 9.989 -17.07
4.975 -21 -29.02 -19.03 -19.03 0 -17.07 -7 -17.07 -15.02 -13.06 1.966 -9.045 0.9438 -19.03 9.989 -23.04
4.98 -7 -18.01 -12.03 -21 2.989 -24.07 -2.045 -14 -6.056 -5.034 8.966 -15.02 0.9438 -20.06 14 -26.03
4.985 0.9438 -4.011 -4.011 -16.04 8.966 -30.04 0.9438 -8.022 2.989 0 12.98 -18.01 7 -16.04 17.93 -24.07
4.99 8.966 0.9438 -3.067 -15.02 7.944 -35 5.978 -5.034 11.96 0.9438 9.989 -23.04 11.96 -15.02 17.93 -23.04
4.995 2.989 -2.045 -10.07 -22.02 4.955 -31.07 7 0.9438 15.97 -2.045 0.9438 -26.03 11.96 -12.03 10.93 -18.01
5 -7 -10.07 -23.04 -32.01 0.9438 -33.03 1.966 -2.045 7.944 -6.056 -4.011 -26.03 3.933 -15.02 2.989 -14
5.005 -23.04 -17.07 -31.07 -41.06 -7 -33.03 0.9438 0 0 -7 -9.045 -25.01 -2.045 -17.07 -1.022 -7
5.01 -25.01 -10.07 -27.06 -37.04 -7 -23.04 0.9438 7 0.9438 -5.034 -4.011 -13.06 0.9438 -9.045 -2.045 -2.045
5.015 -13.06 -2.045 -9.045 -19.03 0.9438 -5.034 0.9438 19.98 11.96 1.966 5.978 -2.045 7 3.933 1.966 14.94
5.02 8.966 14.94 8.966 4.955 14.94 19.98 12.98 35.94 28 18.96 18.96 14.94 18.96 23.99 10.93 28
5.025 35 23.99 33.98 29.97 37.99 45.93 26.98 51.99 45.93 31.93 31.93 23.99 30.99 43.97 21 36.97
5.03 52.93 26.98 47.98 47.98 53.96 67.96 35.94 60.96 50.97 37.99 38.93 28 39.96 56 28.94 37.99
5.035 56.94 21.94 45.93 47.98 57.97 73.93 31.93 61.98 43.97 37.99 33.98 25.96 37.99 51.99 25.96 31.93
5.04 49 22.97 39.96 38.93 49.94 63.94 25.96 53.96 28 32.96 26.98 21 31.93 43.97 18.96 18.96
5.045 28.94 26.98 24.93 18.96 30.99 37.99 10.93 39.96 7.944 26.98 7 12.98 17.93 30.99 4.955 4.955
5.05 8.966 25.96 7.944 0 7.944 7.944 0.9438 19.98 -7 15.97 -7 3.933 0 15.97 -5.034 -3.067
5.055 0.9438 21 0 -12.03 -6.056 -12.03 -12.03 0.9438 -18.01 8.966 -18.01 0.9438 -10.07 8.966 -15.02 -8.022
5.06 -7 7 -12.03 -23.04 -16.04 -26.03 -20.06 -8.022 -24.07 -2.045 -20.06 -2.045 -16.04 0.9438 -19.03 -10.07
5.065 -9.045 -3.067 -19.03 -27.06 -17.07 -31.07 -19.03 -15.02 -21 -7 -13.06 -2.045 -15.02 -1.022 -15.02 -11.01
5.07 -1.022 -9.045 -14 -21 -8.022 -22.02 -10.07 -16.04 -12.03 -11.01 0.9438 -2.045 -2.045 0 -9.045 -13.06
5.075 12.98 -1.022 -5.034 -7 0 -8.022 -2.045 -10.07 -6.056 -9.045 7.944 3.933 7 -2.045 0.9438 -13.06
5.08 26.98 14 9.989 11.96 14 3.933 11.96 -1.022 -1.022 -1.022 14 9.989 17.93 5.978 5.978 -13.06
5.085 35 37.99 25.96 31.93 29.97 17.93 25.96 1.966 1.966 0 17.93 15.97 28 14 15.97 -7
5.09 36.97 51.99 42 45.93 45.93 28 37.99 7.944 9.989 3.933 19.98 23.99 35.94 19.98 25.96 -2.045
5.095 35 59.93 51.99 49.94 57.97 33.98 45.93 7.944 19.98 1.966 25.96 25.96 43.97 19.98 35.94 3.933
5.1 30.99 57.97 51.99 43.97 61.98 33.98 51.99 3.933 23.99 -2.045 33.98 23.99 49.94 19.98 39.96 1.966
5.105 26.98 45.93 43.97 29.97 56 28 49.94 0.9438 19.98 -2.045 33.98 14 49.94 17.93 37.99 0.9438
5.11 21 28 25.96 9.989 39.96 19.98 39.96 -5.034 9.989 3.933 25.96 1.966 39.96 19.98 29.97 -7
5.115 8.966 9.989 5.978 -3.067 14 11.96 23.99 -9.045 -2.045 11.96 9.989 -1.022 21.94 21.94 17.93 -11.01
5.12 0.9438 0.9438 -3.067 -13.06 -5.034 7.944 5.978 -11.01 -1.022 19.98 -1.022 -5.034 3.933 23.99 5.978 -7
5.125 -9.045 -5.034 -7 -11.01 -19.03 9.989 -1.022 -11.01 0.9438 21.94 -9.045 -3.067 -5.034 21.94 -2.045 -2.045
5.13 -7 -1.022 0 0.9438 -19.03 14 -5.034 -9.045 3.933 17.93 -5.034 0.9438 -9.045 17.93 -3.067 7.944
5.135 0.9438 3.933 19.98 14 -9.045 19.98 -1.022 -11.01 7.944 9.989 1.966 -2.045 -3.067 14 -5.034 9.989
5.14 16.99 15.97 39.96 29.97 0 23.99 0 -15.02 1.966 1.966 15.97 0.9438 0 5.978 -5.034 1.966
5.145 30.99 23.99 51.99 37.99 11.96 21.94 3.933 -23.04 -5.034 0.9438 23.99 -7 3.933 -1.022 -7 -11.01
5.15 30.99 25.96 49.94 33.98 15.97 15.97 3.933 -35 -17.07 -1.022 23.99 -13.06 1.966 -15.02 -7 -27.06
5.155 18.96 21.94 39.96 21.94 15.97 3.933 1.966 -43.02 -23.04 0.9438 15.97 -17.07 -2.045 -25.01 -9.045 -35
5.16 0.9438 14 23.99 7.944 11.96 -3.067 0 -49 -19.03 0 7.944 -19.03 -3.067 -31.07 -9.045 -33.03
5.165 -9.045 3.933 9.989 -1.022 3.933 -17.07 0 -49 -9.045 3.933 0 -19.03 -5.034 -33.03 -11.01 -23.04
5.17 -17.07 -3.067 0.9438 -17.07 -3.067 -31.07 0.9438 -51.04 -3.067 1.966 -1.022 -21 -7 -29.02 -13.06 -11.01
5.175 -21 -17.07 -11.01 -31.07 -21 -45.07 -7 -57.02 -3.067 0.9438 -5.034 -27.06 -11.01 -25.01 -15.02 -5.034
5.18 -23.04 -27.06 -21 -43.02 -43.02 -59.07 -21 -65.04 -9.045 -7 -11.01 -31.07 -19.03 -23.04 -17.07 -3.067
5.185 -29.02 -33.03 -31.07 -53.01 -59.07 -65.04 -35 -73.07 -15.02 -17.07 -17.07 -33.03 -27.06 -21 -19.03 -5.034
5.19 -39.01 -33.03 -35 -55.06 -69.06 -65.04 -45.07 -73.07 -15.02 -21 -21 -31.07 -31.07 -17.07 -19.03 -9.045
5.195 -43.02 -29.02 -33.03 -49 -67.01 -55.06 -43.02 -65.04 -13.06 -19.03 -18.01 -27.06 -29.02 -11.01 -16.04 -9.045
5.2 -43.02 -25.01 -25.01 -37.04 -53.01 -39.01 -27.06 -49 -5.034 -11.01 -12.03 -21 -18.01 -5.034 -12.03 -9.045
5.205 -35 -15.02 -11.01 -25.01 -33.03 -19.03 -5.034 -29.02 0.9438 -3.067 0.9438 -15.02 -1.022 -1.022 -3.067 -7
5.21 -15.02 -9.045 0.9438 -11.01 -10.07 0.9438 12.98 -15.02 7 -2.045 12.98 -13.06 10.93 0 7 -7
5.215 0.9438 -1.022 12.98 -1.022 7 14 30.99 -9.045 14.94 -2.045 26.98 -11.01 24.93 -4.011 18.96 -7
5.22 4.955 1.966 19.98 1.966 21.94 23.99 42 -11.01 21.94 0.9438 33.98 -15.02 31.93 -13.06 25.96 -13.06
5.225 4.955 9.989 21 7.944 30.99 25.96 46.96 -19.03 30.99 -3.067 35.94 -17.07 35 -24.07 31.93 -21
5.23 2.989 11.96 16.99 10.93 32.96 19.98 44.99 -23.04 30.99 -3.067 29.97 -23.04 32.96 -30.04 29.97 -27.06
5.235 -1.022 14 5.978 15.97 23.99 14 33.98 -25.01 25.96 -2.045 19.98 -23.04 25.96 -37.04 21.94 -29.02
5.24 -1.022 14 0 18.96 15.97 9.989 23.99 -19.03 19.98 5.978 12.98 -19.03 17.93 -29.02 16.99 -23.04
5.245 -1.022 22.97 1.966 22.97 1.966 9.989 7.944 -7 5.978 11.96 1.966 -11.01 7 -23.04 7.944 -11.01
5.25 -3.067 33.98 -1.022 29.97 -3.067 11.96 -1.022 0.9438 -1.022 14 -1.022 -1.022 -1.022 -9.045 -1.022 -2.045
5.255 -3.067 46.96 -3.067 29.97 -12.03 17.93 -12.03 3.933 -8.022 11.96 -13.06 3.933 -13.06 1.966 -15.02 7.944
5.26 -11.01 51.99 -9.045 30.99 -22.02 18.96 -21 7 -19.03 8.966 -26.03 12.98 -27.06 16.99 -25.01 15.97
5.265 -25.01 44.99 -21 23.99 -32.01 14.94 -29.02 7 -26.03 7 -41.06 18.96 -39.01 28.94 -33.03 19.98
5.27 -33.03 28 -39.01 12.98 -42 4.955 -35 2.989 -33.03 7 -50.02 24.93 -49 35 -35 23.99
5.275 -43.02 8.966 -53.01 0 -52.07 -1.022 -44.04 0.9438 -38.07 3.933 -53.01 28 -55.06 35.94 -35 28
5.28 -51.04 -3.067 -63 -5.034 -61.03 -13.06 -53.01 -9.045 -43.02 0 -53.01 28 -57.02 31.93 -31.07 25.96
5.285 -51.04 -6.056 -63 -10.07 -65.04 -23.04 -57.02 -19.03 -43.02 -5.034 -51.04 21.94 -54.03 21.94 -27.06 17.93
5.29 -47.03 0.9438 -59.07 -12.03 -63 -29.02 -59.07 -27.06 -39.01 -17.07 -46.01 14 -47.03 9.989 -24.07 3.933
5.295 -37.04 7.944 -51.04 -9.045 -59.07 -33.03 -57.02 -35 -39.01 -25.01 -41.06 1.966 -39.01 0.9438 -21 -3.067
5.3 -21 19.98 -36.02 -6.056 -48.06 -37.04 -44.04 -35 -28 -27.06 -33.03 -3.067 -26.03 -12.03 -13.06 -13.06
5.305 -9.045 23.99 -22.02 -5.034 -34.06 -37.04 -28 -31.07 -14 -23.04 -25.01 -7 -16.04 -22.02 -5.034 -21
5.31 -1.022 19.98 -13.06 -9.045 -27.06 -33.03 -13.06 -25.01 -3.067 -19.03 -21 -9.045 -11.01 -27.06 -1.022 -27.06
5.315 -1.022 7.944 -8.022 -11.01 -18.01 -33.03 -1.022 -23.04 4.955 -15.02 -16.04 -9.045 -8.022 -30.04 0.9438 -29.02
5.32 -11.01 -3.067 -8.022 -19.03 -14 -33.03 4.955 -23.04 8.966 -17.07 -16.04 -13.06 -4.011 -32.01 2.989 -31.07
5.325 -23.04 -17.07 -9.045 -25.01 -9.045 -35 7.944 -25.01 11.96 -23.04 -9.045 -21 -2.045 -39.01 1.966 -29.02
5.33 -29.02 -29.02 -5.034 -27.06 -2.045 -35 14 -27.06 14 -25.01 0 -33.03 8.966 -43.02 4.955 -19.03
5.335 -27.06 -35 0.9438 -27.06 15.97 -31.07 19.98 -21 19.98 -21 8.966 -45.07 19.98 -43.02 12.98 -9.045
5.34 -23.04 -35 5.978 -21 33.98 -21 28 -9.045 25.96 -11.01 19.98 -53.01 29.97 -37.04 17.93 0.9438
5.345 -15.02 -33.03 11.96 -15.02 47.98 -5.034 35.94 1.966 31.93 0 28 -53.01 33.98 -29.02 21.94 3.933
5.35 -11.01 -27.06 17.93 -5.034 49.94 5.978 35.94 19.98 31.93 14 29.97 -45.07 35.94 -23.04 23.99 11.96
5.355 -7 -19.03 17.93 0.9438 43.97 17.93 31.93 31.93 28 21.94 28 -35 31.93 -17.07 25.96 15.97
5.36 -5.034 -13.06 19.98 3.933 29.97 25.96 19.98 35.94 17.93 23.99 21.94 -23.04 28 -15.02 28 21.94
5.365 0.9438 -5.034 21.94 9.989 17.93 23.99 7.944 35.94 9.989 19.98 15.97 -11.01 19.98 -9.045 25.96 21.94
5.37 7 -2.045 25.96 17.93 7.944 19.98 0.9438 31.93 3.933 17.93 14 0.9438 11.96 -1.022 21.94 17.93
5.375 14.94 7.944 29.97 25.96 3.933 11.96 -7 28 1.966 19.98 14 7.944 3.933 7.944 11.96 14
5.38 16.99 17.93 33.98 31.93 5.978 5.978 -11.01 25.96 1.966 23.99 14 19.98 0.9438 19.98 0 9.989
5.385 10.93 25.96 35.94 31.93 7.944 -2.045 -13.06 23.99 0 23.99 14 28 -3.067 23.99 -3.067 9.989
5.39 2.989 28 33.98 29.97 9.989 -5.034 -11.01 17.93 0.9438 15.97 11.96 29.97 0.9438 17.93 -3.067 9.989
5.395 0.9438 21.94 29.97 21.94 14 -11.01 -11.01 7.944 -1.022 0 9.989 25.96 3.933 3.933 0.9438 5.978
5.4 0.9438 14 23.99 14 17.93 -13.06 -9.045 0 -3.067 -13.06 5.978 23.99 11.96 -5.034 3.933 0
5.405 0.9438 3.933 11.96 5.978 17.93 -9.045 -11.01 0.9438 -5.034 -25.01 1.966 19.98 15.97 -7 5.978 -1.022
5.41 2.989 -1.022 1.966 0 11.96 -2.045 -13.06 -2.045 -7 -25.01 0 19.98 14 -1.022 3.933 -5.034
5.415 -1.022 -9.045 -5.034 -1.022 5.978 9.989 -13.06 3.933 -7 -19.03 0.9438 15.97 7.944 3.933 0 -7
5.42 -9.045 -13.06 -13.06 -5.034 0.9438 17.93 -13.06 9.989 -3.067 -11.01 -1.022 11.96 0 7.944 1.966 -7
5.425 -19.03 -9.045 -13.06 -11.01 -7 15.97 -11.01 9.989 -1.022 -7 -3.067 3.933 0.9438 0 9.989 -9.045
5.43 -25.01 -5.034 -11.01 -17.07 -10.07 1.966 -11.01 1.966 -2.045 -11.01 -3.067 -3.067 -1.022 -11.01 19.98 -17.07
5.435 -23.04 0.9438 -3.067 -23.04 -11.01 -15.02 -13.06 -9.045 0.9438 -23.04 -3.067 -17.07 -1.022 -31.07 25.96 -29.02
5.44 -13.06 0 0 -29.02 -10.07 -41.06 -17.07 -27.06 -1.022 -35 -2.045 -29.02 0.9438 -49 23.99 -41.06
5.445 0.9438 0.9438 4.955 -35 -6.056 -63 -18.01 -45.07 -5.034 -41.06 3.933 -41.06 0 -61.03 15.97 -51.04
5.45 8.966 -7 1.966 -39.01 -1.022 -81.01 -19.03 -55.06 -7 -37.04 9.989 -47.03 5.978 -69.06 9.989 -53.01
5.455 16.99 -13.06 -1.022 -39.01 4.955 -85.02 -10.07 -53.01 -3.067 -23.04 14 -49 9.989 -67.01 7.944 -49
5.46 16.99 -17.07 -4.011 -37.04 14.94 -78.02 0 -41.06 0.9438 -7 14 -43.02 12.98 -59.07 9.989 -35
5.465 7 -19.03 -9.045 -31.07 21.94 -61.03 5.978 -21 0 1.966 14 -33.03 14 -47.03 14 -19.03
5.47 -3.067 -18.01 -12.03 -26.03 29.97 -38.07 12.98 -1.022 0.9438 7.944 5.978 -24.07 8.966 -33.03 14 -5.034
5.475 -13.06 -16.04 -12.03 -20.06 21.94 -18.01 9.989 5.978 0 1.966 1.966 -20.06 2.989 -22.02 11.96 0.9438
5.48 -13.06 -11.01 -7 -17.07 14 0.9438 1.966 9.989 -7 -1.022 -2.045 -21 0.9438 -19.03 3.933 -1.022
5.485 -3.067 -2.045 0.9438 -8.022 1.966 8.966 -1.022 12.98 -8.022 -4.011 0.9438 -20.06 -6.056 -14 -1.022 -9.045
5.49 8.966 7 2.989 0.9438 -8.022 21.94 -8.022 16.99 -6.056 1.966 -1.022 -18.01 -11.01 -10.07 0 -15.02
5.495 21 17.93 -2.045 9.989 -27.06 29.97 -13.06 21.94 -5.034 1.966 -3.067 -11.01 -19.03 -1.022 -7 -11.01
5.5 26.98 24.93 -5.034 18.96 -42 33.98 -21 25.96 -9.045 5.978 -8.022 1.966 -23.04 5.978 -7 -5.034
5.505 24.93 25.96 -21 21 -58.04 28.94 -33.03 21.94 -14 1.966 -14 4.955 -30.04 14 -11.01 0.9438
5.51 14.94 21 -33.03 16.99 -66.07 18.96 -40.03 7.944 -17.07 -14 -18.01 8.966 -34.06 12.98 -12.03 0
5.515 8.966 17.93 -33.03 16.99 -62.06 4.955 -43.02 -1.022 -16.04 -25.01 -20.06 14.94 -28 7.944 -7 -1.022
5.52 0.9438 12.98 -21 14.94 -44.04 -1.022 -35 -11.01 -9.045 -27.06 -10.07 18.96 -11.01 5.978 -3.067 -9.045
5.525 -1.022 5.978 -5.034 11.96 -21 -9.045 -21 -13.06 0.9438 -23.04 -3.067 19.98 0.9438 0 -3.067 -15.02
5.53 -7 -1.022 2.989 8.966 -1.022 -11.01 -6.056 -4.011 2.989 -12.03 0 21 7.944 0.9438 0 -13.06
5.535 -15.02 -8.022 3.933 1.966 11.96 -20.06 -2.045 -1.022 0.9438 -8.022 0 14.94 7 1.966 -2.045 -11.01
5.54 -25.01 -23.04 -2.045 -17.07 9.989 -35 -2.045 -2.045 -3.067 -11.01 -1.022 3.933 -2.045 -7 -3.067 -11.01
5.545 -31.07 -28 -8.022 -36.02 1.966 -48.06 -3.067 -3.067 -8.022 -21 -5.034 1.966 -6.056 -14 -2.045 -17.07
5.55 -27.06 -28 -14 -42 0.9438 -56 -8.022 -13.06 -8.022 -29.02 -7 -2.045 -10.07 -21 3.933 -25.01
5.555 -17.07 -19.03 -11.01 -35 -5.034 -53.01 -13.06 -17.07 -9.045 -27.06 -7 -1.022 -11.01 -19.03 5.978 -25.01
5.56 -3.067 -11.01 -1.022 -17.07 -6.056 -34.06 -14 -9.045 -5.034 -17.07 -3.067 0 -6.056 -13.06 3.933 -17.07
5.565 8.966 -5.034 14.94 1.966 -8.022 -11.01 -14 -1.022 -5.034 -5.034 0.9438 7.944 -5.034 -1.022 0.9438 -2.045
5.57 16.99 -1.022 29.97 23.99 -13.06 5.978 -17.07 1.966 -7 0 -2.045 11.96 -7 3.933 -9.045 17.93
5.575 18.96 0 40.98 37.99 -18.01 19.98 -18.01 5.978 -7 3.933 -2.045 15.97 -9.045 9.989 -17.07 25.96
5.58 12.98 3.933 42 43.97 -20.06 25.96 -21 3.933 -7 1.966 1.966 17.93 -11.01 9.989 -19.03 17.93
5.585 7 7.944 39.96 39.96 -15.02 25.96 -15.02 1.966 -5.034 -2.045 7.944 19.98 -7 7.944 -17.07 3.933
5.59 7 7.944 35.94 35.94 0 28 -5.034 3.933 -2.045 -2.045 14 21.94 -1.022 7.944 -9.045 0.9438
5.595 8.966 3.933 31.93 29.97 11.96 31.93 5.978 14 7.944 1.966 15.97 19.98 1.966 14 -2.045 0
5.6 14.94 0 25.96 25.96 25.96 37.99 21.94 28 15.97 9.989 14 15.97 7.944 19.98 9.989 11.96
5.605 18.96 0 19.98 21.94 31.93 39.96 31.93 37.99 23.99 14 9.989 9.989 11.96 25.96 23.99 23.99
5.61 18.96 3.933 14 17.93 29.97 35.94 35.94 42 28 17.93 9.989 3.933 14 23.99 35.94 23.99
5.615 21 11.96 9.989 14 25.96 25.96 35.94 39.96 29.97 21.94 11.96 0 15.97 17.93 42 14
5.62 22.97 21.94 11.96 14 21.94 15.97 31.93 35.94 31.93 23.99 17.93 1.966 15.97 11.96 39.96 3.933
5.625 28.94 28 19.98 17.93 25.96 11.96 25.96 33.98 29.97 23.99 19.98 11.96 14 9.989 25.96 1.966
5.63 30.99 29.97 29.97 21.94 29.97 11.96 21.94 31.93 23.99 19.98 19.98 23.99 9.989 14 9.989 11.96
5.635 30.99 31.93 37.99 25.96 35.94 14 17.93 25.96 15.97 7.944 11.96 33.98 5.978 23.99 -3.067 23.99
5.64 22.97 29.97 39.96 23.99 37.99 15.97 14 17.93 5.978 -1.022 5.978 37.99 5.978 31.93 -11.01 31.93
5.645 12.98 28 35.94 19.98 39.96 14 14 7.944 0 -13.06 0 35.94 7.944 35.94 -11.01 35.94
5.65 4.955 23.99 29.97 14 42 14 17.93 1.966 3.933 -11.01 -2.045 29.97 9.989 39.96 -3.067 39.96
5.655 2.989 17.93 23.99 9.989 42 15.97 25.96 5.978 14 -2.045 -2.045 25.96 11.96 42 1.966 45.93
5.66 4.955 7.944 15.97 7.944 35.94 23.99 31.93 15.97 21.94 19.98 -2.045 19.98 5.978 42 9.989 53.96
5.665 7 0.9438 1.966 1.966 17.93 29.97 25.96 28 19.98 35.94 -5.034 14 -1.022 37.99 9.989 56
5.67 7 -6.056 -7 -1.022 -5.034 31.93 7.944 29.97 5.978 37.99 -13.06 5.978 -15.02 29.97 1.966 45.93
5.675 0.9438 -8.022 -21 -11.01 -33.03 23.99 -11.01 23.99 -7 29.97 -21 0 -27.06 17.93 -5.034 28
5.68 -5.034 -9.045 -29.02 -21 -53.01 11.96 -31.07 11.96 -23.04 14 -23.04 -1.022 -33.03 3.933 -17.07 9.989
5.685 -13.06 -2.045 -29.02 -27.06 -55.06 -1.022 -37.04 0 -24.07 0 -17.07 -8.022 -29.02 0 -20.06 2.989
5.69 -17.07 -2.045 -25.01 -30.04 -39.01 -10.07 -29.02 0 -16.04 -5.034 -4.011 -16.04 -17.07 -8.022 -16.04 0.9438
5.695 -17.07 -7 -21 -37.04 -15.02 -19.03 -11.01 -5.034 -5.034 -9.045 1.966 -27.06 -1.022 -15.02 -11.01 1.966
5.7 -13.06 -13.06 -21 -42 1.966 -26.03 7 -6.056 2.989 -13.06 10.93 -36.02 10.93 -22.02 1.966 0.9438
5.705 -7 -19.03 -21 -48.06 15.97 -32.01 24.93 -6.056 8.966 -15.02 16.99 -42 22.97 -30.04 4.955 -4.011
5.71 -1.022 -23.04 -21 -51.04 19.98 -39.01 35.94 -5.034 14 -11.01 19.98 -41.06 31.93 -33.03 11.96 -13.06
5.715 0.9438 -12.03 -15.02 -46.01 22.97 -35 40.98 1.966 22.97 0.9438 18.96 -29.02 36.97 -23.04 21 -11.01
5.72 4.955 0.9438 -11.01 -36.02 22.97 -25.01 40.98 8.966 31.93 14 14.94 -13.06 35 -7 23.99 -1.022
5.725 7 15.97 -5.034 -21 21.94 -15.02 35.94 21.94 35.94 33.98 3.933 0 28 7.944 23.99 14
5.73 4.955 28.94 -3.067 -3.067 22.97 0 33.98 33.98 39.96 50.97 0.9438 16.99 23.99 30.99 24.93 38.93
5.735 0.9438 35.94 -1.022 8.966 21.94 9.989 23.99 42.94 36.97 54.98 -6.056 31.93 14 51.99 18.96 59.93
5.74 0.9438 31.93 -2.045 21.94 11.96 21.94 15.97 47.98 25.96 49.94 -13.06 39.96 5.978 59.93 3.933 71.97
5.745 -1.022 33.98 1.966 31.93 7 33.98 1.966 49.94 10.93 39.96 -15.02 43.97 1.966 61.98 -10.07 70.94
5.75 2.989 40.98 1.966 32.96 -1.022 42 -6.056 46.96 -4.011 25.96 -20.06 42.94 -12.03 53.96 -29.02 60.96
5.755 7 51.99 0.9438 33.98 -13.06 44.99 -26.03 39.96 -23.04 12.98 -27.06 36.97 -24.07 45.93 -48.06 42.94
5.76 4.955 63 -7 30.99 -27.06 42 -42 30.99 -40.03 3.933 -30.04 28.94 -34.06 29.97 -57.02 26.98
5.765 -1.022 65.99 -15.02 25.96 -30.04 31.93 -49 17.93 -50.02 0.9438 -29.02 23.99 -36.02 19.98 -58.04 16.99
5.77 -1.022 59.93 -17.07 21.94 -27.06 15.97 -47.03 5.978 -51.04 -7 -23.04 19.98 -35 11.96 -51.04 9.989
5.775 -7 51.99 -11.01 21 -15.02 9.989 -35 -1.022 -44.04 -12.03 -10.07 21.94 -27.06 9.989 -40.03 9.989
5.78 -5.034 38.93 -3.067 19.98 -4.011 4.955 -19.03 0.9438 -31.07 -14 0.9438 24.93 -13.06 7 -32.01 7
5.785 -5.034 31.93 -2.045 14 0 3.933 -9.045 0.9438 -19.03 -11.01 1.966 25.96 -7 5.978 -25.01 3.933
5.79 -5.034 35 -2.045 8.966 7 3.933 0 -1.022 -9.045 -3.067 2.989 25.96 -2.045 9.989 -19.03 3.933
5.795 -7 42.94 -3.067 -1.022 7 1.966 -1.022 4.955 -4.011 3.933 -1.022 25.96 0 19.98 -16.04 11.96
5.8 -9.045 53.96 -9.045 -5.034 1.966 -2.045 1.966 9.989 -1.022 15.97 -5.034 21.94 -3.067 28 -11.01 21.94
5.805 -5.034 61.98 -15.02 -8.022 -1.022 1.966 2.989 18.96 1.966 19.98 -10.07 22.97 -6.056 38.93 -4.011 30.99
5.81 -1.022 59.93 -15.02 -10.07 -9.045 -1.022 0.9438 24.93 -1.022 17.93 -18.01 21 -10.07 38.93 0 32.96
5.815 0.9438 47.98 -17.07 -11.01 -19.03 0.9438 -1.022 21.94 -2.045 5.978 -25.01 11.96 -17.07 25.96 -2.045 19.98
5.82 -3.067 32.96 -23.04 -14 -31.07 0 -13.06 12.98 0 -1.022 -30.04 -1.022 -23.04 7 0 2.989
5.825 -15.02 16.99 -33.03 -19.03 -39.01 -6.056 -23.04 1.966 -8.022 -5.034 -35 -12.03 -31.07 -6.056 -6.056 -4.011
5.83 -29.02 1.966 -43.02 -25.01 -41.06 -13.06 -29.02 0.9438 -17.07 -1.022 -33.03 -21 -33.03 -17.07 -13.06 -7
5.835 -35 1.966 -45.07 -27.06 -33.03 -13.06 -25.01 -1.022 -21 1.966 -25.01 -21 -29.02 -15.02 -11.01 -3.067
5.84 -29.02 -1.022 -39.01 -23.04 -17.07 -9.045 -11.01 -2.045 -15.02 11.96 -17.07 -13.06 -19.03 -3.067 -3.067 0.9438
5.845 -11.01 5.978 -21 -13.06 -2.045 -1.022 1.966 1.966 -3.067 14 -9.045 -1.022 -5.034 1.966 3.933 -2.045
5.85 4.955 17.93 -3.067 -1.022 14 0 15.97 1.966 7.944 9.989 -5.034 1.966 1.966 9.989 11.96 0.9438
5.855 21 31.93 3.933 3.933 19.98 1.966 25.96 0 17.93 1.966 -7 7.944 5.978 9.989 11.96 -1.022
5.86 24.93 39.96 7.944 5.978 15.97 -2.045 21.94 0.9438 15.97 0.9438 -11.01 9.989 3.933 5.978 1.966 0.9438
5.865 21 42 1.966 1.966 3.933 -5.034 9.989 -3.067 3.933 -5.034 -15.02 14 -1.022 1.966 -5.034 1.966
5.87 10.93 35.94 -1.022 -1.022 -7 -11.01 -3.067 -9.045 -11.01 -9.045 -15.02 17.93 -13.06 0 -19.03 3.933
5.875 -1.022 28 -9.045 -7 -25.01 -19.03 -25.01 -15.02 -31.07 -17.07 -13.06 17.93 -23.04 0 -27.06 0
5.88 -3.067 15.97 -11.01 -13.06 -35 -23.04 -39.01 -23.04 -45.07 -27.06 -7 15.97 -31.07 -2.045 -33.03 -7
5.885 -5.034 5.978 -7 -13.06 -41.06 -29.02 -47.03 -31.07 -49 -35 -1.022 9.989 -31.07 -1.022 -37.04 -21
5.89 -1.022 -2.045 -1.022 -11.01 -37.04 -33.03 -45.07 -35 -43.02 -35 3.933 3.933 -27.06 -1.022 -35 -29.02
5.895 10.93 -1.022 1.966 -7 -25.01 -31.07 -33.03 -33.03 -27.06 -29.02 14 1.966 -17.07 -2.045 -29.02 -27.06
