    T[sec] Fp1 Fp2 F3  F4  C3  C4  P3  P4  O1  O2  F7  F8  T3  T4  T5  T6  Fz  Cz  Pz 
30 1000 1000 1000 1000 1000 1000 1000 1000 1000 1000 1000 1000 1000 1000 1000 1000 1000 1000 1000
1.185 351.7 -205.2 273.6 0 97.7 -97.7 -78.16 -342 -87.93 -293.1 312.7 -117.2 -68.39 0 -58.62 -195.4 136.8 48.85 -19.54
1.19 342 -195.4 332.2 107.5 195.4 78.16 78.16 -87.93 87.93 -97.7 312.7 -39.08 -29.31 58.62 -19.54 -87.93 205.2 195.4 195.4
1.195 332.2 -156.3 371.3 234.5 342 263.8 244.3 166.1 283.3 117.2 312.7 39.08 19.54 136.8 39.08 29.31 273.6 322.4 410.4
1.2 293.1 -146.6 381 312.7 429.9 390.8 381 390.8 439.7 312.7 283.3 48.85 39.08 185.6 87.93 136.8 293.1 371.3 537.4
1.205 214.9 -166.1 312.7 342 469 429.9 439.7 527.6 547.1 469 205.2 29.31 48.85 195.4 146.6 195.4 254 371.3 605.8
1.21 166.1 -175.9 234.5 302.9 449.4 400.6 439.7 566.7 586.2 517.8 146.6 -19.54 68.39 175.9 195.4 195.4 195.4 322.4 596
1.215 117.2 -185.6 146.6 234.5 351.7 322.4 351.7 537.4 537.4 488.5 97.7 -68.39 48.85 136.8 195.4 175.9 127 234.5 527.6
1.22 117.2 -146.6 97.7 175.9 244.3 234.5 244.3 469 429.9 410.4 78.16 -58.62 29.31 117.2 136.8 156.3 107.5 166.1 400.6
1.225 166.1 -68.39 117.2 136.8 195.4 185.6 97.7 361.5 293.1 293.1 97.7 -19.54 0 107.5 29.31 117.2 117.2 117.2 283.3
1.23 224.7 19.54 185.6 136.8 175.9 146.6 -9.77 244.3 127 185.6 127 39.08 -9.77 97.7 -68.39 87.93 146.6 87.93 185.6
1.235 254 48.85 224.7 156.3 205.2 127 -97.7 156.3 29.31 78.16 166.1 78.16 19.54 87.93 -136.8 58.62 166.1 78.16 78.16
1.24 273.6 29.31 234.5 156.3 244.3 107.5 -136.8 68.39 -68.39 -29.31 175.9 68.39 58.62 68.39 -146.6 -9.77 146.6 29.31 0
1.245 244.3 0 166.1 146.6 234.5 68.39 -205.2 9.77 -175.9 -117.2 166.1 19.54 107.5 68.39 -127 -68.39 97.7 -39.08 -97.7
1.25 185.6 -9.77 87.93 146.6 175.9 19.54 -234.5 -29.31 -214.9 -234.5 107.5 -9.77 117.2 58.62 -107.5 -117.2 29.31 -107.5 -224.7
1.255 127 -48.85 -9.77 127 87.93 -48.85 -302.9 -107.5 -273.6 -351.7 48.85 -9.77 68.39 39.08 -136.8 -185.6 -29.31 -195.4 -351.7
1.26 68.39 -78.16 -87.93 87.93 -29.31 -117.2 -361.5 -175.9 -322.4 -449.4 -9.77 0 -39.08 9.77 -214.9 -263.8 -87.93 -283.3 -469
1.265 9.77 -127 -166.1 48.85 -127 -156.3 -381 -205.2 -302.9 -459.2 -48.85 29.31 -136.8 -9.77 -273.6 -283.3 -166.1 -332.2 -508.1
1.27 -48.85 -195.4 -263.8 9.77 -214.9 -175.9 -342 -166.1 -244.3 -381 -39.08 -9.77 -205.2 -29.31 -332.2 -293.1 -224.7 -351.7 -488.5
1.275 -117.2 -273.6 -332.2 -19.54 -283.3 -185.6 -263.8 -68.39 -136.8 -234.5 -9.77 -29.31 -224.7 -39.08 -263.8 -263.8 -263.8 -322.4 -400.6
1.28 -195.4 -351.7 -381 -39.08 -332.2 -175.9 -166.1 29.31 -9.77 -87.93 0 -68.39 -195.4 -39.08 -195.4 -214.9 -302.9 -312.7 -302.9
1.285 -302.9 -439.7 -400.6 -78.16 -342 -214.9 -97.7 97.7 48.85 -19.54 -19.54 -127 -175.9 -39.08 -156.3 -195.4 -332.2 -302.9 -244.3
1.29 -400.6 -508.1 -410.4 -136.8 -371.3 -254 -78.16 117.2 39.08 -9.77 -97.7 -156.3 -166.1 -48.85 -185.6 -195.4 -342 -322.4 -254
1.295 -469 -537.4 -410.4 -146.6 -390.8 -263.8 -127 107.5 0 -68.39 -195.4 -156.3 -185.6 -58.62 -244.3 -214.9 -322.4 -332.2 -293.1
1.3 -469 -537.4 -361.5 -97.7 -371.3 -234.5 -175.9 68.39 -87.93 -136.8 -244.3 -107.5 -185.6 -68.39 -322.4 -244.3 -283.3 -322.4 -302.9
1.305 -439.7 -488.5 -293.1 -39.08 -322.4 -156.3 -195.4 58.62 -156.3 -166.1 -273.6 -29.31 -175.9 -68.39 -332.2 -244.3 -185.6 -273.6 -273.6
1.31 -371.3 -420.1 -205.2 48.85 -244.3 -87.93 -195.4 58.62 -156.3 -166.1 -244.3 19.54 -117.2 -78.16 -293.1 -244.3 -97.7 -195.4 -205.2
1.315 -263.8 -371.3 -78.16 97.7 -146.6 -58.62 -127 48.85 -136.8 -156.3 -175.9 68.39 -39.08 -97.7 -175.9 -224.7 9.77 -117.2 -97.7
1.32 -205.2 -322.4 19.54 78.16 -68.39 -78.16 -87.93 29.31 -117.2 -136.8 -127 78.16 48.85 -107.5 -87.93 -195.4 58.62 -58.62 -19.54
1.325 -185.6 -293.1 78.16 39.08 9.77 -127 -48.85 -29.31 -107.5 -166.1 -97.7 39.08 107.5 -117.2 9.77 -166.1 78.16 -29.31 39.08
1.33 -185.6 -273.6 127 -19.54 48.85 -195.4 -29.31 -87.93 -127 -224.7 -58.62 0 175.9 -127 78.16 -146.6 87.93 -39.08 68.39
1.335 -214.9 -273.6 127 -78.16 58.62 -254 -58.62 -127 -185.6 -312.7 -39.08 -58.62 224.7 -136.8 117.2 -156.3 78.16 -58.62 58.62
1.34 -224.7 -263.8 156.3 -136.8 39.08 -283.3 -107.5 -185.6 -273.6 -400.6 -29.31 -87.93 263.8 -127 136.8 -156.3 68.39 -68.39 19.54
1.345 -185.6 -263.8 156.3 -166.1 9.77 -302.9 -185.6 -205.2 -332.2 -459.2 -9.77 -146.6 254 -136.8 117.2 -175.9 29.31 -107.5 -19.54
1.35 -166.1 -224.7 136.8 -185.6 -29.31 -312.7 -254 -205.2 -371.3 -488.5 -9.77 -166.1 224.7 -146.6 68.39 -166.1 -19.54 -127 -87.93
1.355 -127 -175.9 127 -175.9 -48.85 -302.9 -283.3 -146.6 -342 -400.6 -19.54 -146.6 195.4 -117.2 29.31 -117.2 -48.85 -127 -97.7
1.36 -127 -117.2 97.7 -166.1 -68.39 -293.1 -234.5 -68.39 -273.6 -273.6 -58.62 -117.2 166.1 -78.16 9.77 -58.62 -68.39 -127 -68.39
1.365 -185.6 -78.16 29.31 -156.3 -78.16 -273.6 -175.9 19.54 -156.3 -107.5 -97.7 -68.39 127 -39.08 9.77 19.54 -68.39 -127 9.77
1.37 -254 -58.62 -48.85 -156.3 -97.7 -263.8 -107.5 68.39 -48.85 39.08 -175.9 -29.31 87.93 -9.77 -9.77 78.16 -68.39 -136.8 78.16
1.375 -351.7 -68.39 -166.1 -166.1 -117.2 -283.3 -68.39 78.16 39.08 136.8 -273.6 -39.08 48.85 -9.77 -29.31 87.93 -87.93 -166.1 97.7
1.38 -420.1 -87.93 -254 -185.6 -156.3 -312.7 -87.93 39.08 58.62 175.9 -361.5 -68.39 -9.77 -39.08 -58.62 78.16 -117.2 -224.7 68.39
1.385 -420.1 -68.39 -283.3 -205.2 -185.6 -351.7 -156.3 -29.31 9.77 156.3 -390.8 -87.93 -58.62 -48.85 -58.62 48.85 -107.5 -273.6 -9.77
1.39 -332.2 -9.77 -234.5 -166.1 -175.9 -342 -244.3 -107.5 -68.39 78.16 -322.4 -68.39 -39.08 -39.08 -19.54 19.54 -48.85 -254 -117.2
1.395 -214.9 68.39 -146.6 -87.93 -136.8 -283.3 -312.7 -166.1 -146.6 0 -205.2 -19.54 9.77 0 9.77 19.54 48.85 -195.4 -205.2
1.4 -68.39 166.1 -9.77 19.54 -58.62 -175.9 -293.1 -156.3 -205.2 -78.16 -68.39 48.85 107.5 78.16 58.62 39.08 185.6 -87.93 -224.7
1.405 19.54 214.9 97.7 97.7 39.08 -48.85 -234.5 -107.5 -234.5 -117.2 29.31 107.5 175.9 156.3 97.7 68.39 283.3 29.31 -185.6
1.41 48.85 234.5 156.3 146.6 97.7 39.08 -156.3 -48.85 -244.3 -136.8 68.39 117.2 214.9 214.9 107.5 107.5 322.4 78.16 -127
1.415 19.54 224.7 166.1 136.8 107.5 78.16 -78.16 -9.77 -283.3 -156.3 48.85 146.6 205.2 224.7 97.7 97.7 302.9 87.93 -58.62
1.42 -19.54 214.9 117.2 97.7 97.7 68.39 -48.85 -29.31 -302.9 -185.6 9.77 146.6 175.9 195.4 78.16 87.93 234.5 39.08 -29.31
1.425 -97.7 175.9 48.85 39.08 39.08 39.08 -29.31 -48.85 -332.2 -185.6 -19.54 127 136.8 146.6 58.62 58.62 136.8 -19.54 -19.54
1.43 -146.6 127 -9.77 -19.54 -9.77 19.54 -29.31 -58.62 -322.4 -175.9 -19.54 107.5 107.5 78.16 39.08 29.31 68.39 -78.16 -29.31
1.435 -175.9 78.16 -39.08 -48.85 -39.08 19.54 -19.54 -58.62 -302.9 -166.1 9.77 78.16 58.62 39.08 -19.54 0 19.54 -117.2 -39.08
1.44 -205.2 58.62 -19.54 -78.16 -39.08 29.31 19.54 -29.31 -244.3 -146.6 39.08 58.62 29.31 19.54 -29.31 0 9.77 -107.5 -9.77
1.445 -185.6 29.31 -19.54 -68.39 -19.54 58.62 107.5 29.31 -136.8 -87.93 29.31 48.85 9.77 0 -39.08 9.77 29.31 -58.62 58.62
1.45 -214.9 29.31 -29.31 -58.62 9.77 107.5 195.4 136.8 0 -9.77 0 48.85 0 -19.54 -39.08 48.85 48.85 0 146.6
1.455 -244.3 9.77 -39.08 -29.31 39.08 166.1 312.7 254 146.6 107.5 -9.77 19.54 19.54 -19.54 0 127 58.62 58.62 254
1.46 -263.8 -29.31 -48.85 9.77 19.54 205.2 371.3 332.2 263.8 205.2 -19.54 -9.77 19.54 -39.08 29.31 175.9 48.85 78.16 283.3
1.465 -283.3 -48.85 -87.93 48.85 -48.85 214.9 351.7 342 302.9 254 -19.54 -39.08 -19.54 -58.62 19.54 224.7 39.08 29.31 263.8
1.47 -254 -68.39 -97.7 68.39 -127 195.4 244.3 302.9 254 244.3 0 -39.08 -78.16 -97.7 19.54 263.8 39.08 -39.08 166.1
1.475 -117.2 39.08 -78.16 107.5 -146.6 156.3 156.3 244.3 273.6 293.1 68.39 9.77 -58.62 -48.85 107.5 322.4 48.85 -58.62 87.93
1.48 -19.54 107.5 -117.2 9.77 -214.9 -29.31 0 48.85 205.2 224.7 29.31 -39.08 -48.85 -58.62 127 234.5 -68.39 -195.4 -107.5
1.485 78.16 175.9 -166.1 -78.16 -244.3 -185.6 -117.2 -136.8 136.8 136.8 39.08 -97.7 -9.77 -58.62 146.6 166.1 -175.9 -312.7 -244.3
1.49 214.9 293.1 -166.1 -146.6 -185.6 -263.8 -166.1 -263.8 97.7 78.16 68.39 -97.7 97.7 0 185.6 97.7 -234.5 -361.5 -351.7
1.495 273.6 342 -166.1 -195.4 -185.6 -332.2 -205.2 -361.5 0 -48.85 78.16 -107.5 136.8 0 136.8 -19.54 -293.1 -420.1 -420.1
1.5 371.3 429.9 -58.62 -87.93 -29.31 -175.9 -78.16 -254 39.08 -39.08 185.6 48.85 244.3 87.93 166.1 68.39 -175.9 -273.6 -293.1
1.505 478.7 508.1 107.5 48.85 175.9 9.77 87.93 -87.93 117.2 9.77 293.1 185.6 342 234.5 244.3 175.9 -48.85 -78.16 -107.5
1.51 547.1 498.3 234.5 127 342 156.3 254 68.39 185.6 29.31 361.5 273.6 429.9 312.7 283.3 234.5 48.85 87.93 78.16
1.515 547.1 469 302.9 185.6 439.7 254 361.5 175.9 205.2 58.62 381 312.7 439.7 351.7 254 302.9 97.7 185.6 224.7
1.52 488.5 400.6 283.3 214.9 459.2 293.1 420.1 244.3 214.9 78.16 332.2 332.2 381 332.2 205.2 263.8 97.7 234.5 302.9
1.525 400.6 322.4 185.6 195.4 381 293.1 429.9 263.8 205.2 58.62 214.9 312.7 283.3 263.8 136.8 175.9 58.62 224.7 342
1.53 283.3 244.3 68.39 175.9 293.1 263.8 439.7 273.6 214.9 78.16 97.7 293.1 166.1 195.4 68.39 107.5 29.31 224.7 351.7
1.535 195.4 175.9 -39.08 136.8 175.9 234.5 420.1 263.8 244.3 87.93 -19.54 273.6 48.85 127 0 48.85 -9.77 175.9 342
1.54 107.5 117.2 -127 107.5 87.93 195.4 342 234.5 234.5 97.7 -117.2 244.3 -39.08 78.16 -58.62 19.54 -9.77 156.3 302.9
1.545 29.31 117.2 -195.4 87.93 19.54 175.9 254 195.4 185.6 127 -205.2 254 -117.2 87.93 -156.3 48.85 19.54 136.8 234.5
1.55 -58.62 87.93 -263.8 58.62 -39.08 127 136.8 146.6 107.5 136.8 -293.1 283.3 -185.6 97.7 -224.7 78.16 0 107.5 175.9
1.555 -136.8 29.31 -322.4 0 -87.93 68.39 48.85 97.7 39.08 146.6 -361.5 283.3 -244.3 97.7 -273.6 87.93 -58.62 58.62 117.2
1.56 -205.2 -58.62 -390.8 -97.7 -146.6 9.77 -68.39 39.08 -29.31 127 -390.8 254 -273.6 78.16 -302.9 87.93 -175.9 -29.31 58.62
1.565 -254 -156.3 -420.1 -224.7 -214.9 -48.85 -156.3 -19.54 -107.5 97.7 -381 185.6 -293.1 39.08 -322.4 39.08 -293.1 -127 -9.77
1.57 -273.6 -224.7 -410.4 -293.1 -234.5 -87.93 -224.7 -78.16 -166.1 58.62 -361.5 107.5 -283.3 9.77 -322.4 -39.08 -351.7 -205.2 -87.93
1.575 -273.6 -254 -390.8 -293.1 -234.5 -107.5 -283.3 -127 -263.8 -39.08 -332.2 68.39 -263.8 0 -351.7 -78.16 -351.7 -224.7 -185.6
1.58 -244.3 -224.7 -342 -263.8 -214.9 -136.8 -342 -214.9 -381 -166.1 -312.7 58.62 -224.7 0 -371.3 -117.2 -293.1 -234.5 -302.9
1.585 -195.4 -205.2 -312.7 -205.2 -205.2 -156.3 -381 -293.1 -498.3 -273.6 -273.6 87.93 -195.4 9.77 -381 -136.8 -234.5 -244.3 -420.1
1.59 -156.3 -156.3 -273.6 -136.8 -195.4 -156.3 -381 -351.7 -556.9 -371.3 -244.3 175.9 -166.1 29.31 -351.7 -127 -175.9 -244.3 -508.1
1.595 -136.8 -97.7 -244.3 -39.08 -185.6 -127 -361.5 -361.5 -517.8 -361.5 -224.7 283.3 -127 78.16 -283.3 -78.16 -117.2 -205.2 -488.5
1.6 -127 -39.08 -195.4 68.39 -127 -9.77 -224.7 -254 -371.3 -244.3 -185.6 390.8 -58.62 136.8 -205.2 39.08 -29.31 -87.93 -381
1.605 -127 9.77 -127 185.6 -9.77 136.8 -58.62 -107.5 -175.9 -87.93 -127 439.7 29.31 195.4 -117.2 146.6 97.7 68.39 -195.4
1.61 -107.5 39.08 -48.85 273.6 127 244.3 78.16 48.85 19.54 58.62 -39.08 429.9 127 234.5 -39.08 244.3 244.3 234.5 -9.77
1.615 -39.08 87.93 48.85 322.4 254 293.1 185.6 166.1 136.8 175.9 19.54 420.1 185.6 224.7 9.77 263.8 312.7 351.7 117.2
1.62 48.85 146.6 117.2 302.9 302.9 283.3 205.2 205.2 185.6 214.9 68.39 371.3 195.4 205.2 29.31 234.5 322.4 381 175.9
1.625 107.5 166.1 136.8 254 293.1 254 185.6 254 185.6 214.9 68.39 342 185.6 214.9 19.54 195.4 263.8 361.5 195.4
1.63 136.8 127 136.8 195.4 273.6 205.2 146.6 244.3 185.6 205.2 58.62 302.9 175.9 205.2 -9.77 156.3 185.6 293.1 205.2
1.635 117.2 58.62 97.7 175.9 224.7 205.2 156.3 234.5 205.2 214.9 29.31 302.9 175.9 205.2 -39.08 146.6 117.2 254 214.9
1.64 68.39 0 29.31 136.8 205.2 185.6 156.3 205.2 214.9 205.2 0 293.1 175.9 214.9 -58.62 136.8 58.62 205.2 205.2
1.645 0 -68.39 -39.08 97.7 166.1 146.6 175.9 117.2 224.7 185.6 -68.39 293.1 136.8 185.6 -117.2 97.7 29.31 156.3 166.1
1.65 -87.93 -107.5 -107.5 68.39 136.8 68.39 146.6 19.54 214.9 175.9 -175.9 293.1 68.39 136.8 -156.3 68.39 9.77 87.93 117.2
1.655 -156.3 -156.3 -195.4 -29.31 29.31 -48.85 78.16 -87.93 156.3 127 -273.6 234.5 -48.85 78.16 -195.4 19.54 -48.85 9.77 19.54
1.66 -263.8 -254 -273.6 -166.1 -97.7 -185.6 -68.39 -205.2 48.85 48.85 -371.3 156.3 -205.2 9.77 -283.3 -48.85 -136.8 -107.5 -87.93
1.665 -332.2 -322.4 -361.5 -293.1 -224.7 -302.9 -214.9 -332.2 -87.93 -78.16 -439.7 78.16 -322.4 -78.16 -351.7 -127 -234.5 -224.7 -234.5
1.67 -361.5 -381 -429.9 -371.3 -322.4 -381 -351.7 -429.9 -205.2 -195.4 -439.7 19.54 -429.9 -146.6 -410.4 -205.2 -302.9 -312.7 -342
1.675 -361.5 -400.6 -469 -371.3 -381 -381 -429.9 -478.7 -293.1 -302.9 -429.9 9.77 -488.5 -175.9 -439.7 -244.3 -322.4 -332.2 -410.4
1.68 -322.4 -400.6 -469 -342 -381 -371.3 -439.7 -488.5 -342 -381 -429.9 0 -498.3 -166.1 -429.9 -234.5 -322.4 -322.4 -439.7
1.685 -332.2 -381 -469 -312.7 -361.5 -322.4 -429.9 -439.7 -390.8 -400.6 -439.7 0 -488.5 -127 -420.1 -234.5 -312.7 -293.1 -410.4
1.69 -322.4 -381 -449.4 -302.9 -312.7 -293.1 -400.6 -371.3 -420.1 -429.9 -429.9 -39.08 -459.2 -87.93 -420.1 -214.9 -312.7 -254 -351.7
1.695 -293.1 -361.5 -429.9 -302.9 -254 -273.6 -361.5 -293.1 -449.4 -420.1 -390.8 -117.2 -400.6 -68.39 -420.1 -205.2 -312.7 -195.4 -273.6
1.7 -195.4 -322.4 -351.7 -302.9 -146.6 -234.5 -322.4 -205.2 -410.4 -400.6 -273.6 -175.9 -312.7 -58.62 -371.3 -224.7 -254 -107.5 -205.2
1.705 -78.16 -293.1 -214.9 -273.6 -29.31 -185.6 -224.7 -117.2 -342 -342 -146.6 -185.6 -205.2 -48.85 -302.9 -205.2 -195.4 0 -87.93
1.71 48.85 -254 -68.39 -205.2 78.16 -127 -136.8 -39.08 -254 -244.3 -29.31 -166.1 -97.7 -39.08 -195.4 -195.4 -117.2 107.5 9.77
1.715 146.6 -244.3 58.62 -127 156.3 -58.62 -29.31 19.54 -185.6 -205.2 48.85 -97.7 0 -58.62 -58.62 -175.9 -29.31 185.6 97.7
1.72 205.2 -234.5 136.8 -29.31 234.5 0 39.08 58.62 -117.2 -156.3 107.5 -19.54 107.5 -39.08 58.62 -156.3 39.08 244.3 156.3
1.725 254 -214.9 185.6 68.39 263.8 39.08 78.16 48.85 -78.16 -136.8 166.1 48.85 175.9 -19.54 146.6 -146.6 107.5 283.3 175.9
1.73 293.1 -146.6 195.4 166.1 263.8 68.39 107.5 39.08 -39.08 -127 205.2 127 205.2 0 156.3 -146.6 156.3 312.7 214.9
1.735 302.9 -48.85 175.9 263.8 244.3 107.5 117.2 48.85 0 -97.7 214.9 166.1 195.4 29.31 185.6 -136.8 205.2 342 224.7
1.74 283.3 29.31 166.1 322.4 205.2 146.6 136.8 97.7 29.31 -39.08 214.9 146.6 156.3 29.31 195.4 -127 234.5 351.7 244.3
1.745 273.6 97.7 146.6 342 166.1 195.4 156.3 136.8 58.62 29.31 234.5 117.2 127 39.08 195.4 -97.7 234.5 342 234.5
1.75 273.6 87.93 136.8 322.4 127 195.4 156.3 166.1 87.93 117.2 273.6 87.93 136.8 39.08 254 -68.39 224.7 293.1 205.2
1.755 312.7 58.62 127 273.6 97.7 166.1 146.6 136.8 107.5 156.3 342 19.54 166.1 58.62 283.3 -19.54 195.4 224.7 166.1
1.76 322.4 9.77 117.2 175.9 78.16 107.5 156.3 97.7 127 185.6 351.7 -9.77 195.4 97.7 322.4 29.31 156.3 156.3 136.8
1.765 293.1 -29.31 78.16 78.16 19.54 48.85 136.8 68.39 117.2 175.9 283.3 -48.85 195.4 127 312.7 19.54 87.93 58.62 97.7
1.77 224.7 -68.39 29.31 -39.08 -58.62 -29.31 107.5 39.08 87.93 156.3 175.9 -107.5 156.3 136.8 273.6 19.54 9.77 0 58.62
1.775 136.8 -156.3 -39.08 -166.1 -185.6 -107.5 29.31 9.77 9.77 107.5 39.08 -175.9 117.2 117.2 195.4 -19.54 -97.7 -107.5 19.54
1.78 97.7 -224.7 -87.93 -293.1 -293.1 -166.1 -87.93 -19.54 -117.2 29.31 -58.62 -234.5 78.16 97.7 97.7 -39.08 -185.6 -205.2 -58.62
1.785 78.16 -293.1 -127 -381 -390.8 -185.6 -185.6 -39.08 -214.9 -78.16 -127 -273.6 48.85 78.16 9.77 -39.08 -263.8 -273.6 -87.93
1.79 97.7 -302.9 -97.7 -410.4 -420.1 -166.1 -224.7 -48.85 -302.9 -146.6 -175.9 -263.8 58.62 97.7 -29.31 0 -283.3 -293.1 -97.7
1.795 117.2 -224.7 -39.08 -351.7 -400.6 -97.7 -244.3 -29.31 -322.4 -175.9 -205.2 -166.1 97.7 146.6 -29.31 29.31 -214.9 -205.2 -68.39
1.8 127 -117.2 39.08 -244.3 -322.4 -19.54 -224.7 -9.77 -302.9 -205.2 -224.7 -48.85 166.1 195.4 0 58.62 -107.5 -97.7 0
1.805 146.6 0 136.8 -87.93 -205.2 68.39 -175.9 39.08 -244.3 -195.4 -234.5 97.7 214.9 224.7 78.16 87.93 19.54 19.54 68.39
1.81 156.3 117.2 234.5 48.85 -117.2 117.2 -97.7 107.5 -185.6 -146.6 -234.5 195.4 254 254 127 97.7 136.8 127 117.2
1.815 136.8 166.1 312.7 146.6 -29.31 166.1 -19.54 166.1 -107.5 -78.16 -234.5 214.9 263.8 244.3 146.6 97.7 205.2 195.4 185.6
1.82 127 185.6 400.6 224.7 58.62 214.9 97.7 254 -19.54 0 -234.5 175.9 273.6 185.6 166.1 87.93 254 263.8 273.6
1.825 127 166.1 459.2 273.6 127 273.6 175.9 361.5 48.85 107.5 -205.2 97.7 263.8 127 146.6 87.93 293.1 332.2 361.5
1.83 156.3 156.3 527.6 322.4 175.9 322.4 224.7 429.9 107.5 185.6 -146.6 58.62 254 87.93 136.8 97.7 332.2 400.6 439.7
1.835 166.1 205.2 547.1 351.7 185.6 371.3 214.9 439.7 127 214.9 -97.7 78.16 244.3 87.93 127 107.5 342 420.1 439.7
1.84 136.8 254 527.6 371.3 175.9 371.3 146.6 390.8 146.6 195.4 -117.2 166.1 195.4 136.8 117.2 97.7 312.7 390.8 410.4
1.845 68.39 283.3 469 322.4 107.5 332.2 58.62 273.6 107.5 127 -146.6 234.5 146.6 166.1 97.7 87.93 234.5 273.6 332.2
1.85 -39.08 254 361.5 244.3 9.77 273.6 -78.16 136.8 58.62 48.85 -195.4 244.3 97.7 185.6 58.62 58.62 136.8 146.6 205.2
1.855 -175.9 127 234.5 146.6 -107.5 205.2 -214.9 29.31 9.77 -29.31 -234.5 146.6 19.54 166.1 0 39.08 68.39 19.54 78.16
1.86 -244.3 0 136.8 29.31 -195.4 156.3 -322.4 -78.16 -58.62 -87.93 -205.2 9.77 -29.31 97.7 -68.39 58.62 -9.77 -68.39 -48.85
1.865 -302.9 -127 29.31 -48.85 -273.6 97.7 -381 -97.7 -107.5 -97.7 -224.7 -107.5 -107.5 39.08 -107.5 127 -58.62 -156.3 -127
1.87 -293.1 -234.5 -29.31 -107.5 -293.1 58.62 -400.6 -107.5 -127 -97.7 -234.5 -175.9 -136.8 -9.77 -127 146.6 -97.7 -214.9 -175.9
1.875 -263.8 -234.5 -58.62 -117.2 -283.3 19.54 -381 -107.5 -156.3 -68.39 -244.3 -166.1 -146.6 -39.08 -136.8 166.1 -107.5 -234.5 -214.9
1.88 -185.6 -175.9 -19.54 -87.93 -214.9 29.31 -302.9 -58.62 -136.8 -39.08 -234.5 -97.7 -127 -29.31 -107.5 127 -48.85 -195.4 -205.2
1.885 -78.16 -39.08 58.62 9.77 -97.7 58.62 -195.4 -29.31 -97.7 -29.31 -195.4 9.77 -58.62 9.77 -39.08 87.93 87.93 -97.7 -146.6
1.89 19.54 107.5 156.3 175.9 19.54 146.6 -68.39 39.08 -48.85 -9.77 -136.8 127 39.08 78.16 29.31 117.2 224.7 9.77 -58.62
1.895 136.8 234.5 254 322.4 156.3 244.3 58.62 117.2 19.54 9.77 -39.08 224.7 146.6 166.1 117.2 166.1 371.3 127 39.08
1.9 214.9 273.6 322.4 410.4 254 302.9 166.1 166.1 87.93 19.54 78.16 273.6 263.8 214.9 205.2 214.9 459.2 195.4 117.2
1.905 293.1 244.3 390.8 420.1 322.4 322.4 254 185.6 117.2 19.54 175.9 283.3 342 205.2 234.5 244.3 508.1 234.5 195.4
1.91 312.7 205.2 410.4 400.6 342 302.9 293.1 185.6 136.8 -19.54 224.7 293.1 351.7 185.6 224.7 234.5 517.8 244.3 234.5
1.915 293.1 214.9 429.9 381 322.4 302.9 302.9 205.2 136.8 -58.62 214.9 312.7 302.9 136.8 195.4 205.2 517.8 254 244.3
1.92 244.3 224.7 429.9 390.8 332.2 342 342 263.8 185.6 -19.54 205.2 322.4 244.3 117.2 117.2 175.9 517.8 312.7 293.1
1.925 214.9 283.3 469 400.6 351.7 410.4 400.6 361.5 263.8 39.08 234.5 342 195.4 117.2 127 146.6 517.8 390.8 371.3
1.93 205.2 263.8 508.1 361.5 390.8 459.2 478.7 449.4 390.8 117.2 283.3 322.4 205.2 97.7 166.1 127 478.7 449.4 478.7
1.935 146.6 205.2 517.8 302.9 420.1 469 537.4 498.3 488.5 205.2 312.7 293.1 205.2 117.2 224.7 97.7 400.6 439.7 527.6
1.94 68.39 146.6 469 214.9 371.3 429.9 527.6 488.5 478.7 224.7 293.1 254 166.1 127 234.5 78.16 273.6 381 537.4
1.945 0 39.08 371.3 68.39 302.9 302.9 459.2 390.8 400.6 175.9 254 175.9 107.5 97.7 205.2 48.85 127 254 459.2
1.95 -39.08 -29.31 273.6 -39.08 195.4 185.6 322.4 263.8 244.3 97.7 205.2 58.62 19.54 58.62 107.5 9.77 19.54 117.2 332.2
1.955 -39.08 -97.7 214.9 -136.8 68.39 48.85 156.3 127 48.85 -9.77 166.1 -29.31 -87.93 0 -9.77 -19.54 -48.85 -39.08 175.9
1.96 -19.54 -136.8 175.9 -195.4 -58.62 -39.08 -9.77 19.54 -156.3 -97.7 136.8 -97.7 -166.1 -58.62 -107.5 -58.62 -78.16 -127 39.08
1.965 -29.31 -156.3 156.3 -205.2 -127 -87.93 -127 -48.85 -283.3 -175.9 127 -107.5 -224.7 -68.39 -156.3 -107.5 -39.08 -175.9 -87.93
1.97 -87.93 -146.6 117.2 -166.1 -156.3 -107.5 -185.6 -68.39 -351.7 -224.7 78.16 -68.39 -244.3 -68.39 -175.9 -146.6 -9.77 -185.6 -175.9
1.975 -127 -107.5 87.93 -78.16 -97.7 -68.39 -146.6 -48.85 -332.2 -234.5 68.39 -9.77 -224.7 -29.31 -127 -127 29.31 -127 -214.9
1.98 -146.6 -78.16 48.85 39.08 -9.77 9.77 -78.16 39.08 -244.3 -195.4 97.7 48.85 -166.1 19.54 -39.08 -78.16 58.62 -29.31 -205.2
1.985 -117.2 -9.77 29.31 146.6 78.16 117.2 29.31 127 -146.6 -156.3 136.8 117.2 -87.93 97.7 97.7 0 87.93 58.62 -156.3
1.99 -68.39 68.39 48.85 234.5 146.6 185.6 97.7 185.6 -68.39 -136.8 214.9 166.1 -48.85 117.2 244.3 39.08 107.5 117.2 -78.16
1.995 -48.85 107.5 39.08 244.3 156.3 224.7 156.3 175.9 -29.31 -146.6 244.3 175.9 -29.31 117.2 283.3 68.39 87.93 127 -39.08
2 -39.08 97.7 48.85 214.9 175.9 214.9 175.9 136.8 0 -156.3 283.3 117.2 -19.54 68.39 322.4 39.08 58.62 146.6 -9.77
2.005 -68.39 -19.54 39.08 136.8 175.9 156.3 156.3 58.62 -19.54 -185.6 312.7 -19.54 -29.31 -9.77 302.9 -29.31 0 136.8 -9.77
2.01 -87.93 -136.8 9.77 58.62 166.1 68.39 117.2 -39.08 -68.39 -244.3 342 -175.9 -39.08 -87.93 244.3 -78.16 -48.85 117.2 -39.08
2.015 -68.39 -175.9 -19.54 -9.77 127 9.77 68.39 -107.5 -107.5 -322.4 371.3 -283.3 -58.62 -166.1 254 -136.8 -48.85 107.5 -68.39
2.02 -39.08 -166.1 -29.31 -48.85 78.16 -29.31 -9.77 -156.3 -136.8 -381 381 -342 -107.5 -224.7 205.2 -195.4 -58.62 78.16 -87.93
2.025 19.54 -58.62 9.77 -68.39 58.62 -39.08 -29.31 -156.3 -107.5 -410.4 390.8 -342 -117.2 -214.9 185.6 -205.2 -19.54 78.16 -58.62
2.03 87.93 29.31 97.7 -68.39 117.2 -19.54 9.77 -97.7 -19.54 -322.4 429.9 -342 -107.5 -214.9 185.6 -244.3 9.77 127 9.77
2.035 127 58.62 195.4 -78.16 214.9 29.31 97.7 19.54 107.5 -205.2 459.2 -332.2 -39.08 -185.6 175.9 -205.2 58.62 195.4 117.2
2.04 166.1 58.62 293.1 -39.08 322.4 87.93 156.3 136.8 195.4 -39.08 498.3 -302.9 19.54 -175.9 175.9 -117.2 107.5 273.6 205.2
2.045 166.1 29.31 361.5 0 400.6 127 185.6 234.5 214.9 117.2 488.5 -273.6 48.85 -146.6 195.4 -9.77 156.3 312.7 244.3
2.05 127 0 371.3 48.85 410.4 166.1 166.1 302.9 224.7 234.5 381 -224.7 29.31 -127 175.9 107.5 185.6 293.1 263.8
2.055 58.62 -39.08 332.2 87.93 322.4 127 58.62 273.6 146.6 302.9 254 -185.6 -68.39 -136.8 117.2 156.3 175.9 205.2 185.6
2.06 -9.77 -97.7 244.3 58.62 185.6 9.77 -78.16 156.3 39.08 302.9 87.93 -195.4 -205.2 -166.1 48.85 136.8 136.8 68.39 87.93
2.065 -107.5 -214.9 127 0 39.08 -107.5 -205.2 19.54 -48.85 273.6 -19.54 -244.3 -312.7 -254 0 68.39 39.08 -78.16 -19.54
2.07 -127 -322.4 58.62 -87.93 -48.85 -244.3 -273.6 -97.7 -97.7 185.6 19.54 -293.1 -332.2 -342 0 -9.77 -9.77 -214.9 -107.5
2.075 -87.93 -351.7 48.85 -136.8 -68.39 -302.9 -283.3 -166.1 -97.7 127 58.62 -302.9 -273.6 -390.8 48.85 -58.62 -48.85 -244.3 -127
2.08 -9.77 -332.2 97.7 -117.2 0 -293.1 -205.2 -156.3 -68.39 97.7 156.3 -254 -175.9 -381 156.3 -78.16 -9.77 -224.7 -78.16
2.085 68.39 -214.9 146.6 -58.62 78.16 -224.7 -136.8 -97.7 -9.77 68.39 224.7 -127 -58.62 -312.7 244.3 -78.16 39.08 -175.9 -39.08
2.09 107.5 -48.85 166.1 -29.31 107.5 -156.3 -87.93 -78.16 9.77 19.54 195.4 9.77 -9.77 -224.7 263.8 -68.39 39.08 -156.3 -29.31
2.095 78.16 48.85 136.8 0 97.7 -107.5 -78.16 -58.62 9.77 -19.54 117.2 127 0 -146.6 263.8 -68.39 29.31 -156.3 -39.08
2.1 0 87.93 87.93 0 58.62 -87.93 -97.7 -68.39 -29.31 -58.62 19.54 195.4 -68.39 -97.7 205.2 -78.16 -29.31 -175.9 -68.39
2.105 -87.93 68.39 -9.77 -29.31 0 -107.5 -136.8 -87.93 -48.85 -87.93 -87.93 195.4 -156.3 -48.85 146.6 -87.93 -87.93 -205.2 -97.7
2.11 -156.3 39.08 -68.39 -39.08 -39.08 -107.5 -156.3 -97.7 -48.85 -97.7 -166.1 175.9 -234.5 -9.77 136.8 -87.93 -117.2 -185.6 -117.2
2.115 -175.9 0 -107.5 -78.16 -58.62 -117.2 -166.1 -107.5 -19.54 -87.93 -195.4 156.3 -263.8 29.31 146.6 -87.93 -146.6 -175.9 -156.3
2.12 -175.9 -29.31 -166.1 -107.5 -58.62 -136.8 -195.4 -136.8 9.77 -78.16 -195.4 117.2 -263.8 48.85 146.6 -78.16 -175.9 -175.9 -166.1
2.125 -136.8 -58.62 -175.9 -127 -58.62 -146.6 -175.9 -127 48.85 -48.85 -166.1 117.2 -214.9 58.62 136.8 -48.85 -214.9 -146.6 -166.1
2.13 -97.7 -29.31 -156.3 -107.5 -48.85 -127 -127 -58.62 107.5 19.54 -146.6 136.8 -166.1 97.7 117.2 29.31 -214.9 -107.5 -136.8
2.135 -78.16 0 -127 -68.39 -48.85 -87.93 -58.62 19.54 175.9 87.93 -127 175.9 -117.2 107.5 107.5 87.93 -195.4 -58.62 -48.85
2.14 -9.77 68.39 -48.85 9.77 -48.85 -39.08 19.54 107.5 214.9 146.6 -68.39 214.9 -87.93 117.2 97.7 127 -117.2 9.77 39.08
2.145 68.39 127 39.08 97.7 -68.39 19.54 87.93 136.8 244.3 175.9 -19.54 254 -48.85 117.2 127 146.6 -19.54 68.39 87.93
2.15 107.5 156.3 78.16 146.6 -97.7 19.54 87.93 107.5 205.2 175.9 9.77 254 -68.39 87.93 136.8 87.93 39.08 68.39 58.62
2.155 136.8 166.1 97.7 136.8 -156.3 -19.54 29.31 29.31 117.2 127 -9.77 263.8 -78.16 68.39 117.2 29.31 48.85 39.08 -19.54
2.16 127 136.8 48.85 87.93 -205.2 -78.16 0 -39.08 19.54 87.93 -39.08 214.9 -107.5 48.85 107.5 0 9.77 -9.77 -117.2
2.165 78.16 58.62 -19.54 9.77 -273.6 -146.6 -39.08 -68.39 -29.31 68.39 -48.85 166.1 -97.7 39.08 107.5 -19.54 -68.39 -68.39 -175.9
2.17 39.08 9.77 -78.16 -78.16 -302.9 -195.4 -58.62 -78.16 -68.39 39.08 -58.62 107.5 -107.5 29.31 117.2 -29.31 -136.8 -127 -195.4
2.175 -19.54 -39.08 -146.6 -166.1 -322.4 -234.5 -48.85 -117.2 -58.62 29.31 -97.7 48.85 -117.2 9.77 117.2 -39.08 -224.7 -195.4 -205.2
2.18 -97.7 -58.62 -214.9 -244.3 -332.2 -263.8 -48.85 -185.6 -39.08 -19.54 -127 19.54 -107.5 -19.54 117.2 -48.85 -312.7 -254 -224.7
2.185 -175.9 -68.39 -263.8 -302.9 -351.7 -293.1 -78.16 -254 0 -39.08 -175.9 -9.77 -146.6 -87.93 58.62 -68.39 -371.3 -283.3 -244.3
2.19 -244.3 -97.7 -293.1 -332.2 -332.2 -302.9 -78.16 -293.1 58.62 -68.39 -195.4 -58.62 -175.9 -136.8 29.31 -58.62 -400.6 -273.6 -244.3
2.195 -273.6 -127 -283.3 -332.2 -322.4 -293.1 -58.62 -302.9 78.16 -97.7 -156.3 -117.2 -185.6 -185.6 -9.77 -68.39 -381 -244.3 -254
2.2 -263.8 -146.6 -263.8 -322.4 -273.6 -254 -9.77 -273.6 78.16 -97.7 -117.2 -156.3 -185.6 -214.9 -29.31 -58.62 -332.2 -185.6 -224.7
2.205 -234.5 -146.6 -205.2 -283.3 -185.6 -185.6 48.85 -205.2 78.16 -87.93 -58.62 -136.8 -156.3 -195.4 -19.54 -87.93 -244.3 -127 -185.6
2.21 -185.6 -136.8 -146.6 -234.5 -87.93 -97.7 117.2 -136.8 68.39 -48.85 9.77 -48.85 -97.7 -146.6 0 -87.93 -136.8 -58.62 -136.8
2.215 -117.2 -97.7 -68.39 -156.3 29.31 9.77 175.9 -58.62 48.85 -9.77 68.39 48.85 -39.08 -87.93 -9.77 -58.62 -9.77 39.08 -97.7
2.22 -48.85 -58.62 -9.77 -48.85 97.7 87.93 214.9 -9.77 9.77 9.77 97.7 166.1 9.77 -19.54 -29.31 -58.62 127 127 -58.62
2.225 -9.77 -39.08 9.77 48.85 107.5 136.8 224.7 19.54 -39.08 19.54 97.7 224.7 19.54 9.77 -87.93 -39.08 224.7 195.4 -39.08
2.23 -9.77 -48.85 -29.31 117.2 78.16 127 146.6 -29.31 -117.2 -9.77 48.85 244.3 -9.77 9.77 -166.1 -58.62 224.7 185.6 -78.16
2.235 -48.85 -87.93 -117.2 107.5 -19.54 58.62 58.62 -78.16 -185.6 -58.62 -29.31 224.7 -58.62 0 -224.7 -97.7 156.3 97.7 -136.8
2.24 -175.9 -156.3 -263.8 39.08 -146.6 -68.39 -29.31 -185.6 -244.3 -97.7 -156.3 166.1 -127 -19.54 -244.3 -117.2 48.85 -39.08 -234.5
2.245 -302.9 -254 -400.6 -87.93 -254 -214.9 -127 -302.9 -283.3 -117.2 -273.6 107.5 -185.6 -48.85 -254 -136.8 -117.2 -185.6 -351.7
2.25 -459.2 -381 -527.6 -234.5 -361.5 -361.5 -185.6 -390.8 -293.1 -117.2 -390.8 19.54 -244.3 -58.62 -254 -146.6 -244.3 -342 -420.1
2.255 -566.7 -478.7 -605.8 -361.5 -459.2 -488.5 -244.3 -449.4 -293.1 -117.2 -449.4 -58.62 -273.6 -78.16 -273.6 -146.6 -342 -459.2 -488.5
2.26 -644.8 -517.8 -664.4 -439.7 -517.8 -556.9 -312.7 -469 -283.3 -68.39 -488.5 -87.93 -322.4 -78.16 -302.9 -146.6 -400.6 -508.1 -527.6
2.265 -635.6 -488.5 -664.4 -459.2 -527.6 -576.5 -351.7 -478.7 -293.1 -58.62 -478.7 -87.93 -332.2 -97.7 -342 -166.1 -429.9 -527.6 -547.6
2.27 -605.8 -449.4 -655.1 -420.1 -517.8 -547.6 -381 -469 -322.4 -78.16 -439.7 -39.08 -322.4 -107.5 -390.8 -205.2 -429.9 -488.5 -547.6
2.275 -508.1 -390.8 -615.5 -342 -439.7 -478.7 -342 -439.7 -322.4 -107.5 -342 48.85 -263.8 -117.2 -381 -244.3 -361.5 -420.1 -498.3
2.28 -420.1 -342 -537.4 -263.8 -322.4 -381 -273.6 -390.8 -312.7 -127 -263.8 117.2 -175.9 -127 -361.5 -293.1 -283.3 -312.7 -420.1
2.285 -342 -322.4 -459.2 -175.9 -205.2 -283.3 -175.9 -312.7 -263.8 -117.2 -175.9 195.4 -87.93 -127 -332.2 -273.6 -175.9 -214.9 -302.9
2.29 -273.6 -283.3 -381 -68.39 -87.93 -166.1 -58.62 -195.4 -185.6 -68.39 -107.5 254 -19.54 -107.5 -263.8 -224.7 -68.39 -97.7 -175.9
2.295 -195.4 -254 -312.7 19.54 9.77 -68.39 9.77 -107.5 -117.2 -29.31 -9.77 263.8 29.31 -107.5 -234.5 -166.1 9.77 -9.77 -68.39
2.3 -117.2 -195.4 -224.7 117.2 68.39 9.77 58.62 -29.31 -87.93 19.54 87.93 263.8 58.62 -87.93 -166.1 -136.8 107.5 78.16 0
2.305 19.54 -107.5 -97.7 234.5 146.6 78.16 117.2 9.77 -48.85 39.08 234.5 293.1 97.7 -68.39 -97.7 -117.2 214.9 156.3 58.62
2.31 146.6 39.08 48.85 351.7 224.7 136.8 175.9 58.62 9.77 48.85 390.8 342 175.9 -9.77 -9.77 -68.39 322.4 254 87.93
2.315 263.8 156.3 195.4 459.2 322.4 234.5 254 127 127 87.93 517.8 420.1 293.1 58.62 136.8 -19.54 410.4 351.7 146.6
2.32 342 244.3 351.7 556.9 420.1 342 322.4 214.9 234.5 136.8 605.8 469 390.8 127 273.6 0 488.5 469 234.5
2.325 390.8 302.9 439.7 596 488.5 449.4 361.5 293.1 332.2 166.1 644.8 508.1 469 214.9 371.3 39.08 527.6 556.9 302.9
2.33 410.4 302.9 439.7 596 488.5 478.7 322.4 312.7 342 175.9 664.4 469 469 214.9 381 -19.54 517.8 576.5 322.4
2.335 390.8 302.9 371.3 527.6 439.7 439.7 263.8 302.9 361.5 205.2 615.5 429.9 410.4 195.4 302.9 -48.85 469 508.1 332.2
2.34 312.7 293.1 234.5 410.4 322.4 322.4 195.4 273.6 361.5 244.3 566.7 361.5 302.9 156.3 185.6 -39.08 332.2 361.5 293.1
2.345 205.2 234.5 39.08 244.3 166.1 146.6 146.6 234.5 420.1 302.9 488.5 273.6 205.2 107.5 97.7 9.77 185.6 156.3 234.5
2.35 97.7 146.6 -97.7 87.93 68.39 0 127 185.6 459.2 400.6 439.7 166.1 136.8 48.85 19.54 78.16 0 -48.85 185.6
2.355 -9.77 29.31 -205.2 -39.08 -19.54 -117.2 97.7 166.1 478.7 488.5 400.6 68.39 87.93 -29.31 -19.54 146.6 -136.8 -185.6 146.6
2.36 -48.85 -78.16 -234.5 -117.2 -39.08 -166.1 78.16 127 449.4 527.6 400.6 -68.39 87.93 -107.5 -29.31 136.8 -205.2 -254 97.7
2.365 -68.39 -146.6 -244.3 -146.6 -48.85 -175.9 58.62 87.93 371.3 527.6 371.3 -185.6 78.16 -166.1 -58.62 107.5 -205.2 -234.5 58.62
2.37 -39.08 -127 -224.7 -117.2 -58.62 -175.9 9.77 9.77 283.3 449.4 312.7 -214.9 39.08 -224.7 -68.39 58.62 -156.3 -214.9 9.77
2.375 -9.77 -58.62 -205.2 -68.39 -39.08 -156.3 0 -48.85 224.7 351.7 254 -205.2 19.54 -273.6 -68.39 9.77 -87.93 -175.9 -39.08
2.38 19.54 29.31 -195.4 -19.54 -19.54 -136.8 -9.77 -107.5 175.9 224.7 175.9 -156.3 9.77 -273.6 -39.08 -29.31 -29.31 -166.1 -97.7
2.385 39.08 107.5 -166.1 39.08 19.54 -97.7 -19.54 -146.6 127 117.2 136.8 -87.93 39.08 -273.6 19.54 -58.62 29.31 -136.8 -107.5
2.39 58.62 136.8 -107.5 87.93 78.16 -48.85 -58.62 -156.3 87.93 0 127 -68.39 58.62 -254 29.31 -58.62 68.39 -97.7 -146.6
2.395 39.08 97.7 -97.7 97.7 78.16 -29.31 -127 -195.4 9.77 -146.6 127 -68.39 39.08 -244.3 9.77 -78.16 78.16 -97.7 -195.4
2.4 9.77 29.31 -97.7 58.62 48.85 -48.85 -205.2 -283.3 -87.93 -293.1 107.5 -117.2 -9.77 -263.8 -58.62 -146.6 29.31 -127 -283.3
2.405 -39.08 -58.62 -146.6 -9.77 9.77 -107.5 -293.1 -381 -205.2 -400.6 48.85 -146.6 -87.93 -302.9 -136.8 -214.9 -58.62 -175.9 -371.3
2.41 -107.5 -117.2 -205.2 -78.16 -19.54 -175.9 -322.4 -429.9 -244.3 -469 -58.62 -166.1 -166.1 -332.2 -185.6 -312.7 -136.8 -234.5 -420.1
2.415 -156.3 -136.8 -263.8 -127 -39.08 -205.2 -293.1 -449.4 -244.3 -459.2 -185.6 -195.4 -205.2 -342 -254 -400.6 -185.6 -234.5 -420.1
2.42 -107.5 -29.31 -146.6 29.31 87.93 -48.85 -117.2 -244.3 -87.93 -273.6 -166.1 -68.39 -117.2 -166.1 -127 -234.5 -58.62 -39.08 -185.6
2.425 -58.62 48.85 0 214.9 127 136.8 39.08 -29.31 19.54 -136.8 -136.8 48.85 -29.31 0 9.77 -39.08 127 175.9 58.62
2.43 29.31 117.2 195.4 400.6 185.6 332.2 175.9 175.9 107.5 -9.77 -58.62 156.3 48.85 175.9 146.6 175.9 302.9 381 293.1
2.435 97.7 136.8 361.5 576.5 205.2 498.3 273.6 361.5 166.1 87.93 48.85 293.1 127 322.4 283.3 361.5 459.2 566.7 478.7
2.44 68.39 97.7 371.3 596 127 488.5 263.8 381 107.5 48.85 9.77 302.9 68.39 322.4 263.8 371.3 459.2 586.2 478.7
2.445 39.08 136.8 361.5 576.5 136.8 508.1 322.4 400.6 175.9 87.93 -19.54 332.2 68.39 351.7 273.6 381 420.1 576.5 488.5
2.45 0 166.1 332.2 576.5 156.3 517.8 381 420.1 244.3 117.2 -39.08 361.5 78.16 371.3 283.3 371.3 390.8 586.2 469
2.455 -9.77 214.9 312.7 527.6 195.4 517.8 459.2 429.9 322.4 166.1 -48.85 390.8 107.5 390.8 332.2 371.3 381 547.1 469
2.46 -48.85 234.5 254 449.4 205.2 488.5 459.2 420.1 342 195.4 -39.08 371.3 127 400.6 351.7 381 312.7 478.7 400.6
2.465 -87.93 195.4 156.3 293.1 156.3 371.3 371.3 332.2 302.9 195.4 9.77 293.1 117.2 322.4 332.2 322.4 205.2 332.2 254
2.47 -68.39 156.3 39.08 107.5 78.16 214.9 263.8 185.6 205.2 136.8 78.16 146.6 87.93 205.2 263.8 254 68.39 166.1 87.93
2.475 -68.39 87.93 -78.16 -48.85 -29.31 29.31 97.7 29.31 68.39 58.62 136.8 0 48.85 87.93 146.6 136.8 -87.93 0 -107.5
2.48 -29.31 68.39 -146.6 -195.4 -146.6 -127 -58.62 -127 -58.62 -9.77 185.6 -97.7 0 -29.31 48.85 9.77 -205.2 -117.2 -263.8
2.485 -9.77 58.62 -146.6 -263.8 -205.2 -214.9 -195.4 -224.7 -156.3 -78.16 195.4 -127 -29.31 -78.16 -19.54 -29.31 -263.8 -195.4 -371.3
2.49 -19.54 87.93 -156.3 -273.6 -244.3 -263.8 -273.6 -293.1 -234.5 -127 127 -97.7 -58.62 -87.93 -78.16 -39.08 -283.3 -234.5 -429.9
2.495 -39.08 146.6 -156.3 -273.6 -283.3 -254 -312.7 -322.4 -263.8 -166.1 39.08 -39.08 -78.16 -97.7 -107.5 -19.54 -293.1 -254 -459.2
2.5 -117.2 156.3 -185.6 -293.1 -312.7 -263.8 -322.4 -351.7 -283.3 -195.4 -87.93 -9.77 -97.7 -87.93 -107.5 19.54 -342 -263.8 -478.7
2.505 -205.2 166.1 -254 -312.7 -351.7 -254 -322.4 -371.3 -273.6 -214.9 -185.6 -19.54 -107.5 -107.5 -107.5 29.31 -429.9 -293.1 -488.5
2.51 -263.8 127 -293.1 -351.7 -361.5 -273.6 -302.9 -381 -214.9 -214.9 -234.5 -58.62 -107.5 -127 -127 29.31 -498.3 -312.7 -469
2.515 -293.1 58.62 -302.9 -390.8 -332.2 -254 -234.5 -371.3 -107.5 -185.6 -254 -117.2 -97.7 -146.6 -127 39.08 -517.8 -302.9 -429.9
2.52 -322.4 -9.77 -273.6 -410.4 -283.3 -205.2 -136.8 -312.7 29.31 -127 -254 -185.6 -78.16 -127 -127 48.85 -508.1 -263.8 -332.2
2.525 -351.7 -68.39 -273.6 -439.7 -214.9 -156.3 -39.08 -234.5 156.3 -48.85 -224.7 -263.8 -78.16 -107.5 -127 68.39 -488.5 -224.7 -244.3
2.53 -400.6 -127 -283.3 -459.2 -175.9 -127 9.77 -156.3 244.3 19.54 -205.2 -293.1 -87.93 -87.93 -97.7 78.16 -469 -234.5 -146.6
2.535 -429.9 -97.7 -293.1 -488.5 -185.6 -127 0 -97.7 273.6 68.39 -166.1 -263.8 -117.2 -68.39 -97.7 48.85 -469 -244.3 -87.93
2.54 -381 0 -283.3 -498.3 -185.6 -146.6 -9.77 -68.39 244.3 97.7 -78.16 -214.9 -97.7 -68.39 -78.16 19.54 -459.2 -254 -58.62
2.545 -312.7 97.7 -234.5 -449.4 -146.6 -136.8 -9.77 -9.77 214.9 117.2 0 -136.8 -58.62 -68.39 -48.85 19.54 -410.4 -244.3 -19.54
2.55 -175.9 254 -136.8 -322.4 -87.93 -87.93 -19.54 39.08 185.6 156.3 97.7 -48.85 0 -48.85 9.77 29.31 -322.4 -175.9 9.77
2.555 -39.08 400.6 0 -146.6 -9.77 -29.31 9.77 87.93 146.6 166.1 185.6 29.31 87.93 -19.54 97.7 68.39 -195.4 -87.93 68.39
2.56 78.16 517.8 107.5 0 39.08 29.31 19.54 136.8 146.6 224.7 224.7 107.5 127 9.77 166.1 117.2 -78.16 -19.54 136.8
2.565 185.6 625.3 214.9 117.2 87.93 58.62 19.54 136.8 146.6 273.6 244.3 185.6 166.1 48.85 234.5 166.1 19.54 58.62 214.9
2.57 234.5 713.2 263.8 175.9 146.6 78.16 29.31 166.1 185.6 322.4 234.5 234.5 195.4 68.39 322.4 195.4 78.16 97.7 293.1
2.575 263.8 732.8 293.1 195.4 185.6 87.93 48.85 175.9 224.7 371.3 195.4 263.8 214.9 68.39 390.8 205.2 107.5 117.2 381
2.58 273.6 742.6 302.9 205.2 205.2 87.93 87.93 195.4 263.8 371.3 146.6 273.6 234.5 68.39 459.2 214.9 117.2 117.2 420.1
2.585 263.8 752.3 293.1 224.7 234.5 107.5 107.5 214.9 293.1 361.5 117.2 302.9 234.5 78.16 508.1 214.9 127 127 439.7
2.59 234.5 732.8 273.6 224.7 234.5 117.2 127 214.9 293.1 332.2 48.85 312.7 244.3 78.16 527.6 224.7 127 136.8 429.9
2.595 185.6 703.5 214.9 195.4 224.7 117.2 136.8 205.2 302.9 273.6 48.85 283.3 283.3 68.39 576.5 234.5 87.93 97.7 420.1
2.6 146.6 664.4 175.9 146.6 214.9 117.2 146.6 224.7 293.1 263.8 68.39 224.7 332.2 58.62 635.1 224.7 39.08 58.62 400.6
2.605 97.7 596 97.7 68.39 175.9 97.7 136.8 214.9 244.3 214.9 107.5 146.6 371.3 58.62 654.6 263.8 -48.85 -9.77 381
2.61 117.2 527.6 48.85 -19.54 166.1 97.7 156.3 244.3 205.2 195.4 146.6 58.62 400.6 78.16 635.1 293.1 -87.93 -58.62 381
2.615 156.3 508.1 48.85 -39.08 166.1 97.7 185.6 263.8 166.1 166.1 156.3 39.08 390.8 68.39 537.4 293.1 -68.39 -48.85 390.8
2.62 244.3 517.8 87.93 0 205.2 146.6 234.5 322.4 156.3 175.9 166.1 58.62 371.3 97.7 429.9 273.6 0 29.31 420.1
2.625 351.7 556.9 166.1 78.16 273.6 224.7 332.2 410.4 175.9 214.9 195.4 68.39 381 97.7 342 214.9 117.2 166.1 488.5
2.63 420.1 615.5 234.5 185.6 351.7 322.4 449.4 517.8 234.5 293.1 254 127 390.8 107.5 302.9 175.9 234.5 302.9 566.7
2.635 537.4 693.7 293.1 312.7 420.1 449.4 556.9 615.5 283.3 381 351.7 195.4 410.4 146.6 302.9 175.9 332.2 420.1 644.8
2.64 586.2 742.6 283.3 420.1 449.4 537.4 625.3 654.6 332.2 449.4 390.8 254 420.1 205.2 312.7 166.1 400.6 488.5 693.7
2.645 605.8 752.3 263.8 478.7 459.2 576.5 644.8 635.1 322.4 498.3 390.8 312.7 381 244.3 283.3 175.9 439.7 508.1 713.2
2.65 586.2 762.1 214.9 508.1 459.2 586.2 644.8 556.9 273.6 508.1 342 342 351.7 293.1 254 195.4 439.7 478.7 683.9
2.655 566.7 742.6 185.6 469 439.7 527.6 576.5 429.9 175.9 459.2 312.7 342 332.2 293.1 214.9 175.9 410.4 429.9 605.8
2.66 517.8 713.2 156.3 400.6 400.6 429.9 469 293.1 68.39 400.6 263.8 322.4 312.7 302.9 175.9 214.9 351.7 351.7 469
2.665 459.2 674.2 97.7 312.7 322.4 342 361.5 185.6 -19.54 322.4 205.2 302.9 263.8 302.9 127 244.3 263.8 263.8 361.5
2.67 351.7 615.5 -9.77 156.3 175.9 214.9 224.7 58.62 -87.93 224.7 117.2 273.6 175.9 273.6 58.62 224.7 166.1 136.8 234.5
2.675 205.2 488.5 -156.3 9.77 9.77 117.2 117.2 -9.77 -127 146.6 -29.31 195.4 48.85 234.5 -68.39 205.2 29.31 9.77 127
2.68 107.5 351.7 -244.3 -146.6 -107.5 0 58.62 -58.62 -107.5 97.7 -127 107.5 -39.08 175.9 -107.5 127 -78.16 -107.5 48.85
2.685 9.77 175.9 -332.2 -312.7 -175.9 -58.62 29.31 -58.62 -78.16 97.7 -195.4 0 -87.93 146.6 -127 68.39 -205.2 -195.4 9.77
2.69 -19.54 48.85 -361.5 -400.6 -195.4 -97.7 9.77 -68.39 -29.31 117.2 -244.3 -78.16 -107.5 117.2 -117.2 48.85 -293.1 -263.8 0
2.695 -39.08 19.54 -351.7 -400.6 -195.4 -97.7 -9.77 -39.08 9.77 136.8 -273.6 -87.93 -117.2 127 -48.85 58.62 -332.2 -283.3 -39.08
2.7 -48.85 19.54 -351.7 -342 -195.4 -87.93 -19.54 -19.54 29.31 136.8 -312.7 -58.62 -146.6 136.8 -19.54 87.93 -351.7 -283.3 -68.39
2.705 -68.39 107.5 -342 -254 -234.5 -58.62 -78.16 -9.77 -9.77 117.2 -361.5 -9.77 -205.2 146.6 -58.62 78.16 -351.7 -273.6 -127
2.71 -68.39 224.7 -312.7 -146.6 -234.5 -9.77 -97.7 39.08 -48.85 78.16 -410.4 48.85 -234.5 185.6 -78.16 68.39 -322.4 -244.3 -146.6
2.715 -87.93 293.1 -273.6 -48.85 -224.7 39.08 -117.2 87.93 -117.2 68.39 -439.7 97.7 -263.8 224.7 -136.8 48.85 -293.1 -185.6 -156.3
2.72 -117.2 302.9 -224.7 19.54 -205.2 107.5 -127 117.2 -175.9 68.39 -449.4 107.5 -273.6 263.8 -175.9 39.08 -254 -127 -156.3
2.725 -78.16 273.6 -156.3 78.16 -146.6 166.1 -87.93 146.6 -185.6 78.16 -410.4 136.8 -214.9 302.9 -156.3 39.08 -195.4 -48.85 -107.5
2.73 -48.85 214.9 -97.7 107.5 -97.7 195.4 -29.31 136.8 -175.9 97.7 -342 127 -136.8 312.7 -87.93 29.31 -136.8 -9.77 -58.62
2.735 -9.77 166.1 -39.08 117.2 -58.62 205.2 48.85 117.2 -146.6 127 -273.6 97.7 -58.62 293.1 -19.54 19.54 -97.7 29.31 -9.77
2.74 0 97.7 -39.08 87.93 -29.31 185.6 107.5 107.5 -87.93 136.8 -224.7 29.31 -19.54 244.3 39.08 9.77 -97.7 39.08 39.08
2.745 -19.54 0 -68.39 29.31 -39.08 117.2 136.8 87.93 -39.08 117.2 -244.3 -48.85 -29.31 195.4 48.85 0 -146.6 19.54 48.85
2.75 -78.16 -78.16 -127 -39.08 -68.39 39.08 117.2 48.85 0 68.39 -322.4 -78.16 -78.16 127 19.54 -29.31 -205.2 -19.54 39.08
2.755 -127 -97.7 -166.1 -68.39 -117.2 -9.77 68.39 29.31 29.31 39.08 -429.9 -48.85 -146.6 87.93 -9.77 -58.62 -234.5 -39.08 58.62
2.76 -156.3 -97.7 -214.9 -97.7 -136.8 -48.85 29.31 9.77 29.31 9.77 -488.5 -19.54 -185.6 48.85 -29.31 -78.16 -234.5 -78.16 48.85
2.765 -156.3 -58.62 -214.9 -136.8 -146.6 -97.7 -19.54 -29.31 29.31 19.54 -498.3 0 -185.6 29.31 -39.08 -107.5 -224.7 -87.93 29.31
2.77 -117.2 -58.62 -195.4 -205.2 -117.2 -156.3 -29.31 -87.93 29.31 58.62 -429.9 -29.31 -136.8 -9.77 -29.31 -97.7 -234.5 -127 19.54
2.775 -117.2 -68.39 -195.4 -312.7 -146.6 -244.3 -97.7 -185.6 -29.31 58.62 -390.8 -87.93 -136.8 -58.62 -29.31 -107.5 -312.7 -234.5 -39.08
2.78 -146.6 -68.39 -214.9 -400.6 -205.2 -332.2 -175.9 -283.3 -87.93 68.39 -371.3 -136.8 -146.6 -107.5 -48.85 -107.5 -400.6 -351.7 -127
2.785 -156.3 -58.62 -244.3 -439.7 -263.8 -371.3 -234.5 -351.7 -117.2 58.62 -390.8 -156.3 -156.3 -127 9.77 -87.93 -488.5 -420.1 -205.2
2.79 -205.2 -9.77 -293.1 -439.7 -342 -400.6 -293.1 -400.6 -175.9 19.54 -439.7 -136.8 -185.6 -146.6 48.85 -107.5 -547.6 -508.1 -283.3
2.795 -214.9 9.77 -361.5 -420.1 -400.6 -420.1 -371.3 -410.4 -244.3 -9.77 -459.2 -117.2 -234.5 -156.3 58.62 -156.3 -566.7 -547.6 -351.7
2.8 -224.7 29.31 -420.1 -371.3 -429.9 -429.9 -429.9 -429.9 -312.7 -78.16 -478.7 -117.2 -293.1 -185.6 39.08 -224.7 -537.4 -566.7 -429.9
2.805 -244.3 48.85 -478.7 -332.2 -488.5 -439.7 -517.8 -449.4 -439.7 -195.4 -517.8 -97.7 -381 -214.9 -58.62 -273.6 -517.8 -566.7 -498.3
2.81 -214.9 48.85 -459.2 -283.3 -469 -410.4 -537.4 -439.7 -508.1 -293.1 -527.6 -78.16 -449.4 -205.2 -146.6 -302.9 -420.1 -498.3 -488.5
2.815 -195.4 78.16 -390.8 -195.4 -381 -332.2 -527.6 -361.5 -537.4 -342 -488.5 -48.85 -478.7 -175.9 -195.4 -302.9 -322.4 -371.3 -429.9
2.82 -156.3 48.85 -293.1 -117.2 -263.8 -214.9 -449.4 -254 -478.7 -351.7 -429.9 -19.54 -459.2 -107.5 -224.7 -263.8 -224.7 -224.7 -312.7
2.825 -146.6 29.31 -195.4 -48.85 -136.8 -87.93 -322.4 -127 -351.7 -254 -302.9 19.54 -420.1 -29.31 -195.4 -244.3 -146.6 -78.16 -146.6
2.83 -136.8 -9.77 -97.7 0 -19.54 19.54 -185.6 29.31 -156.3 -87.93 -195.4 58.62 -332.2 68.39 -146.6 -166.1 -78.16 19.54 19.54
2.835 -117.2 -19.54 -9.77 9.77 78.16 97.7 -58.62 156.3 48.85 117.2 -87.93 78.16 -254 166.1 -48.85 -78.16 -29.31 78.16 185.6
2.84 -78.16 19.54 87.93 39.08 156.3 146.6 39.08 263.8 254 302.9 9.77 107.5 -156.3 254 39.08 9.77 48.85 136.8 283.3
2.845 -39.08 78.16 195.4 58.62 214.9 175.9 107.5 322.4 410.4 459.2 87.93 136.8 -68.39 302.9 146.6 87.93 136.8 175.9 361.5
2.85 19.54 127 293.1 97.7 263.8 195.4 146.6 322.4 478.7 508.1 156.3 146.6 19.54 293.1 234.5 97.7 234.5 214.9 390.8
2.855 78.16 136.8 371.3 185.6 293.1 195.4 175.9 293.1 537.4 508.1 205.2 146.6 68.39 234.5 302.9 97.7 302.9 234.5 390.8
2.86 97.7 127 420.1 205.2 332.2 185.6 156.3 263.8 547.1 449.4 244.3 127 107.5 146.6 332.2 78.16 342 244.3 361.5
2.865 107.5 68.39 400.6 205.2 283.3 166.1 136.8 205.2 517.8 361.5 234.5 117.2 107.5 58.62 332.2 39.08 332.2 234.5 293.1
2.87 39.08 -19.54 322.4 185.6 195.4 107.5 48.85 136.8 429.9 244.3 185.6 78.16 68.39 -19.54 283.3 0 293.1 156.3 195.4
2.875 -68.39 -117.2 195.4 107.5 48.85 -19.54 -87.93 29.31 273.6 87.93 97.7 9.77 -9.77 -127 214.9 -58.62 146.6 58.62 19.54
2.88 -214.9 -244.3 39.08 -9.77 -87.93 -195.4 -283.3 -146.6 68.39 -107.5 -9.77 -48.85 -107.5 -195.4 117.2 -136.8 -9.77 -117.2 -156.3
2.885 -381 -371.3 -97.7 -127 -234.5 -361.5 -459.2 -293.1 -127 -273.6 -117.2 -117.2 -234.5 -254 9.77 -175.9 -156.3 -263.8 -351.7
2.89 -478.7 -478.7 -195.4 -224.7 -322.4 -478.7 -605.8 -439.7 -293.1 -410.4 -185.6 -175.9 -302.9 -293.1 -29.31 -205.2 -244.3 -361.5 -478.7
2.895 -488.5 -527.6 -214.9 -273.6 -332.2 -498.3 -683.9 -498.3 -361.5 -439.7 -175.9 -175.9 -322.4 -293.1 -19.54 -205.2 -273.6 -371.3 -508.1
2.9 -429.9 -517.8 -166.1 -254 -254 -449.4 -664.4 -469 -342 -400.6 -87.93 -156.3 -283.3 -293.1 29.31 -195.4 -214.9 -322.4 -459.2
2.905 -322.4 -478.7 -97.7 -205.2 -146.6 -381 -615.5 -400.6 -293.1 -351.7 29.31 -117.2 -205.2 -273.6 87.93 -146.6 -127 -234.5 -371.3
2.91 -205.2 -410.4 0 -127 -29.31 -273.6 -517.8 -293.1 -195.4 -283.3 127 -58.62 -117.2 -254 117.2 -107.5 -19.54 -127 -263.8
2.915 -107.5 -371.3 68.39 -68.39 58.62 -195.4 -410.4 -195.4 -107.5 -224.7 185.6 -29.31 -58.62 -263.8 107.5 -117.2 78.16 -9.77 -175.9
2.92 -58.62 -371.3 107.5 0 156.3 -117.2 -293.1 -97.7 -39.08 -156.3 234.5 -9.77 -19.54 -254 107.5 -117.2 195.4 107.5 -117.2
2.925 -19.54 -400.6 117.2 39.08 195.4 -58.62 -205.2 -29.31 9.77 -117.2 244.3 0 -39.08 -254 97.7 -136.8 263.8 205.2 -58.62
2.93 -39.08 -439.7 87.93 87.93 214.9 -19.54 -185.6 -9.77 29.31 -107.5 214.9 -29.31 -58.62 -254 78.16 -166.1 312.7 244.3 -58.62
2.935 -68.39 -469 68.39 107.5 175.9 -9.77 -214.9 -9.77 0 -117.2 156.3 -48.85 -107.5 -224.7 58.62 -166.1 322.4 254 -87.93
2.94 -127 -478.7 9.77 107.5 87.93 9.77 -293.1 -19.54 -87.93 -156.3 48.85 -97.7 -175.9 -166.1 -29.31 -136.8 273.6 214.9 -136.8
2.945 -185.6 -488.5 0 68.39 0 -19.54 -381 -39.08 -166.1 -195.4 -48.85 -136.8 -244.3 -117.2 -78.16 -127 224.7 156.3 -195.4
2.95 -205.2 -508.1 -39.08 19.54 -78.16 -48.85 -459.2 -48.85 -244.3 -205.2 -146.6 -175.9 -312.7 -78.16 -166.1 -117.2 166.1 78.16 -234.5
2.955 -254 -566.7 -68.39 -39.08 -146.6 -97.7 -498.3 -78.16 -273.6 -214.9 -244.3 -244.3 -361.5 -58.62 -234.5 -117.2 97.7 19.54 -273.6
2.96 -273.6 -635.6 -87.93 -97.7 -146.6 -146.6 -488.5 -107.5 -273.6 -205.2 -283.3 -293.1 -342 -78.16 -254 -166.1 58.62 -29.31 -293.1
2.965 -302.9 -703.5 -87.93 -107.5 -127 -166.1 -459.2 -146.6 -234.5 -185.6 -283.3 -342 -322.4 -117.2 -283.3 -195.4 48.85 -39.08 -273.6
2.97 -283.3 -742.6 -78.16 -127 -68.39 -185.6 -400.6 -156.3 -166.1 -146.6 -234.5 -371.3 -263.8 -156.3 -273.6 -234.5 48.85 0 -263.8
2.975 -254 -742.6 -68.39 -136.8 -9.77 -185.6 -351.7 -175.9 -136.8 -127 -117.2 -371.3 -234.5 -185.6 -263.8 -273.6 87.93 29.31 -244.3
2.98 -214.9 -723 -19.54 -127 39.08 -175.9 -322.4 -175.9 -97.7 -127 9.77 -332.2 -175.9 -205.2 -263.8 -293.1 156.3 39.08 -254
2.985 -205.2 -703.5 -29.31 -87.93 29.31 -185.6 -342 -205.2 -117.2 -185.6 136.8 -312.7 -117.2 -234.5 -254 -312.7 175.9 39.08 -312.7
2.99 -234.5 -683.9 -68.39 -39.08 -19.54 -175.9 -390.8 -234.5 -166.1 -254 185.6 -283.3 -127 -263.8 -283.3 -302.9 156.3 29.31 -371.3
2.995 -283.3 -693.7 -127 -39.08 -97.7 -185.6 -439.7 -273.6 -214.9 -312.7 175.9 -273.6 -136.8 -273.6 -312.7 -312.7 107.5 -9.77 -439.7
3 -361.5 -703.5 -244.3 -97.7 -214.9 -224.7 -498.3 -312.7 -254 -371.3 107.5 -283.3 -195.4 -302.9 -361.5 -332.2 -9.77 -97.7 -459.2
3.005 -420.1 -683.9 -351.7 -166.1 -312.7 -293.1 -527.6 -342 -273.6 -410.4 -19.54 -302.9 -234.5 -351.7 -400.6 -371.3 -136.8 -185.6 -498.3
3.01 -429.9 -664.4 -429.9 -273.6 -342 -371.3 -508.1 -371.3 -273.6 -439.7 -136.8 -322.4 -234.5 -371.3 -381 -420.1 -234.5 -273.6 -478.7
3.015 -410.4 -586.2 -420.1 -302.9 -312.7 -410.4 -459.2 -351.7 -224.7 -439.7 -185.6 -332.2 -175.9 -381 -302.9 -400.6 -254 -293.1 -410.4
3.02 -312.7 -478.7 -302.9 -273.6 -224.7 -381 -371.3 -302.9 -166.1 -390.8 -195.4 -293.1 -58.62 -342 -195.4 -381 -214.9 -234.5 -322.4
3.025 -214.9 -351.7 -185.6 -205.2 -117.2 -322.4 -322.4 -224.7 -87.93 -332.2 -156.3 -234.5 58.62 -273.6 -78.16 -322.4 -136.8 -166.1 -214.9
3.03 -146.6 -244.3 -97.7 -146.6 -48.85 -254 -293.1 -156.3 -58.62 -283.3 -136.8 -185.6 136.8 -224.7 0 -254 -68.39 -127 -156.3
3.035 -97.7 -156.3 -48.85 -87.93 -29.31 -185.6 -302.9 -87.93 -39.08 -244.3 -146.6 -146.6 185.6 -185.6 29.31 -214.9 -39.08 -107.5 -117.2
3.04 -87.93 -78.16 -9.77 -87.93 -9.77 -136.8 -342 0 -29.31 -205.2 -146.6 -136.8 175.9 -146.6 9.77 -146.6 -39.08 -117.2 -68.39
3.045 -87.93 -48.85 9.77 -107.5 -29.31 -97.7 -351.7 78.16 0 -127 -166.1 -166.1 175.9 -78.16 0 -68.39 -97.7 -127 -39.08
3.05 -107.5 -68.39 19.54 -136.8 -58.62 -48.85 -351.7 156.3 39.08 -48.85 -156.3 -185.6 166.1 -29.31 -19.54 39.08 -146.6 -185.6 0
3.055 -156.3 -136.8 29.31 -195.4 -58.62 -58.62 -332.2 195.4 87.93 9.77 -166.1 -205.2 146.6 19.54 -9.77 127 -205.2 -234.5 29.31
3.06 -234.5 -224.7 0 -263.8 -117.2 -58.62 -351.7 166.1 87.93 29.31 -205.2 -224.7 117.2 48.85 -29.31 175.9 -273.6 -283.3 -9.77
3.065 -283.3 -283.3 -9.77 -302.9 -146.6 -97.7 -400.6 78.16 19.54 -29.31 -214.9 -205.2 97.7 39.08 -68.39 156.3 -302.9 -312.7 -97.7
3.07 -293.1 -244.3 9.77 -283.3 -156.3 -127 -478.7 -9.77 -58.62 -107.5 -224.7 -166.1 87.93 9.77 -97.7 146.6 -263.8 -302.9 -185.6
3.075 -254 -185.6 39.08 -234.5 -166.1 -146.6 -547.6 -78.16 -146.6 -185.6 -234.5 -117.2 78.16 -19.54 -127 127 -195.4 -293.1 -244.3
3.08 -214.9 -97.7 78.16 -146.6 -156.3 -136.8 -586.2 -107.5 -214.9 -244.3 -214.9 -39.08 68.39 -48.85 -156.3 97.7 -117.2 -234.5 -263.8
3.085 -205.2 -39.08 78.16 -58.62 -146.6 -107.5 -586.2 -78.16 -244.3 -254 -205.2 19.54 29.31 -58.62 -185.6 117.2 -48.85 -175.9 -244.3
3.09 -214.9 0 78.16 0 -136.8 -78.16 -547.6 -19.54 -224.7 -175.9 -224.7 48.85 9.77 -78.16 -185.6 58.62 0 -117.2 -185.6
3.095 -185.6 48.85 127 58.62 -58.62 -19.54 -439.7 68.39 -166.1 -97.7 -146.6 87.93 39.08 -58.62 -136.8 58.62 87.93 -39.08 -78.16
3.1 -136.8 117.2 195.4 127 58.62 48.85 -312.7 156.3 -87.93 -29.31 -87.93 117.2 97.7 -29.31 -58.62 87.93 166.1 78.16 0
3.105 -78.16 195.4 254 205.2 175.9 107.5 -214.9 205.2 -9.77 19.54 -9.77 127 166.1 -19.54 19.54 97.7 234.5 195.4 107.5
3.11 -9.77 234.5 342 273.6 293.1 185.6 -97.7 244.3 78.16 58.62 68.39 146.6 234.5 19.54 58.62 136.8 293.1 302.9 175.9
3.115 58.62 244.3 410.4 322.4 371.3 234.5 -9.77 263.8 156.3 78.16 146.6 166.1 283.3 29.31 78.16 127 332.2 371.3 224.7
3.12 87.93 234.5 439.7 351.7 410.4 273.6 39.08 273.6 224.7 117.2 205.2 175.9 322.4 39.08 87.93 127 342 420.1 273.6
3.125 127 214.9 478.7 371.3 420.1 312.7 107.5 283.3 293.1 156.3 254 214.9 351.7 58.62 117.2 136.8 361.5 449.4 361.5
3.13 146.6 185.6 459.2 371.3 381 332.2 107.5 293.1 351.7 185.6 302.9 254 351.7 58.62 136.8 156.3 371.3 449.4 390.8
3.135 117.2 117.2 381 332.2 312.7 322.4 97.7 293.1 371.3 224.7 273.6 244.3 332.2 58.62 136.8 175.9 332.2 410.4 429.9
3.14 78.16 48.85 302.9 283.3 224.7 263.8 68.39 273.6 361.5 205.2 244.3 224.7 283.3 58.62 127 214.9 244.3 361.5 381
3.145 58.62 -19.54 234.5 205.2 136.8 185.6 0 224.7 312.7 146.6 224.7 175.9 224.7 29.31 87.93 205.2 166.1 293.1 293.1
3.15 48.85 -58.62 175.9 107.5 58.62 107.5 -29.31 175.9 254 97.7 205.2 107.5 156.3 -19.54 87.93 166.1 87.93 214.9 185.6
3.155 87.93 -48.85 205.2 68.39 29.31 58.62 -19.54 127 205.2 48.85 234.5 87.93 156.3 -58.62 127 146.6 68.39 205.2 107.5
3.16 195.4 19.54 263.8 68.39 58.62 39.08 48.85 97.7 175.9 39.08 293.1 107.5 185.6 -107.5 185.6 68.39 97.7 185.6 48.85
3.165 283.3 136.8 351.7 97.7 87.93 87.93 166.1 87.93 175.9 39.08 302.9 166.1 214.9 -87.93 214.9 39.08 175.9 214.9 48.85
3.17 361.5 214.9 429.9 156.3 107.5 127 273.6 87.93 156.3 39.08 283.3 234.5 214.9 -87.93 185.6 39.08 224.7 234.5 48.85
3.175 361.5 234.5 410.4 175.9 58.62 107.5 332.2 58.62 107.5 19.54 185.6 254 146.6 -107.5 107.5 9.77 214.9 195.4 0
3.18 283.3 166.1 312.7 127 -19.54 48.85 342 19.54 9.77 -29.31 39.08 195.4 48.85 -146.6 0 0 146.6 87.93 -68.39
3.185 127 39.08 146.6 9.77 -156.3 -58.62 312.7 -39.08 -68.39 -107.5 -87.93 87.93 -58.62 -214.9 -97.7 -48.85 29.31 -48.85 -166.1
3.19 -39.08 -117.2 -39.08 -117.2 -283.3 -146.6 283.3 -68.39 -156.3 -156.3 -175.9 -19.54 -166.1 -244.3 -175.9 -68.39 -87.93 -185.6 -234.5
3.195 -146.6 -234.5 -166.1 -205.2 -361.5 -185.6 293.1 -78.16 -205.2 -185.6 -195.4 -78.16 -224.7 -254 -214.9 -78.16 -166.1 -273.6 -254
3.2 -205.2 -293.1 -254 -214.9 -400.6 -166.1 293.1 -58.62 -244.3 -185.6 -185.6 -78.16 -263.8 -234.5 -263.8 -78.16 -214.9 -293.1 -273.6
3.205 -175.9 -312.7 -254 -166.1 -361.5 -117.2 342 -29.31 -263.8 -166.1 -97.7 0 -254 -185.6 -283.3 -58.62 -185.6 -244.3 -254
3.21 -107.5 -273.6 -205.2 -87.93 -312.7 -58.62 410.4 19.54 -244.3 -136.8 0 87.93 -214.9 -136.8 -283.3 -39.08 -136.8 -175.9 -224.7
3.215 0 -195.4 -127 9.77 -214.9 0 527.6 68.39 -224.7 -117.2 97.7 175.9 -156.3 -107.5 -254 -29.31 -29.31 -87.93 -185.6
3.22 87.93 -97.7 -58.62 87.93 -107.5 58.62 654.6 107.5 -166.1 -97.7 195.4 214.9 -68.39 -68.39 -195.4 -9.77 68.39 -9.77 -156.3
3.225 146.6 -48.85 -29.31 136.8 -39.08 68.39 781.6 127 -136.8 -107.5 254 214.9 -9.77 -58.62 -117.2 -9.77 127 29.31 -146.6
3.23 166.1 -19.54 -39.08 117.2 -29.31 68.39 859.8 87.93 -156.3 -136.8 244.3 195.4 9.77 -48.85 -78.16 -29.31 136.8 9.77 -166.1
3.235 127 -58.62 -97.7 48.85 -58.62 0 889.1 19.54 -185.6 -195.4 214.9 107.5 0 -68.39 -78.16 -78.16 58.62 -58.62 -185.6
3.24 78.16 -87.93 -136.8 -19.54 -97.7 -78.16 879.3 -48.85 -214.9 -205.2 195.4 29.31 -48.85 -87.93 -107.5 -117.2 -19.54 -127 -244.3
3.245 68.39 -97.7 -175.9 -87.93 -107.5 -136.8 850 -97.7 -214.9 -205.2 195.4 -29.31 -68.39 -97.7 -136.8 -136.8 -87.93 -195.4 -263.8
3.25 48.85 -107.5 -175.9 -136.8 -127 -156.3 830.5 -107.5 -214.9 -185.6 205.2 -68.39 -68.39 -87.93 -156.3 -146.6 -127 -224.7 -273.6
3.255 78.16 -87.93 -136.8 -166.1 -107.5 -146.6 810.9 -97.7 -185.6 -166.1 254 -87.93 -48.85 -48.85 -146.6 -127 -127 -214.9 -254
3.26 87.93 -87.93 -107.5 -175.9 -97.7 -97.7 781.6 -58.62 -175.9 -146.6 273.6 -58.62 -48.85 0 -136.8 -97.7 -127 -195.4 -224.7
3.265 87.93 -107.5 -97.7 -185.6 -107.5 -68.39 723 -29.31 -205.2 -166.1 263.8 -58.62 -58.62 29.31 -156.3 -97.7 -127 -195.4 -224.7
3.27 87.93 -127 -87.93 -185.6 -97.7 -48.85 674.2 -19.54 -214.9 -195.4 263.8 -48.85 -78.16 39.08 -166.1 -97.7 -127 -195.4 -205.2
3.275 58.62 -156.3 -107.5 -205.2 -117.2 -58.62 605.8 -39.08 -263.8 -224.7 263.8 -48.85 -117.2 9.77 -205.2 -146.6 -127 -214.9 -185.6
3.28 39.08 -195.4 -156.3 -214.9 -156.3 -87.93 537.4 -78.16 -312.7 -263.8 244.3 -78.16 -166.1 -58.62 -263.8 -195.4 -127 -254 -214.9
3.285 9.77 -263.8 -195.4 -244.3 -175.9 -136.8 459.2 -136.8 -361.5 -302.9 214.9 -117.2 -205.2 -107.5 -302.9 -234.5 -136.8 -302.9 -254
3.29 -29.31 -302.9 -244.3 -273.6 -214.9 -185.6 390.8 -185.6 -400.6 -332.2 175.9 -136.8 -254 -156.3 -361.5 -234.5 -127 -332.2 -283.3
3.295 -68.39 -322.4 -293.1 -283.3 -214.9 -205.2 361.5 -205.2 -381 -332.2 107.5 -117.2 -263.8 -156.3 -390.8 -175.9 -117.2 -342 -283.3
3.3 -117.2 -312.7 -322.4 -234.5 -205.2 -195.4 371.3 -175.9 -322.4 -273.6 48.85 -68.39 -263.8 -117.2 -361.5 -78.16 -107.5 -302.9 -254
3.305 -146.6 -293.1 -351.7 -185.6 -146.6 -136.8 400.6 -87.93 -234.5 -185.6 29.31 0 -214.9 -68.39 -312.7 0 -87.93 -234.5 -175.9
3.31 -146.6 -273.6 -371.3 -146.6 -107.5 -78.16 429.9 -9.77 -166.1 -117.2 19.54 39.08 -166.1 -19.54 -263.8 87.93 -78.16 -185.6 -117.2
3.315 -195.4 -283.3 -449.4 -117.2 -107.5 -19.54 390.8 48.85 -127 -78.16 -9.77 48.85 -127 -9.77 -254 107.5 -117.2 -136.8 -97.7
3.32 -273.6 -322.4 -517.8 -205.2 -166.1 -39.08 224.7 0 -185.6 -136.8 -175.9 -58.62 -166.1 -29.31 -302.9 19.54 -214.9 -175.9 -127
3.325 -254 -244.3 -478.7 -244.3 -205.2 0 58.62 -19.54 -185.6 -146.6 -302.9 -97.7 -156.3 9.77 -283.3 -58.62 -273.6 -175.9 -146.6
3.33 -214.9 -156.3 -420.1 -254 -224.7 29.31 -78.16 -48.85 -146.6 -166.1 -410.4 -127 -127 29.31 -224.7 -175.9 -283.3 -185.6 -166.1
3.335 -146.6 -19.54 -322.4 -234.5 -214.9 39.08 -214.9 -97.7 -136.8 -205.2 -469 -136.8 -117.2 29.31 -166.1 -273.6 -293.1 -195.4 -205.2
3.34 -48.85 117.2 -205.2 -127 -166.1 78.16 -234.5 -78.16 -58.62 -185.6 -400.6 -78.16 -39.08 58.62 -48.85 -302.9 -244.3 -175.9 -195.4
3.345 -39.08 146.6 -156.3 -87.93 -146.6 39.08 -263.8 -107.5 -78.16 -205.2 -361.5 -48.85 -58.62 19.54 -58.62 -322.4 -214.9 -195.4 -234.5
3.35 -48.85 146.6 -107.5 -39.08 -146.6 0 -293.1 -136.8 -87.93 -185.6 -332.2 -68.39 -117.2 -19.54 -136.8 -342 -224.7 -185.6 -224.7
3.355 -39.08 146.6 -9.77 -9.77 -107.5 -29.31 -283.3 -146.6 -87.93 -156.3 -273.6 -97.7 -185.6 -48.85 -195.4 -371.3 -205.2 -175.9 -195.4
3.36 -19.54 117.2 78.16 9.77 -48.85 -29.31 -254 -146.6 -48.85 -117.2 -205.2 -117.2 -195.4 -39.08 -224.7 -361.5 -146.6 -127 -87.93
3.365 -9.77 117.2 166.1 19.54 0 -29.31 -224.7 -136.8 -9.77 -39.08 -127 -127 -185.6 -39.08 -195.4 -342 -97.7 -68.39 -9.77
3.37 19.54 127 214.9 9.77 39.08 -29.31 -214.9 -146.6 58.62 9.77 -68.39 -136.8 -146.6 -39.08 -136.8 -322.4 -58.62 -29.31 39.08
3.375 48.85 166.1 234.5 19.54 68.39 -19.54 -205.2 -127 156.3 97.7 -29.31 -136.8 -97.7 -19.54 -29.31 -234.5 -39.08 9.77 117.2
3.38 87.93 205.2 224.7 29.31 87.93 39.08 -175.9 -58.62 283.3 195.4 -29.31 -127 -48.85 29.31 78.16 -127 -39.08 48.85 214.9
3.385 127 244.3 214.9 48.85 107.5 107.5 -87.93 58.62 410.4 351.7 0 -87.93 0 78.16 185.6 -19.54 -19.54 107.5 342
3.39 185.6 293.1 244.3 107.5 146.6 224.7 9.77 205.2 576.5 498.3 68.39 -58.62 107.5 136.8 312.7 127 29.31 175.9 488.5
3.395 205.2 322.4 244.3 146.6 175.9 283.3 58.62 283.3 644.8 586.2 87.93 -29.31 185.6 156.3 371.3 205.2 68.39 224.7 556.9
3.4 214.9 302.9 244.3 175.9 205.2 293.1 58.62 283.3 635.1 576.5 117.2 -29.31 244.3 146.6 381 214.9 107.5 224.7 547.1
3.405 175.9 244.3 195.4 175.9 205.2 234.5 0 185.6 537.4 488.5 87.93 -58.62 263.8 87.93 381 156.3 87.93 185.6 478.7
3.41 127 136.8 166.1 117.2 185.6 127 -107.5 39.08 410.4 332.2 39.08 -117.2 234.5 9.77 312.7 97.7 48.85 107.5 351.7
3.415 107.5 68.39 156.3 87.93 156.3 68.39 -185.6 -97.7 283.3 205.2 19.54 -156.3 185.6 -29.31 263.8 19.54 19.54 68.39 244.3
3.42 78.16 19.54 156.3 87.93 146.6 29.31 -263.8 -175.9 185.6 107.5 48.85 -166.1 127 -58.62 205.2 -48.85 9.77 58.62 185.6
3.425 87.93 9.77 166.1 117.2 156.3 58.62 -322.4 -195.4 127 48.85 107.5 -146.6 87.93 -48.85 146.6 -58.62 19.54 107.5 146.6
3.43 117.2 39.08 175.9 136.8 175.9 97.7 -371.3 -185.6 48.85 19.54 185.6 -136.8 39.08 -48.85 87.93 -127 39.08 166.1 146.6
3.435 97.7 9.77 146.6 127 185.6 117.2 -449.4 -195.4 -19.54 -29.31 175.9 -146.6 19.54 -58.62 19.54 -185.6 19.54 195.4 117.2
3.44 39.08 -29.31 97.7 107.5 185.6 97.7 -508.1 -195.4 -87.93 -48.85 146.6 -185.6 -9.77 -78.16 -48.85 -214.9 -19.54 175.9 107.5
3.445 -29.31 -87.93 9.77 29.31 127 29.31 -576.5 -263.8 -166.1 -78.16 48.85 -214.9 -48.85 -146.6 -117.2 -273.6 -87.93 107.5 58.62
3.45 -107.5 -146.6 -78.16 -87.93 87.93 -87.93 -586.2 -361.5 -234.5 -97.7 -48.85 -283.3 -68.39 -214.9 -166.1 -351.7 -205.2 0 9.77
3.455 -175.9 -195.4 -166.1 -195.4 0 -205.2 -605.8 -469 -293.1 -97.7 -107.5 -342 -97.7 -254 -234.5 -410.4 -312.7 -127 -48.85
3.46 -244.3 -283.3 -254 -312.7 -87.93 -332.2 -596 -566.7 -322.4 -117.2 -156.3 -400.6 -127 -302.9 -293.1 -469 -429.9 -234.5 -107.5
3.465 -322.4 -381 -332.2 -429.9 -156.3 -420.1 -576.5 -605.8 -312.7 -97.7 -214.9 -439.7 -156.3 -342 -322.4 -488.5 -508.1 -312.7 -127
3.47 -390.8 -459.2 -390.8 -498.3 -214.9 -449.4 -556.9 -586.2 -312.7 -39.08 -293.1 -459.2 -205.2 -361.5 -332.2 -469 -556.9 -351.7 -136.8
3.475 -410.4 -488.5 -420.1 -498.3 -224.7 -439.7 -517.8 -517.8 -263.8 19.54 -322.4 -459.2 -224.7 -361.5 -302.9 -400.6 -527.6 -332.2 -117.2
3.48 -361.5 -459.2 -390.8 -449.4 -175.9 -351.7 -410.4 -420.1 -205.2 48.85 -302.9 -420.1 -214.9 -351.7 -263.8 -342 -449.4 -254 -39.08
3.485 -293.1 -390.8 -332.2 -322.4 -97.7 -234.5 -312.7 -312.7 -156.3 107.5 -273.6 -342 -205.2 -322.4 -195.4 -254 -342 -136.8 48.85
3.49 -195.4 -322.4 -263.8 -205.2 29.31 -107.5 -185.6 -224.7 -78.16 166.1 -195.4 -263.8 -146.6 -283.3 -127 -185.6 -254 9.77 136.8
3.495 -107.5 -273.6 -185.6 -117.2 136.8 -19.54 -78.16 -166.1 -19.54 195.4 -97.7 -185.6 -68.39 -224.7 -39.08 -146.6 -175.9 117.2 214.9
3.5 -29.31 -224.7 -117.2 -29.31 214.9 29.31 -29.31 -127 29.31 195.4 -19.54 -117.2 39.08 -156.3 48.85 -107.5 -107.5 166.1 224.7
3.505 48.85 -175.9 -48.85 19.54 224.7 48.85 -29.31 -117.2 29.31 175.9 39.08 -58.62 127 -87.93 78.16 -87.93 -78.16 185.6 195.4
3.51 117.2 -127 9.77 68.39 263.8 58.62 -39.08 -97.7 48.85 166.1 117.2 9.77 195.4 -19.54 117.2 -58.62 -19.54 185.6 156.3
3.515 156.3 -68.39 68.39 117.2 263.8 48.85 -68.39 -87.93 48.85 127 166.1 48.85 205.2 19.54 78.16 -48.85 0 205.2 97.7
3.52 156.3 -68.39 97.7 136.8 234.5 9.77 -107.5 -97.7 29.31 68.39 205.2 58.62 166.1 29.31 39.08 -68.39 0 214.9 39.08
3.525 156.3 -58.62 87.93 146.6 205.2 0 -87.93 -146.6 -9.77 -9.77 224.7 87.93 117.2 48.85 9.77 -87.93 -9.77 214.9 -29.31
3.53 97.7 -78.16 39.08 146.6 156.3 -9.77 -117.2 -185.6 -58.62 -97.7 224.7 97.7 29.31 39.08 -19.54 -146.6 -39.08 185.6 -97.7
3.535 78.16 -48.85 9.77 136.8 97.7 -19.54 -127 -254 -136.8 -166.1 224.7 127 -29.31 29.31 -48.85 -214.9 -78.16 146.6 -156.3
3.54 68.39 9.77 -19.54 136.8 68.39 0 -146.6 -244.3 -166.1 -214.9 244.3 175.9 -48.85 39.08 -48.85 -244.3 -48.85 117.2 -185.6
3.545 48.85 68.39 -48.85 127 48.85 29.31 -156.3 -224.7 -175.9 -224.7 224.7 205.2 -58.62 58.62 -68.39 -214.9 -58.62 97.7 -175.9
3.55 58.62 117.2 -58.62 127 39.08 48.85 -146.6 -175.9 -185.6 -156.3 195.4 214.9 -48.85 58.62 -68.39 -156.3 -48.85 87.93 -146.6
3.555 19.54 136.8 -58.62 117.2 29.31 68.39 -117.2 -97.7 -127 -78.16 146.6 214.9 -39.08 58.62 -97.7 -117.2 -78.16 78.16 -68.39
3.56 -39.08 78.16 -107.5 107.5 -19.54 48.85 -97.7 -29.31 -97.7 29.31 48.85 175.9 -58.62 48.85 -87.93 -58.62 -127 78.16 -29.31
3.565 -87.93 0 -136.8 39.08 -78.16 9.77 -87.93 9.77 -68.39 136.8 -58.62 127 -58.62 48.85 -78.16 -48.85 -175.9 48.85 19.54
3.57 -127 -97.7 -185.6 -39.08 -107.5 -39.08 -97.7 0 -68.39 175.9 -146.6 58.62 -48.85 39.08 -87.93 -48.85 -224.7 9.77 29.31
3.575 -175.9 -224.7 -224.7 -127 -136.8 -97.7 -127 9.77 -97.7 175.9 -234.5 -39.08 -39.08 9.77 -87.93 -29.31 -263.8 0 29.31
3.58 -156.3 -273.6 -244.3 -156.3 -117.2 -117.2 -166.1 -19.54 -136.8 146.6 -273.6 -68.39 -9.77 -19.54 -78.16 -39.08 -244.3 -9.77 29.31
3.585 -146.6 -302.9 -283.3 -175.9 -136.8 -107.5 -205.2 -19.54 -156.3 107.5 -302.9 -107.5 -9.77 -39.08 -107.5 -39.08 -224.7 0 19.54
3.59 -156.3 -283.3 -293.1 -166.1 -146.6 -97.7 -234.5 -48.85 -175.9 68.39 -312.7 -107.5 -9.77 -68.39 -127 -29.31 -146.6 0 0
3.595 -127 -185.6 -263.8 -97.7 -107.5 -58.62 -244.3 -39.08 -166.1 48.85 -263.8 -78.16 0 -78.16 -136.8 -48.85 -48.85 39.08 9.77
3.6 -68.39 -78.16 -205.2 -29.31 -48.85 -19.54 -185.6 -19.54 -117.2 58.62 -195.4 -48.85 9.77 -87.93 -107.5 -48.85 78.16 107.5 58.62
3.605 9.77 48.85 -107.5 39.08 68.39 29.31 -97.7 19.54 -48.85 97.7 -78.16 -39.08 68.39 -68.39 -29.31 -29.31 195.4 195.4 146.6
3.61 78.16 156.3 -19.54 97.7 175.9 68.39 -9.77 68.39 48.85 156.3 29.31 -29.31 136.8 -48.85 48.85 19.54 302.9 263.8 214.9
3.615 136.8 244.3 29.31 127 263.8 117.2 78.16 127 117.2 205.2 117.2 9.77 195.4 -19.54 107.5 78.16 351.7 293.1 254
3.62 146.6 283.3 39.08 146.6 263.8 127 97.7 156.3 127 195.4 146.6 29.31 205.2 -9.77 117.2 136.8 351.7 273.6 224.7
3.625 136.8 302.9 19.54 146.6 244.3 146.6 58.62 156.3 68.39 136.8 107.5 48.85 195.4 19.54 58.62 195.4 322.4 234.5 156.3
3.63 127 322.4 -9.77 146.6 205.2 175.9 -39.08 127 -39.08 39.08 78.16 78.16 166.1 19.54 -9.77 214.9 322.4 214.9 97.7
3.635 127 342 -19.54 185.6 185.6 224.7 -107.5 127 -136.8 -39.08 39.08 97.7 166.1 39.08 -48.85 205.2 322.4 234.5 39.08
3.64 185.6 400.6 19.54 234.5 214.9 273.6 -136.8 127 -166.1 -78.16 48.85 117.2 175.9 68.39 -29.31 195.4 381 273.6 19.54
3.645 234.5 478.7 68.39 302.9 224.7 342 -117.2 166.1 -156.3 -78.16 68.39 175.9 205.2 127 -19.54 224.7 410.4 302.9 68.39
3.65 234.5 498.3 78.16 351.7 244.3 381 -68.39 244.3 -78.16 0 87.93 195.4 244.3 175.9 48.85 283.3 400.6 332.2 117.2
3.655 205.2 478.7 68.39 332.2 234.5 400.6 -9.77 312.7 9.77 107.5 87.93 205.2 254 234.5 136.8 342 361.5 302.9 185.6
3.66 156.3 429.9 58.62 312.7 224.7 390.8 68.39 390.8 136.8 224.7 68.39 185.6 283.3 273.6 214.9 371.3 322.4 283.3 254
3.665 166.1 410.4 68.39 283.3 224.7 361.5 117.2 410.4 244.3 302.9 68.39 146.6 312.7 293.1 302.9 420.1 293.1 244.3 293.1
3.67 195.4 390.8 87.93 244.3 205.2 283.3 127 371.3 273.6 342 58.62 97.7 302.9 254 322.4 351.7 254 185.6 273.6
3.675 244.3 381 136.8 205.2 166.1 214.9 117.2 312.7 283.3 351.7 48.85 58.62 283.3 195.4 342 302.9 263.8 136.8 263.8
3.68 244.3 381 146.6 166.1 107.5 156.3 78.16 254 244.3 312.7 39.08 19.54 244.3 156.3 293.1 244.3 263.8 97.7 234.5
3.685 195.4 342 136.8 117.2 29.31 107.5 29.31 224.7 195.4 273.6 0 -19.54 205.2 107.5 224.7 185.6 263.8 87.93 214.9
3.69 146.6 322.4 136.8 97.7 -19.54 107.5 19.54 195.4 136.8 224.7 0 -19.54 185.6 68.39 175.9 156.3 273.6 127 214.9
3.695 87.93 322.4 136.8 48.85 -39.08 78.16 39.08 166.1 87.93 136.8 -19.54 -19.54 166.1 19.54 107.5 136.8 254 136.8 234.5
3.7 68.39 283.3 136.8 19.54 -39.08 29.31 58.62 97.7 58.62 39.08 -29.31 -39.08 166.1 -48.85 68.39 48.85 214.9 136.8 214.9
3.705 48.85 244.3 146.6 -29.31 -39.08 -58.62 78.16 19.54 29.31 -68.39 -39.08 -68.39 146.6 -136.8 58.62 -39.08 156.3 97.7 185.6
3.71 48.85 185.6 156.3 -48.85 -29.31 -136.8 97.7 -58.62 9.77 -146.6 -58.62 -117.2 146.6 -214.9 58.62 -127 107.5 39.08 166.1
3.715 39.08 166.1 166.1 -87.93 -48.85 -195.4 97.7 -107.5 0 -205.2 -87.93 -156.3 146.6 -283.3 68.39 -175.9 68.39 -9.77 166.1
3.72 19.54 117.2 146.6 -136.8 -78.16 -244.3 97.7 -117.2 29.31 -224.7 -117.2 -224.7 166.1 -322.4 97.7 -214.9 19.54 -48.85 146.6
3.725 19.54 87.93 166.1 -166.1 -97.7 -283.3 107.5 -107.5 58.62 -214.9 -127 -254 175.9 -342 156.3 -214.9 0 -58.62 146.6
3.73 -19.54 58.62 146.6 -234.5 -117.2 -332.2 68.39 -87.93 68.39 -195.4 -107.5 -293.1 175.9 -351.7 205.2 -214.9 -29.31 -58.62 166.1
3.735 -48.85 9.77 107.5 -302.9 -136.8 -351.7 68.39 -58.62 107.5 -166.1 -78.16 -322.4 185.6 -342 254 -185.6 -58.62 -68.39 166.1
3.74 -48.85 0 136.8 -332.2 -136.8 -332.2 87.93 -19.54 146.6 -107.5 -19.54 -283.3 195.4 -312.7 302.9 -146.6 -48.85 -68.39 185.6
3.745 -39.08 0 185.6 -332.2 -107.5 -302.9 117.2 19.54 214.9 -78.16 29.31 -234.5 214.9 -283.3 342 -97.7 -19.54 -78.16 214.9
3.75 9.77 48.85 263.8 -273.6 -107.5 -205.2 136.8 48.85 224.7 -39.08 58.62 -156.3 175.9 -234.5 293.1 -29.31 29.31 -39.08 224.7
3.755 58.62 87.93 322.4 -185.6 -107.5 -117.2 127 78.16 195.4 0 87.93 -97.7 146.6 -214.9 214.9 19.54 78.16 9.77 195.4
3.76 58.62 117.2 361.5 -127 -117.2 -78.16 87.93 78.16 136.8 19.54 68.39 -78.16 97.7 -224.7 146.6 58.62 107.5 9.77 156.3
3.765 39.08 87.93 371.3 -127 -136.8 -78.16 19.54 87.93 48.85 29.31 68.39 -127 58.62 -254 97.7 68.39 78.16 -9.77 117.2
3.77 0 39.08 371.3 -166.1 -166.1 -117.2 -29.31 97.7 -19.54 58.62 68.39 -156.3 48.85 -293.1 107.5 78.16 29.31 -58.62 58.62
3.775 -19.54 0 371.3 -224.7 -166.1 -156.3 -48.85 97.7 -58.62 87.93 97.7 -185.6 48.85 -302.9 107.5 107.5 -29.31 -117.2 19.54
3.78 -48.85 -29.31 371.3 -263.8 -156.3 -214.9 -19.54 78.16 -39.08 78.16 127 -205.2 78.16 -283.3 156.3 136.8 -58.62 -166.1 0
3.785 -29.31 -9.77 390.8 -224.7 -107.5 -244.3 48.85 39.08 29.31 68.39 175.9 -166.1 136.8 -234.5 244.3 205.2 -58.62 -195.4 0
3.79 -29.31 29.31 449.4 -185.6 -29.31 -273.6 107.5 9.77 78.16 29.31 254 -107.5 214.9 -185.6 322.4 244.3 -19.54 -205.2 -19.54
3.795 -19.54 78.16 498.3 -117.2 0 -293.1 166.1 -58.62 97.7 -39.08 332.2 -48.85 244.3 -156.3 381 224.7 39.08 -185.6 -48.85
3.8 -9.77 107.5 517.8 -78.16 48.85 -293.1 195.4 -97.7 117.2 -127 361.5 0 263.8 -156.3 390.8 224.7 78.16 -175.9 -87.93
3.805 -39.08 87.93 527.6 -58.62 58.62 -273.6 175.9 -117.2 117.2 -185.6 371.3 19.54 214.9 -166.1 342 146.6 117.2 -146.6 -107.5
3.81 -68.39 9.77 517.8 -78.16 39.08 -234.5 156.3 -97.7 117.2 -224.7 312.7 9.77 156.3 -166.1 273.6 117.2 146.6 -127 -117.2
3.815 -156.3 -78.16 469 -127 -9.77 -195.4 78.16 -87.93 97.7 -244.3 205.2 -19.54 48.85 -175.9 185.6 87.93 127 -127 -127
3.82 -224.7 -146.6 410.4 -175.9 -29.31 -156.3 29.31 -68.39 68.39 -214.9 117.2 -68.39 -39.08 -185.6 117.2 87.93 127 -146.6 -117.2
3.825 -283.3 -205.2 342 -224.7 -58.62 -146.6 -19.54 -58.62 39.08 -205.2 39.08 -127 -117.2 -205.2 58.62 78.16 97.7 -185.6 -107.5
3.83 -322.4 -273.6 293.1 -273.6 -97.7 -166.1 -68.39 -68.39 -9.77 -185.6 -48.85 -195.4 -175.9 -224.7 19.54 58.62 87.93 -234.5 -107.5
3.835 -312.7 -322.4 283.3 -302.9 -97.7 -166.1 -97.7 -68.39 -58.62 -185.6 -107.5 -254 -185.6 -214.9 -9.77 48.85 87.93 -244.3 -117.2
3.84 -302.9 -381 283.3 -332.2 -136.8 -175.9 -156.3 -97.7 -136.8 -244.3 -166.1 -312.7 -224.7 -244.3 -58.62 29.31 78.16 -254 -166.1
3.845 -312.7 -410.4 283.3 -332.2 -175.9 -175.9 -244.3 -127 -214.9 -302.9 -234.5 -351.7 -263.8 -244.3 -127 19.54 68.39 -244.3 -244.3
3.85 -312.7 -469 273.6 -332.2 -185.6 -175.9 -312.7 -185.6 -263.8 -381 -263.8 -381 -273.6 -254 -185.6 -9.77 39.08 -254 -332.2
3.855 -361.5 -508.1 214.9 -322.4 -234.5 -214.9 -361.5 -244.3 -312.7 -429.9 -302.9 -400.6 -283.3 -244.3 -224.7 -9.77 0 -273.6 -410.4
3.86 -420.1 -517.8 136.8 -302.9 -283.3 -234.5 -371.3 -273.6 -283.3 -429.9 -342 -400.6 -302.9 -224.7 -263.8 -9.77 -39.08 -293.1 -459.2
3.865 -498.3 -527.6 58.62 -312.7 -322.4 -263.8 -371.3 -312.7 -214.9 -390.8 -381 -390.8 -312.7 -185.6 -244.3 19.54 -78.16 -322.4 -488.5
3.87 -547.6 -527.6 19.54 -302.9 -351.7 -263.8 -361.5 -312.7 -156.3 -322.4 -449.4 -390.8 -351.7 -146.6 -214.9 48.85 -97.7 -371.3 -498.3
3.875 -586.2 -478.7 -19.54 -293.1 -390.8 -273.6 -361.5 -293.1 -107.5 -234.5 -537.4 -342 -420.1 -136.8 -195.4 87.93 -107.5 -390.8 -508.1
3.88 -586.2 -469 -48.85 -302.9 -410.4 -293.1 -371.3 -263.8 -87.93 -146.6 -625.3 -332.2 -478.7 -127 -156.3 117.2 -117.2 -420.1 -508.1
3.885 -576.5 -469 -107.5 -332.2 -449.4 -322.4 -381 -234.5 -68.39 -68.39 -703.5 -332.2 -547.6 -127 -136.8 117.2 -166.1 -459.2 -469
3.89 -547.6 -469 -136.8 -351.7 -459.2 -332.2 -322.4 -175.9 -29.31 -9.77 -723 -312.7 -566.7 -117.2 -78.16 117.2 -195.4 -488.5 -410.4
3.895 -488.5 -439.7 -156.3 -371.3 -429.9 -293.1 -254 -117.2 9.77 58.62 -703.5 -293.1 -537.4 -68.39 0 127 -224.7 -478.7 -351.7
3.9 -410.4 -400.6 -146.6 -332.2 -381 -254 -195.4 -78.16 29.31 58.62 -644.8 -263.8 -478.7 -19.54 48.85 136.8 -205.2 -459.2 -322.4
3.905 -312.7 -293.1 -78.16 -244.3 -293.1 -166.1 -156.3 -29.31 0 29.31 -556.9 -185.6 -410.4 58.62 87.93 166.1 -146.6 -400.6 -312.7
3.91 -224.7 -175.9 -9.77 -136.8 -214.9 -78.16 -205.2 -29.31 -87.93 -39.08 -478.7 -87.93 -351.7 146.6 68.39 195.4 -87.93 -322.4 -351.7
3.915 -166.1 -68.39 58.62 0 -156.3 29.31 -254 -19.54 -205.2 -146.6 -420.1 29.31 -312.7 234.5 9.77 224.7 -9.77 -244.3 -390.8
3.92 -117.2 48.85 146.6 195.4 -97.7 156.3 -302.9 9.77 -263.8 -205.2 -351.7 166.1 -283.3 322.4 -29.31 263.8 87.93 -127 -381
3.925 -87.93 107.5 205.2 342 -39.08 254 -312.7 39.08 -263.8 -205.2 -273.6 273.6 -263.8 410.4 -29.31 322.4 166.1 -9.77 -312.7
3.93 -78.16 78.16 234.5 449.4 9.77 312.7 -293.1 68.39 -224.7 -175.9 -214.9 312.7 -244.3 449.4 0 332.2 224.7 87.93 -244.3
3.935 -58.62 0 273.6 469 68.39 322.4 -244.3 87.93 -185.6 -127 -185.6 302.9 -214.9 469 39.08 361.5 263.8 146.6 -166.1
3.94 -68.39 -97.7 283.3 439.7 87.93 263.8 -214.9 78.16 -156.3 -107.5 -175.9 254 -205.2 439.7 58.62 332.2 254 156.3 -136.8
3.945 -68.39 -185.6 273.6 371.3 97.7 205.2 -195.4 78.16 -156.3 -87.93 -166.1 214.9 -195.4 390.8 68.39 283.3 224.7 127 -117.2
3.95 -78.16 -195.4 254 312.7 87.93 166.1 -185.6 87.93 -146.6 -58.62 -136.8 214.9 -205.2 322.4 78.16 263.8 214.9 68.39 -97.7
3.955 -87.93 -166.1 175.9 283.3 29.31 156.3 -166.1 117.2 -107.5 9.77 -127 234.5 -205.2 302.9 87.93 263.8 185.6 29.31 -58.62
3.96 9.77 -9.77 136.8 302.9 68.39 224.7 -9.77 224.7 0 107.5 -9.77 273.6 -117.2 302.9 205.2 293.1 175.9 58.62 58.62
3.965 78.16 107.5 48.85 273.6 87.93 283.3 175.9 332.2 58.62 205.2 127 244.3 -48.85 293.1 293.1 322.4 127 97.7 146.6
3.97 136.8 224.7 -19.54 263.8 136.8 332.2 322.4 420.1 117.2 273.6 214.9 195.4 9.77 263.8 351.7 322.4 58.62 146.6 234.5
3.975 195.4 302.9 -68.39 254 205.2 390.8 459.2 517.8 146.6 332.2 322.4 127 48.85 224.7 400.6 283.3 19.54 254 322.4
3.98 205.2 332.2 -117.2 263.8 195.4 420.1 478.7 527.6 117.2 302.9 332.2 58.62 29.31 146.6 322.4 224.7 19.54 322.4 351.7
3.985 254 371.3 -29.31 322.4 224.7 469 508.1 547.1 146.6 302.9 351.7 97.7 19.54 117.2 293.1 146.6 97.7 439.7 381
3.99 312.7 371.3 58.62 371.3 283.3 498.3 498.3 488.5 127 244.3 410.4 127 48.85 78.16 254 68.39 175.9 547.1 371.3
3.995 361.5 390.8 146.6 390.8 332.2 478.7 459.2 400.6 68.39 156.3 469 185.6 97.7 78.16 254 0 234.5 586.2 322.4
4 390.8 371.3 195.4 351.7 351.7 381 390.8 273.6 0 39.08 527.6 224.7 127 58.62 224.7 -87.93 234.5 527.6 214.9
4.005 361.5 332.2 175.9 273.6 312.7 273.6 273.6 136.8 -68.39 -97.7 537.4 254 146.6 68.39 214.9 -136.8 166.1 410.4 87.93
4.01 322.4 293.1 127 195.4 263.8 166.1 205.2 29.31 -107.5 -166.1 527.6 273.6 146.6 97.7 214.9 -175.9 68.39 273.6 0
4.015 254 273.6 58.62 136.8 224.7 107.5 166.1 -39.08 -78.16 -195.4 508.1 322.4 166.1 136.8 224.7 -166.1 -19.54 185.6 -19.54
4.02 205.2 263.8 -9.77 117.2 195.4 117.2 185.6 -39.08 -29.31 -195.4 488.5 390.8 185.6 205.2 234.5 -156.3 -87.93 166.1 0
4.025 195.4 273.6 29.31 175.9 195.4 166.1 224.7 0 48.85 -146.6 449.4 459.2 185.6 244.3 234.5 -127 -48.85 185.6 68.39
4.03 195.4 263.8 48.85 224.7 195.4 244.3 283.3 68.39 117.2 -68.39 429.9 488.5 156.3 283.3 175.9 -68.39 19.54 244.3 166.1
4.035 185.6 244.3 97.7 302.9 205.2 302.9 322.4 175.9 195.4 39.08 400.6 469 136.8 312.7 146.6 9.77 107.5 312.7 244.3
4.04 175.9 244.3 127 351.7 205.2 332.2 361.5 273.6 273.6 175.9 371.3 429.9 87.93 322.4 107.5 107.5 195.4 371.3 312.7
4.045 156.3 244.3 166.1 381 234.5 332.2 429.9 361.5 400.6 332.2 371.3 361.5 97.7 312.7 97.7 214.9 273.6 420.1 390.8
4.05 166.1 283.3 175.9 420.1 263.8 312.7 488.5 429.9 508.1 498.3 390.8 302.9 127 312.7 117.2 312.7 342 469 449.4
4.055 185.6 332.2 195.4 449.4 322.4 302.9 517.8 469 576.5 615.5 420.1 293.1 156.3 312.7 127 381 390.8 498.3 478.7
4.06 224.7 351.7 205.2 449.4 371.3 293.1 517.8 459.2 566.7 654.6 469 263.8 166.1 293.1 127 400.6 429.9 488.5 459.2
4.065 205.2 312.7 205.2 400.6 371.3 273.6 469 381 488.5 596 469 244.3 156.3 263.8 97.7 351.7 390.8 429.9 381
4.07 117.2 195.4 136.8 302.9 293.1 195.4 342 254 342 429.9 400.6 175.9 117.2 195.4 58.62 254 283.3 302.9 214.9
4.075 29.31 39.08 48.85 166.1 195.4 87.93 214.9 68.39 166.1 205.2 342 97.7 78.16 107.5 0 107.5 156.3 185.6 48.85
4.08 -78.16 -78.16 -39.08 29.31 78.16 0 78.16 -78.16 0 19.54 283.3 29.31 39.08 29.31 -58.62 -29.31 29.31 68.39 -97.7
4.085 -127 -136.8 -117.2 -9.77 9.77 -58.62 -39.08 -175.9 -136.8 -146.6 244.3 -19.54 19.54 0 -107.5 -117.2 -19.54 19.54 -195.4
4.09 -156.3 -146.6 -136.8 -29.31 -9.77 -78.16 -87.93 -214.9 -263.8 -234.5 244.3 -29.31 0 0 -205.2 -185.6 -9.77 19.54 -224.7
4.095 -166.1 -107.5 -146.6 9.77 9.77 -97.7 -146.6 -244.3 -361.5 -283.3 224.7 -29.31 -29.31 19.54 -263.8 -224.7 9.77 29.31 -254
4.1 -175.9 -68.39 -136.8 39.08 29.31 -97.7 -175.9 -244.3 -400.6 -332.2 195.4 -9.77 -58.62 19.54 -293.1 -263.8 29.31 39.08 -254
4.105 -185.6 -97.7 -146.6 39.08 9.77 -156.3 -195.4 -254 -410.4 -371.3 146.6 -9.77 -87.93 -9.77 -293.1 -293.1 0 9.77 -244.3
4.11 -205.2 -136.8 -166.1 9.77 0 -205.2 -195.4 -254 -371.3 -361.5 78.16 -48.85 -117.2 -39.08 -244.3 -283.3 -48.85 -39.08 -244.3
4.115 -175.9 -166.1 -146.6 -29.31 19.54 -224.7 -156.3 -224.7 -273.6 -302.9 68.39 -68.39 -107.5 -58.62 -175.9 -234.5 -58.62 -97.7 -175.9
4.12 -156.3 -185.6 -156.3 -48.85 29.31 -214.9 -107.5 -175.9 -175.9 -214.9 58.62 -87.93 -87.93 -58.62 -127 -175.9 -68.39 -136.8 -117.2
4.125 -117.2 -156.3 -146.6 9.77 68.39 -156.3 -29.31 -87.93 -58.62 -78.16 78.16 -48.85 -39.08 -19.54 -39.08 -87.93 -29.31 -97.7 -19.54
4.13 -29.31 -78.16 -117.2 78.16 146.6 -48.85 48.85 9.77 68.39 68.39 146.6 19.54 29.31 29.31 39.08 19.54 48.85 0 78.16
4.135 39.08 19.54 -87.93 166.1 185.6 39.08 97.7 97.7 156.3 166.1 185.6 97.7 87.93 107.5 87.93 107.5 117.2 97.7 156.3
4.14 117.2 87.93 -78.16 234.5 205.2 87.93 127 175.9 214.9 273.6 234.5 185.6 146.6 175.9 136.8 136.8 156.3 185.6 224.7
4.145 185.6 136.8 -68.39 263.8 214.9 117.2 127 224.7 234.5 342 254 234.5 195.4 214.9 117.2 156.3 175.9 214.9 263.8
4.15 234.5 136.8 -78.16 224.7 195.4 87.93 78.16 244.3 205.2 371.3 254 244.3 205.2 224.7 68.39 87.93 146.6 205.2 273.6
4.155 234.5 97.7 -107.5 166.1 175.9 68.39 29.31 244.3 136.8 351.7 195.4 214.9 214.9 224.7 0 19.54 107.5 175.9 234.5
4.16 195.4 29.31 -127 127 166.1 29.31 -29.31 224.7 39.08 293.1 107.5 185.6 175.9 175.9 -58.62 -39.08 58.62 146.6 185.6
4.165 107.5 -29.31 -166.1 68.39 156.3 0 -97.7 146.6 -87.93 195.4 29.31 136.8 156.3 146.6 -87.93 -68.39 19.54 107.5 87.93
4.17 9.77 -127 -244.3 -9.77 107.5 -58.62 -185.6 48.85 -234.5 68.39 -19.54 78.16 127 97.7 -127 -68.39 -39.08 29.31 -48.85
4.175 -87.93 -195.4 -332.2 -97.7 19.54 -117.2 -293.1 -87.93 -381 -68.39 -48.85 9.77 58.62 68.39 -195.4 -78.16 -117.2 -48.85 -205.2
4.18 -146.6 -263.8 -420.1 -205.2 -58.62 -205.2 -390.8 -234.5 -498.3 -175.9 -68.39 -78.16 0 29.31 -234.5 -97.7 -195.4 -166.1 -351.7
4.185 -195.4 -302.9 -517.8 -283.3 -156.3 -293.1 -469 -371.3 -586.2 -254 -78.16 -156.3 -78.16 -9.77 -273.6 -146.6 -293.1 -244.3 -439.7
4.19 -234.5 -283.3 -596 -322.4 -205.2 -322.4 -469 -429.9 -566.7 -263.8 -87.93 -214.9 -107.5 -19.54 -273.6 -175.9 -351.7 -273.6 -439.7
4.195 -234.5 -234.5 -625.3 -302.9 -214.9 -322.4 -381 -429.9 -459.2 -214.9 -68.39 -244.3 -87.93 -29.31 -224.7 -175.9 -361.5 -214.9 -342
4.2 -214.9 -195.4 -615.5 -254 -185.6 -263.8 -234.5 -390.8 -302.9 -127 -68.39 -234.5 -29.31 -48.85 -156.3 -185.6 -342 -146.6 -195.4
4.205 -156.3 -136.8 -527.6 -185.6 -107.5 -166.1 -78.16 -322.4 -146.6 -39.08 -19.54 -214.9 68.39 -39.08 -68.39 -156.3 -263.8 -39.08 -48.85
4.21 -78.16 -68.39 -400.6 -87.93 -9.77 -68.39 58.62 -254 -29.31 39.08 29.31 -185.6 175.9 -9.77 29.31 -127 -195.4 48.85 48.85
4.215 9.77 -29.31 -273.6 -29.31 29.31 0 117.2 -214.9 19.54 68.39 68.39 -166.1 263.8 -29.31 117.2 -127 -107.5 107.5 87.93
4.22 107.5 19.54 -136.8 39.08 68.39 29.31 156.3 -166.1 29.31 87.93 87.93 -136.8 332.2 -48.85 195.4 -136.8 -48.85 136.8 107.5
4.225 166.1 29.31 -19.54 87.93 68.39 29.31 175.9 -146.6 9.77 127 78.16 -136.8 351.7 -68.39 214.9 -156.3 -19.54 146.6 117.2
4.23 156.3 39.08 9.77 97.7 58.62 -9.77 175.9 -136.8 -9.77 127 0 -166.1 312.7 -78.16 175.9 -156.3 -39.08 107.5 117.2
4.235 107.5 9.77 -9.77 68.39 9.77 -58.62 156.3 -175.9 -48.85 136.8 -97.7 -185.6 205.2 -97.7 78.16 -166.1 -78.16 39.08 127
4.24 9.77 -48.85 -107.5 19.54 -78.16 -127 117.2 -205.2 -97.7 107.5 -244.3 -234.5 78.16 -107.5 -58.62 -156.3 -156.3 -78.16 97.7
4.245 -107.5 -136.8 -244.3 -97.7 -185.6 -214.9 29.31 -263.8 -166.1 58.62 -400.6 -302.9 -68.39 -107.5 -224.7 -175.9 -254 -205.2 58.62
4.25 -224.7 -244.3 -361.5 -214.9 -312.7 -293.1 -68.39 -322.4 -244.3 9.77 -498.3 -371.3 -185.6 -127 -381 -195.4 -312.7 -312.7 19.54
4.255 -263.8 -283.3 -410.4 -254 -381 -322.4 -175.9 -332.2 -283.3 -9.77 -508.1 -410.4 -254 -117.2 -478.7 -205.2 -332.2 -342 -9.77
4.26 -234.5 -273.6 -390.8 -254 -400.6 -302.9 -254 -361.5 -302.9 -58.62 -508.1 -400.6 -273.6 -117.2 -508.1 -234.5 -302.9 -312.7 -29.31
4.265 -166.1 -205.2 -322.4 -175.9 -351.7 -234.5 -312.7 -351.7 -312.7 -78.16 -469 -361.5 -273.6 -87.93 -508.1 -263.8 -254 -254 -39.08
4.27 -97.7 -136.8 -214.9 -87.93 -302.9 -156.3 -322.4 -312.7 -312.7 -107.5 -459.2 -283.3 -254 -78.16 -478.7 -263.8 -175.9 -185.6 -29.31
4.275 -48.85 -107.5 -127 -29.31 -263.8 -107.5 -302.9 -293.1 -283.3 -136.8 -469 -254 -234.5 -87.93 -429.9 -312.7 -117.2 -127 -19.54
4.28 -29.31 -127 -97.7 -19.54 -214.9 -78.16 -254 -254 -254 -166.1 -478.7 -283.3 -195.4 -97.7 -361.5 -342 -117.2 -127 -29.31
4.285 -29.31 -156.3 -78.16 -9.77 -146.6 -68.39 -166.1 -234.5 -214.9 -195.4 -449.4 -312.7 -127 -107.5 -293.1 -332.2 -117.2 -107.5 -29.31
4.29 -19.54 -175.9 -48.85 0 -87.93 -58.62 -87.93 -195.4 -156.3 -205.2 -410.4 -322.4 -68.39 -87.93 -244.3 -312.7 -97.7 -78.16 -29.31
4.295 0 -166.1 -9.77 29.31 -19.54 -48.85 -29.31 -185.6 -107.5 -224.7 -361.5 -302.9 -19.54 -58.62 -214.9 -254 -39.08 -9.77 -39.08
4.3 29.31 -136.8 48.85 68.39 68.39 -19.54 -9.77 -146.6 -48.85 -244.3 -283.3 -244.3 9.77 -29.31 -224.7 -205.2 48.85 29.31 -39.08
4.305 78.16 -117.2 107.5 78.16 117.2 -9.77 9.77 -117.2 0 -214.9 -185.6 -185.6 19.54 0 -234.5 -146.6 127 68.39 -48.85
4.31 117.2 -97.7 166.1 78.16 166.1 0 9.77 -87.93 29.31 -175.9 -97.7 -156.3 48.85 -9.77 -263.8 -127 175.9 87.93 -39.08
4.315 146.6 -107.5 214.9 78.16 195.4 19.54 39.08 -39.08 78.16 -107.5 0 -146.6 68.39 -19.54 -273.6 -107.5 205.2 117.2 -9.77
4.32 156.3 -127 234.5 68.39 214.9 58.62 68.39 9.77 117.2 -19.54 58.62 -156.3 97.7 -48.85 -293.1 -107.5 195.4 166.1 29.31
4.325 156.3 -156.3 234.5 48.85 224.7 78.16 87.93 58.62 185.6 78.16 87.93 -185.6 127 -48.85 -283.3 -97.7 205.2 214.9 68.39
4.33 146.6 -175.9 195.4 29.31 234.5 87.93 87.93 107.5 244.3 185.6 87.93 -195.4 127 -58.62 -293.1 -87.93 224.7 244.3 87.93
4.335 117.2 -166.1 136.8 9.77 214.9 78.16 68.39 136.8 283.3 254 58.62 -175.9 97.7 -68.39 -342 -58.62 254 224.7 107.5
4.34 97.7 -136.8 68.39 -19.54 156.3 39.08 19.54 97.7 244.3 263.8 19.54 -146.6 39.08 -78.16 -429.9 -68.39 273.6 195.4 78.16
4.345 58.62 -107.5 -9.77 -29.31 107.5 -9.77 -39.08 29.31 175.9 214.9 9.77 -117.2 -9.77 -87.93 -537.4 -78.16 263.8 146.6 29.31
4.35 39.08 -68.39 -68.39 -29.31 39.08 -29.31 -78.16 -48.85 107.5 146.6 0 -107.5 -39.08 -87.93 -605.8 -68.39 273.6 107.5 0
4.355 48.85 -48.85 -127 -29.31 -19.54 -48.85 -97.7 -87.93 39.08 68.39 9.77 -107.5 -39.08 -87.93 -586.2 -48.85 254 87.93 -29.31
4.36 78.16 -19.54 -117.2 -19.54 -39.08 -29.31 -68.39 -68.39 48.85 29.31 68.39 -107.5 19.54 -78.16 -508.1 -29.31 244.3 87.93 -19.54
4.365 127 0 -87.93 -19.54 -29.31 -39.08 -29.31 -68.39 68.39 9.77 156.3 -97.7 87.93 -48.85 -371.3 -19.54 234.5 78.16 9.77
4.37 127 0 -87.93 -58.62 -48.85 -78.16 -9.77 -78.16 78.16 -29.31 234.5 -78.16 146.6 -58.62 -244.3 -29.31 185.6 68.39 0
4.375 117.2 -9.77 -68.39 -87.93 -39.08 -97.7 58.62 -87.93 107.5 -58.62 273.6 -68.39 195.4 -58.62 -175.9 -78.16 136.8 58.62 9.77
4.38 48.85 -48.85 -97.7 -146.6 -78.16 -146.6 107.5 -136.8 97.7 -107.5 273.6 -68.39 195.4 -68.39 -136.8 -117.2 68.39 39.08 19.54
4.385 9.77 -87.93 -78.16 -156.3 -39.08 -136.8 175.9 -107.5 136.8 -97.7 254 -78.16 214.9 -117.2 -39.08 -136.8 9.77 48.85 39.08
4.39 -39.08 -146.6 -58.62 -195.4 -9.77 -127 156.3 -97.7 127 -97.7 185.6 -107.5 175.9 -224.7 -9.77 -136.8 -87.93 29.31 29.31
4.395 -87.93 -224.7 -39.08 -234.5 9.77 -146.6 78.16 -97.7 87.93 -117.2 107.5 -146.6 127 -332.2 39.08 -166.1 -166.1 -9.77 -19.54
4.4 -117.2 -254 -29.31 -254 29.31 -185.6 -9.77 -107.5 9.77 -127 19.54 -205.2 48.85 -449.4 58.62 -166.1 -254 -68.39 -78.16
4.405 -156.3 -322.4 -58.62 -302.9 -19.54 -254 -97.7 -136.8 -68.39 -166.1 -29.31 -273.6 -19.54 -556.9 9.77 -214.9 -302.9 -146.6 -127
4.41 -156.3 -312.7 -58.62 -283.3 -48.85 -283.3 -117.2 -146.6 -117.2 -166.1 -29.31 -263.8 -39.08 -576.5 0 -214.9 -302.9 -185.6 -146.6
4.415 -117.2 -283.3 -39.08 -244.3 -39.08 -273.6 -97.7 -136.8 -127 -166.1 -19.54 -234.5 -9.77 -556.9 -9.77 -205.2 -244.3 -175.9 -127
4.42 -68.39 -234.5 0 -166.1 9.77 -234.5 -97.7 -117.2 -117.2 -146.6 0 -175.9 19.54 -498.3 -9.77 -185.6 -156.3 -127 -68.39
4.425 -29.31 -195.4 9.77 -87.93 29.31 -175.9 -68.39 -107.5 -97.7 -127 9.77 -97.7 39.08 -449.4 0 -175.9 -87.93 -87.93 -39.08
4.43 -9.77 -175.9 9.77 -29.31 39.08 -136.8 -48.85 -107.5 -78.16 -136.8 19.54 -39.08 68.39 -410.4 0 -185.6 -29.31 -48.85 -9.77
4.435 9.77 -185.6 9.77 9.77 58.62 -97.7 19.54 -87.93 -29.31 -97.7 39.08 0 107.5 -381 68.39 -166.1 0 -19.54 68.39
4.44 0 -185.6 -9.77 29.31 58.62 -58.62 87.93 -58.62 19.54 -58.62 68.39 29.31 146.6 -371.3 107.5 -156.3 -19.54 9.77 136.8
4.445 -29.31 -166.1 -39.08 48.85 58.62 -39.08 136.8 -19.54 48.85 -19.54 58.62 48.85 185.6 -351.7 156.3 -127 -78.16 39.08 185.6
4.45 -58.62 -136.8 -29.31 39.08 48.85 -29.31 166.1 -9.77 29.31 9.77 39.08 58.62 195.4 -312.7 185.6 -97.7 -117.2 48.85 185.6
4.455 -87.93 -97.7 -48.85 39.08 0 -58.62 136.8 -48.85 -9.77 -29.31 -9.77 68.39 146.6 -302.9 166.1 -78.16 -146.6 9.77 146.6
4.46 -87.93 -48.85 -39.08 39.08 -48.85 -87.93 58.62 -87.93 -97.7 -87.93 -68.39 87.93 68.39 -283.3 97.7 -68.39 -156.3 -39.08 78.16
4.465 -87.93 -19.54 -39.08 29.31 -97.7 -117.2 -58.62 -117.2 -185.6 -156.3 -97.7 117.2 9.77 -244.3 48.85 -58.62 -156.3 -107.5 0
4.47 -78.16 9.77 0 29.31 -146.6 -107.5 -127 -136.8 -263.8 -234.5 -107.5 166.1 -39.08 -185.6 29.31 -39.08 -127 -146.6 -68.39
4.475 -48.85 39.08 48.85 58.62 -136.8 -58.62 -156.3 -97.7 -293.1 -244.3 -78.16 244.3 -39.08 -117.2 39.08 -9.77 -68.39 -146.6 -87.93
4.48 29.31 97.7 107.5 97.7 -97.7 19.54 -117.2 -9.77 -273.6 -214.9 -29.31 332.2 0 -48.85 58.62 9.77 -9.77 -117.2 -48.85
4.485 87.93 127 156.3 127 -39.08 97.7 -29.31 97.7 -175.9 -136.8 -9.77 390.8 48.85 19.54 97.7 48.85 48.85 -58.62 9.77
4.49 127 127 205.2 117.2 -9.77 127 48.85 146.6 -58.62 -29.31 -9.77 400.6 78.16 58.62 97.7 68.39 97.7 0 97.7
4.495 117.2 127 205.2 87.93 0 146.6 127 166.1 48.85 29.31 -39.08 371.3 97.7 87.93 68.39 107.5 87.93 19.54 136.8
4.5 78.16 87.93 166.1 39.08 -19.54 136.8 175.9 156.3 97.7 58.62 -107.5 342 97.7 107.5 39.08 117.2 39.08 19.54 166.1
4.505 39.08 68.39 97.7 -9.77 -48.85 107.5 205.2 127 136.8 68.39 -156.3 332.2 78.16 97.7 19.54 87.93 -9.77 -9.77 175.9
4.51 0 48.85 39.08 -48.85 -58.62 97.7 234.5 117.2 166.1 78.16 -175.9 312.7 87.93 127 68.39 97.7 -58.62 -29.31 185.6
4.515 -9.77 58.62 -19.54 -68.39 -39.08 107.5 273.6 127 214.9 117.2 -166.1 302.9 127 127 146.6 29.31 -68.39 -48.85 195.4
4.52 29.31 97.7 -39.08 -29.31 0 136.8 332.2 146.6 302.9 166.1 -117.2 293.1 195.4 136.8 254 9.77 -29.31 -9.77 254
4.525 78.16 127 -48.85 19.54 19.54 156.3 361.5 156.3 342 224.7 -58.62 283.3 254 146.6 332.2 29.31 19.54 39.08 254
4.53 136.8 166.1 -58.62 78.16 39.08 166.1 302.9 117.2 332.2 224.7 19.54 263.8 254 146.6 302.9 29.31 68.39 78.16 214.9
4.535 166.1 185.6 -58.62 117.2 19.54 146.6 234.5 58.62 293.1 205.2 48.85 263.8 234.5 136.8 244.3 58.62 97.7 107.5 156.3
4.54 136.8 175.9 -87.93 117.2 -19.54 107.5 127 -19.54 214.9 166.1 58.62 234.5 166.1 107.5 146.6 68.39 58.62 68.39 78.16
4.545 97.7 136.8 -117.2 87.93 -68.39 58.62 48.85 -78.16 156.3 117.2 68.39 205.2 87.93 78.16 68.39 87.93 9.77 48.85 39.08
4.55 58.62 78.16 -136.8 19.54 -146.6 19.54 9.77 -107.5 87.93 87.93 48.85 156.3 39.08 58.62 48.85 107.5 -19.54 19.54 29.31
4.555 29.31 9.77 -146.6 -58.62 -185.6 0 -19.54 -127 19.54 29.31 39.08 107.5 19.54 48.85 29.31 136.8 -68.39 0 29.31
4.56 9.77 -9.77 -175.9 -87.93 -224.7 0 -39.08 -146.6 -68.39 -48.85 39.08 78.16 19.54 39.08 19.54 156.3 -87.93 -29.31 9.77
4.565 39.08 -9.77 -156.3 -48.85 -254 29.31 -58.62 -146.6 -146.6 -136.8 48.85 97.7 48.85 39.08 29.31 146.6 -58.62 -39.08 -29.31
4.57 87.93 19.54 -127 -9.77 -205.2 39.08 -68.39 -156.3 -185.6 -205.2 68.39 127 107.5 58.62 68.39 185.6 -9.77 -29.31 -58.62
4.575 146.6 87.93 -58.62 68.39 -136.8 58.62 -29.31 -136.8 -205.2 -244.3 117.2 166.1 175.9 78.16 146.6 214.9 48.85 9.77 -78.16
4.58 185.6 166.1 -9.77 136.8 -9.77 78.16 39.08 -87.93 -166.1 -195.4 185.6 195.4 234.5 97.7 205.2 273.6 107.5 68.39 -48.85
4.585 185.6 214.9 19.54 136.8 97.7 48.85 136.8 -39.08 -107.5 -87.93 244.3 175.9 283.3 127 244.3 263.8 97.7 107.5 -9.77
4.59 156.3 263.8 19.54 127 175.9 39.08 244.3 0 -19.54 39.08 273.6 156.3 293.1 146.6 273.6 273.6 58.62 117.2 48.85
4.595 107.5 273.6 -29.31 78.16 195.4 -9.77 312.7 39.08 68.39 166.1 263.8 107.5 273.6 136.8 283.3 185.6 -19.54 107.5 117.2
4.6 39.08 293.1 -97.7 0 166.1 -39.08 351.7 39.08 136.8 273.6 224.7 48.85 234.5 136.8 254 127 -87.93 68.39 156.3
4.605 9.77 293.1 -166.1 -29.31 117.2 -58.62 371.3 39.08 156.3 342 166.1 -9.77 156.3 136.8 224.7 97.7 -107.5 39.08 185.6
4.61 0 312.7 -214.9 -48.85 78.16 -58.62 342 29.31 166.1 371.3 117.2 -58.62 87.93 117.2 214.9 48.85 -107.5 19.54 195.4
4.615 19.54 342 -244.3 -58.62 48.85 -39.08 293.1 0 136.8 361.5 117.2 -87.93 19.54 107.5 205.2 29.31 -78.16 0 195.4
4.62 39.08 390.8 -254 -9.77 29.31 -19.54 205.2 -48.85 68.39 283.3 107.5 -68.39 -19.54 97.7 205.2 -19.54 -39.08 29.31 156.3
4.625 58.62 429.9 -263.8 39.08 19.54 9.77 107.5 -117.2 0 166.1 127 -29.31 -39.08 107.5 205.2 -78.16 9.77 58.62 117.2
4.63 68.39 439.7 -283.3 58.62 0 19.54 29.31 -175.9 -87.93 19.54 136.8 -29.31 -39.08 107.5 166.1 -136.8 19.54 78.16 68.39
4.635 48.85 410.4 -312.7 39.08 -9.77 0 -29.31 -234.5 -156.3 -97.7 117.2 -48.85 -29.31 97.7 156.3 -195.4 0 48.85 9.77
4.64 19.54 390.8 -312.7 -9.77 19.54 -19.54 -58.62 -273.6 -224.7 -185.6 107.5 -87.93 -19.54 97.7 166.1 -234.5 -48.85 0 -58.62
4.645 -29.31 312.7 -322.4 -78.16 19.54 -78.16 -48.85 -273.6 -224.7 -214.9 107.5 -156.3 -9.77 87.93 195.4 -234.5 -78.16 -58.62 -97.7
4.65 -39.08 273.6 -302.9 -107.5 19.54 -78.16 -9.77 -224.7 -195.4 -205.2 107.5 -185.6 -29.31 117.2 214.9 -175.9 -97.7 -87.93 -97.7
4.655 9.77 302.9 -234.5 -87.93 48.85 -39.08 78.16 -107.5 -107.5 -107.5 136.8 -127 -19.54 175.9 273.6 -78.16 -39.08 -48.85 -29.31
4.66 48.85 371.3 -156.3 9.77 87.93 58.62 166.1 29.31 29.31 29.31 156.3 -39.08 -29.31 244.3 312.7 19.54 48.85 58.62 78.16
4.665 87.93 459.2 -107.5 136.8 117.2 195.4 234.5 195.4 146.6 195.4 136.8 87.93 -58.62 322.4 351.7 146.6 136.8 175.9 195.4
4.67 117.2 547.1 -48.85 283.3 146.6 312.7 283.3 342 234.5 361.5 107.5 205.2 -87.93 371.3 351.7 195.4 224.7 312.7 322.4
4.675 107.5 586.2 -39.08 381 146.6 410.4 283.3 459.2 293.1 498.3 87.93 293.1 -136.8 420.1 332.2 234.5 283.3 381 390.8
4.68 117.2 596 -29.31 420.1 127 429.9 234.5 517.8 302.9 576.5 58.62 332.2 -175.9 429.9 283.3 254 312.7 400.6 400.6
4.685 107.5 556.9 -39.08 410.4 68.39 420.1 185.6 488.5 283.3 615.5 48.85 332.2 -224.7 449.4 234.5 254 293.1 381 361.5
4.69 87.93 527.6 -29.31 371.3 39.08 381 127 429.9 273.6 605.8 39.08 302.9 -234.5 429.9 175.9 244.3 273.6 302.9 293.1
4.695 107.5 498.3 -9.77 322.4 39.08 342 97.7 332.2 254 576.5 19.54 273.6 -214.9 420.1 166.1 224.7 244.3 293.1 185.6
4.7 117.2 469 58.62 293.1 58.62 302.9 48.85 234.5 195.4 527.6 -19.54 273.6 -205.2 410.4 195.4 175.9 224.7 263.8 117.2
4.705 136.8 420.1 117.2 263.8 97.7 263.8 29.31 156.3 156.3 439.7 -29.31 244.3 -166.1 390.8 224.7 117.2 214.9 244.3 68.39
4.71 146.6 342 156.3 214.9 127 244.3 19.54 87.93 107.5 361.5 -48.85 195.4 -136.8 371.3 244.3 87.93 205.2 234.5 48.85
4.715 127 263.8 166.1 156.3 156.3 205.2 -19.54 9.77 58.62 244.3 -58.62 136.8 -127 361.5 244.3 48.85 185.6 214.9 29.31
4.72 78.16 166.1 146.6 107.5 146.6 146.6 -58.62 -48.85 19.54 156.3 -48.85 58.62 -127 342 254 29.31 146.6 175.9 19.54
4.725 0 87.93 97.7 29.31 117.2 107.5 -136.8 -87.93 -29.31 48.85 -39.08 19.54 -146.6 332.2 214.9 19.54 87.93 97.7 -39.08
4.73 -58.62 29.31 9.77 -29.31 39.08 39.08 -254 -185.6 -127 -87.93 -48.85 -9.77 -185.6 293.1 136.8 -29.31 -9.77 -9.77 -156.3
4.735 -156.3 -48.85 -68.39 -127 -29.31 -58.62 -361.5 -283.3 -214.9 -234.5 -97.7 -39.08 -254 234.5 58.62 -78.16 -107.5 -156.3 -293.1
4.74 -234.5 -117.2 -175.9 -224.7 -146.6 -127 -498.3 -390.8 -312.7 -351.7 -146.6 -68.39 -342 195.4 -78.16 -117.2 -224.7 -293.1 -390.8
4.745 -302.9 -195.4 -263.8 -302.9 -224.7 -205.2 -566.7 -469 -351.7 -410.4 -234.5 -87.93 -410.4 166.1 -146.6 -136.8 -312.7 -361.5 -459.2
4.75 -332.2 -254 -273.6 -332.2 -244.3 -195.4 -527.6 -439.7 -332.2 -371.3 -283.3 -78.16 -429.9 175.9 -195.4 -78.16 -351.7 -381 -420.1
4.755 -342 -332.2 -254 -332.2 -214.9 -146.6 -429.9 -332.2 -263.8 -263.8 -322.4 -29.31 -420.1 205.2 -185.6 9.77 -351.7 -332.2 -322.4
4.76 -312.7 -342 -224.7 -273.6 -195.4 -68.39 -322.4 -195.4 -195.4 -136.8 -322.4 9.77 -381 244.3 -185.6 87.93 -322.4 -254 -185.6
4.765 -293.1 -342 -195.4 -224.7 -156.3 -9.77 -234.5 -68.39 -136.8 -29.31 -312.7 48.85 -351.7 283.3 -166.1 146.6 -302.9 -195.4 -87.93
4.77 -283.3 -302.9 -185.6 -185.6 -156.3 19.54 -205.2 -9.77 -156.3 9.77 -332.2 39.08 -342 293.1 -166.1 107.5 -312.7 -156.3 -39.08
4.775 -293.1 -283.3 -185.6 -175.9 -127 0 -205.2 -29.31 -166.1 -9.77 -351.7 19.54 -332.2 273.6 -136.8 58.62 -322.4 -166.1 -58.62
4.78 -273.6 -244.3 -175.9 -156.3 -107.5 -9.77 -234.5 -78.16 -214.9 -78.16 -342 0 -312.7 254 -107.5 9.77 -342 -185.6 -87.93
4.785 -244.3 -214.9 -127 -127 -78.16 -19.54 -254 -127 -244.3 -146.6 -302.9 0 -273.6 224.7 -48.85 -29.31 -342 -185.6 -107.5
4.79 -234.5 -185.6 -87.93 -127 -68.39 -29.31 -263.8 -136.8 -273.6 -195.4 -263.8 -9.77 -273.6 195.4 -19.54 -68.39 -342 -195.4 -146.6
4.795 -234.5 -156.3 -78.16 -136.8 -87.93 -68.39 -234.5 -156.3 -263.8 -224.7 -205.2 -29.31 -263.8 175.9 0 -97.7 -351.7 -214.9 -166.1
4.8 -263.8 -146.6 -107.5 -166.1 -117.2 -117.2 -205.2 -166.1 -224.7 -244.3 -166.1 -48.85 -224.7 136.8 19.54 -136.8 -390.8 -244.3 -205.2
4.805 -283.3 -166.1 -185.6 -214.9 -156.3 -195.4 -205.2 -205.2 -156.3 -254 -117.2 -127 -195.4 117.2 58.62 -175.9 -420.1 -302.9 -254
4.81 -254 -156.3 -205.2 -224.7 -175.9 -244.3 -185.6 -244.3 -78.16 -244.3 -39.08 -166.1 -127 87.93 107.5 -195.4 -410.4 -302.9 -263.8
4.815 -166.1 -127 -136.8 -175.9 -156.3 -244.3 -127 -254 0 -205.2 78.16 -166.1 -39.08 78.16 166.1 -185.6 -322.4 -263.8 -244.3
4.82 -48.85 -78.16 -29.31 -117.2 -117.2 -195.4 -78.16 -234.5 68.39 -175.9 185.6 -175.9 0 68.39 195.4 -175.9 -214.9 -205.2 -205.2
4.825 97.7 -29.31 136.8 0 -48.85 -97.7 -9.77 -175.9 127 -87.93 283.3 -107.5 58.62 48.85 195.4 -136.8 -78.16 -107.5 -117.2
4.83 234.5 -29.31 263.8 87.93 19.54 -9.77 87.93 -97.7 175.9 -29.31 371.3 -78.16 97.7 48.85 234.5 -87.93 58.62 -39.08 -9.77
4.835 312.7 -58.62 342 127 68.39 58.62 175.9 -19.54 234.5 39.08 390.8 -78.16 136.8 39.08 254 -29.31 127 19.54 127
4.84 332.2 -97.7 390.8 156.3 127 117.2 254 58.62 283.3 156.3 381 -97.7 166.1 19.54 283.3 19.54 175.9 68.39 205.2
4.845 312.7 -107.5 429.9 156.3 166.1 156.3 302.9 127 332.2 214.9 351.7 -127 205.2 0 332.2 68.39 205.2 97.7 312.7
4.85 293.1 -48.85 459.2 214.9 205.2 195.4 322.4 185.6 351.7 254 342 -136.8 254 9.77 322.4 97.7 214.9 136.8 390.8
4.855 293.1 39.08 488.5 254 234.5 224.7 293.1 224.7 351.7 244.3 332.2 -87.93 263.8 39.08 293.1 117.2 263.8 156.3 410.4
4.86 312.7 146.6 517.8 332.2 244.3 244.3 214.9 263.8 293.1 205.2 332.2 -9.77 263.8 87.93 254 117.2 312.7 175.9 400.6
4.865 322.4 214.9 517.8 381 224.7 254 107.5 254 214.9 127 302.9 58.62 224.7 136.8 185.6 136.8 322.4 166.1 342
4.87 302.9 185.6 469 371.3 185.6 234.5 -9.77 224.7 127 48.85 224.7 68.39 156.3 195.4 97.7 156.3 312.7 146.6 283.3
4.875 273.6 175.9 449.4 351.7 146.6 234.5 -78.16 224.7 19.54 -29.31 117.2 78.16 87.93 224.7 29.31 214.9 263.8 127 224.7
4.88 263.8 146.6 439.7 302.9 136.8 214.9 -136.8 195.4 -9.77 -78.16 97.7 78.16 39.08 254 0 254 244.3 117.2 205.2
4.885 234.5 146.6 459.2 322.4 166.1 205.2 -117.2 185.6 9.77 -107.5 127 48.85 58.62 244.3 29.31 244.3 224.7 117.2 195.4
4.89 273.6 224.7 527.6 351.7 224.7 214.9 -39.08 195.4 68.39 -78.16 195.4 58.62 107.5 244.3 87.93 254 263.8 156.3 214.9
4.895 351.7 283.3 586.2 332.2 312.7 224.7 39.08 185.6 146.6 -29.31 263.8 58.62 146.6 234.5 175.9 185.6 312.7 166.1 244.3
4.9 420.1 283.3 605.8 312.7 351.7 224.7 97.7 205.2 234.5 39.08 302.9 29.31 156.3 205.2 205.2 127 332.2 156.3 263.8
4.905 439.7 254 596 244.3 361.5 195.4 87.93 205.2 234.5 117.2 283.3 -9.77 146.6 185.6 195.4 97.7 293.1 136.8 234.5
4.91 390.8 146.6 498.3 136.8 312.7 146.6 39.08 224.7 234.5 185.6 244.3 -87.93 87.93 156.3 146.6 87.93 214.9 68.39 214.9
4.915 293.1 39.08 410.4 39.08 283.3 127 -9.77 254 224.7 273.6 205.2 -146.6 58.62 156.3 107.5 146.6 156.3 19.54 195.4
4.92 195.4 -58.62 312.7 -29.31 244.3 107.5 -48.85 293.1 205.2 351.7 166.1 -195.4 48.85 156.3 107.5 195.4 117.2 -19.54 195.4
4.925 97.7 -127 224.7 -39.08 214.9 127 -39.08 322.4 195.4 420.1 136.8 -224.7 58.62 185.6 117.2 254 97.7 -29.31 205.2
4.93 48.85 -127 175.9 9.77 156.3 166.1 -29.31 351.7 166.1 439.7 78.16 -195.4 29.31 234.5 107.5 293.1 117.2 0 205.2
4.935 39.08 -107.5 136.8 87.93 117.2 224.7 0 351.7 87.93 420.1 9.77 -146.6 0 273.6 87.93 302.9 156.3 29.31 166.1
4.94 78.16 -58.62 136.8 195.4 78.16 293.1 9.77 351.7 29.31 371.3 -29.31 -68.39 -19.54 302.9 58.62 302.9 224.7 97.7 166.1
4.945 136.8 9.77 185.6 293.1 78.16 351.7 29.31 332.2 -19.54 283.3 -29.31 -9.77 -19.54 342 19.54 293.1 332.2 166.1 166.1
4.95 195.4 58.62 273.6 390.8 117.2 390.8 39.08 302.9 -58.62 185.6 0 68.39 19.54 332.2 19.54 283.3 439.7 234.5 166.1
4.955 273.6 87.93 400.6 449.4 195.4 429.9 68.39 263.8 -87.93 58.62 78.16 127 48.85 312.7 -9.77 263.8 547.1 283.3 175.9
4.96 342 107.5 488.5 517.8 244.3 439.7 87.93 195.4 -107.5 -78.16 146.6 166.1 107.5 263.8 -39.08 224.7 625.3 342 185.6
4.965 410.4 127 566.7 556.9 312.7 439.7 127 127 -117.2 -195.4 214.9 195.4 156.3 205.2 -9.77 156.3 683.9 381 195.4
4.97 449.4 136.8 615.5 566.7 351.7 420.1 146.6 78.16 -107.5 -283.3 263.8 195.4 205.2 136.8 -9.77 78.16 713.2 410.4 185.6
4.975 420.1 117.2 596 517.8 332.2 400.6 156.3 68.39 -78.16 -312.7 273.6 156.3 214.9 78.16 0 -9.77 664.4 420.1 166.1
4.98 371.3 58.62 566.7 429.9 332.2 351.7 166.1 87.93 -39.08 -273.6 283.3 97.7 224.7 39.08 29.31 -58.62 596 410.4 166.1
4.985 293.1 -39.08 488.5 273.6 293.1 273.6 166.1 97.7 -9.77 -244.3 254 -9.77 175.9 0 0 -58.62 459.2 371.3 127
4.99 175.9 -175.9 342 97.7 205.2 156.3 166.1 87.93 0 -185.6 156.3 -156.3 117.2 -39.08 -39.08 -48.85 293.1 283.3 87.93
4.995 68.39 -312.7 195.4 -58.62 97.7 29.31 156.3 58.62 0 -146.6 68.39 -263.8 48.85 -78.16 -78.16 -19.54 127 195.4 29.31
5 -48.85 -429.9 78.16 -214.9 0 -87.93 127 -48.85 0 -156.3 -39.08 -351.7 -9.77 -117.2 -136.8 -9.77 -9.77 78.16 -39.08
5.005 -156.3 -469 -19.54 -293.1 -97.7 -185.6 68.39 -127 -19.54 -127 -127 -371.3 -48.85 -146.6 -166.1 9.77 -117.2 0 -87.93
5.01 -224.7 -469 -68.39 -312.7 -156.3 -224.7 48.85 -166.1 0 -78.16 -195.4 -361.5 -87.93 -175.9 -175.9 9.77 -156.3 -39.08 -127
5.015 -254 -420.1 -107.5 -283.3 -175.9 -205.2 68.39 -175.9 39.08 -19.54 -224.7 -332.2 -107.5 -205.2 -175.9 29.31 -156.3 -9.77 -97.7
5.02 -224.7 -332.2 -127 -214.9 -146.6 -156.3 117.2 -146.6 48.85 39.08 -234.5 -312.7 -97.7 -205.2 -185.6 58.62 -97.7 68.39 -58.62
5.025 -195.4 -254 -127 -136.8 -107.5 -107.5 146.6 -87.93 48.85 78.16 -224.7 -293.1 -97.7 -214.9 -175.9 58.62 -19.54 156.3 0
5.03 -146.6 -195.4 -136.8 -97.7 -58.62 -68.39 136.8 -48.85 19.54 48.85 -205.2 -273.6 -97.7 -224.7 -185.6 19.54 39.08 214.9 9.77
5.035 -117.2 -127 -136.8 -78.16 -48.85 -68.39 78.16 -29.31 -58.62 9.77 -205.2 -254 -117.2 -224.7 -195.4 -19.54 68.39 214.9 9.77
5.04 -97.7 -87.93 -146.6 -97.7 -68.39 -78.16 -19.54 -39.08 -146.6 -78.16 -195.4 -244.3 -146.6 -224.7 -224.7 -39.08 48.85 185.6 -29.31
5.045 -87.93 -58.62 -127 -127 -87.93 -107.5 -97.7 -87.93 -234.5 -185.6 -175.9 -244.3 -175.9 -224.7 -234.5 -48.85 39.08 156.3 -87.93
5.05 -48.85 -39.08 -117.2 -127 -107.5 -136.8 -136.8 -117.2 -283.3 -273.6 -136.8 -224.7 -195.4 -205.2 -234.5 -68.39 58.62 117.2 -117.2
5.055 0 -9.77 -78.16 -97.7 -87.93 -136.8 -136.8 -156.3 -273.6 -332.2 -97.7 -185.6 -175.9 -214.9 -234.5 -78.16 78.16 107.5 -127
5.06 39.08 29.31 -19.54 -58.62 -29.31 -107.5 -87.93 -146.6 -214.9 -342 -39.08 -156.3 -136.8 -214.9 -205.2 -127 97.7 117.2 -127
5.065 87.93 39.08 39.08 -19.54 29.31 -58.62 -29.31 -97.7 -127 -302.9 9.77 -117.2 -78.16 -224.7 -166.1 -156.3 78.16 136.8 -68.39
5.07 107.5 48.85 97.7 9.77 78.16 0 68.39 -39.08 -9.77 -205.2 39.08 -68.39 -29.31 -224.7 -107.5 -127 58.62 136.8 0
5.075 146.6 68.39 146.6 39.08 146.6 39.08 166.1 39.08 117.2 -87.93 78.16 -39.08 58.62 -214.9 29.31 -97.7 48.85 146.6 78.16
5.08 185.6 87.93 195.4 78.16 205.2 68.39 244.3 107.5 234.5 39.08 146.6 -9.77 136.8 -195.4 166.1 -39.08 68.39 156.3 185.6
5.085 263.8 136.8 244.3 117.2 273.6 97.7 302.9 175.9 322.4 127 214.9 19.54 234.5 -156.3 302.9 29.31 117.2 175.9 244.3
5.09 332.2 146.6 263.8 146.6 302.9 117.2 302.9 214.9 351.7 175.9 302.9 -19.54 302.9 -117.2 390.8 58.62 127 185.6 263.8
5.095 332.2 87.93 224.7 97.7 234.5 68.39 234.5 195.4 302.9 175.9 293.1 -78.16 302.9 -107.5 371.3 78.16 107.5 117.2 214.9
5.1 332.2 29.31 117.2 0 146.6 19.54 127 127 214.9 146.6 244.3 -156.3 224.7 -117.2 273.6 107.5 48.85 29.31 117.2
5.105 254 -29.31 -29.31 -87.93 9.77 -39.08 19.54 68.39 97.7 136.8 127 -185.6 87.93 -146.6 127 127 -39.08 -68.39 39.08
5.11 175.9 -68.39 -195.4 -156.3 -127 -107.5 -87.93 9.77 19.54 156.3 -9.77 -175.9 -58.62 -175.9 -19.54 146.6 -87.93 -146.6 -9.77
5.115 117.2 -48.85 -283.3 -185.6 -214.9 -117.2 -166.1 9.77 -29.31 195.4 -136.8 -117.2 -166.1 -146.6 -107.5 175.9 -78.16 -185.6 -29.31
5.12 87.93 -19.54 -312.7 -166.1 -254 -97.7 -195.4 19.54 -29.31 224.7 -205.2 -58.62 -214.9 -87.93 -146.6 244.3 -39.08 -175.9 -9.77
5.125 107.5 39.08 -263.8 -117.2 -244.3 -68.39 -205.2 19.54 -39.08 224.7 -224.7 -9.77 -185.6 -19.54 -107.5 244.3 9.77 -146.6 0
5.13 166.1 107.5 -195.4 -68.39 -195.4 -29.31 -185.6 9.77 -19.54 214.9 -146.6 48.85 -107.5 48.85 -19.54 254 87.93 -97.7 9.77
5.135 234.5 175.9 -87.93 -9.77 -97.7 9.77 -87.93 19.54 0 205.2 -87.93 117.2 0 107.5 117.2 195.4 166.1 -39.08 48.85
5.14 273.6 244.3 -9.77 58.62 19.54 58.62 9.77 39.08 29.31 175.9 -19.54 156.3 136.8 117.2 263.8 97.7 224.7 19.54 87.93
5.145 273.6 293.1 58.62 107.5 127 117.2 117.2 78.16 78.16 185.6 9.77 185.6 234.5 107.5 371.3 29.31 263.8 87.93 127
5.15 263.8 312.7 107.5 146.6 224.7 175.9 205.2 136.8 175.9 205.2 19.54 175.9 312.7 78.16 439.7 -9.77 283.3 156.3 195.4
5.155 234.5 332.2 127 156.3 263.8 224.7 273.6 185.6 244.3 195.4 9.77 136.8 322.4 48.85 390.8 -9.77 263.8 205.2 254
5.16 234.5 351.7 117.2 156.3 273.6 263.8 283.3 214.9 322.4 205.2 -9.77 97.7 302.9 48.85 302.9 39.08 234.5 244.3 312.7
5.165 234.5 351.7 68.39 127 205.2 254 244.3 234.5 351.7 224.7 -39.08 78.16 234.5 58.62 205.2 87.93 175.9 234.5 322.4
5.17 195.4 322.4 -9.77 68.39 117.2 205.2 175.9 234.5 342 254 -117.2 78.16 127 78.16 87.93 127 107.5 185.6 302.9
5.175 136.8 293.1 -117.2 9.77 39.08 146.6 117.2 185.6 293.1 244.3 -185.6 97.7 58.62 87.93 9.77 175.9 39.08 107.5 254
5.18 78.16 244.3 -166.1 -39.08 -29.31 78.16 78.16 136.8 244.3 205.2 -244.3 117.2 0 117.2 -19.54 214.9 19.54 39.08 175.9
5.185 29.31 205.2 -205.2 -48.85 -68.39 39.08 0 78.16 175.9 156.3 -254 107.5 -48.85 146.6 -39.08 254 9.77 -19.54 97.7
5.19 29.31 185.6 -195.4 -29.31 -68.39 29.31 -39.08 19.54 68.39 87.93 -234.5 117.2 -68.39 156.3 -58.62 273.6 29.31 -29.31 9.77
5.195 29.31 185.6 -185.6 -29.31 -39.08 19.54 -97.7 -39.08 -29.31 -9.77 -156.3 97.7 -78.16 136.8 -78.16 234.5 58.62 -48.85 -78.16
5.2 48.85 175.9 -185.6 -58.62 -29.31 29.31 -117.2 -58.62 -127 -87.93 -117.2 39.08 -78.16 87.93 -107.5 175.9 58.62 -29.31 -107.5
5.205 29.31 146.6 -205.2 -58.62 0 39.08 -136.8 -48.85 -166.1 -136.8 -48.85 -19.54 -58.62 19.54 -127 68.39 68.39 -19.54 -127
5.21 19.54 127 -205.2 -48.85 0 58.62 -127 -19.54 -175.9 -156.3 0 -39.08 -9.77 -29.31 -117.2 -19.54 68.39 19.54 -107.5
5.215 19.54 107.5 -175.9 0 39.08 127 -97.7 68.39 -107.5 -107.5 87.93 -48.85 78.16 -39.08 -58.62 -39.08 107.5 58.62 -58.62
5.22 58.62 107.5 -136.8 68.39 58.62 175.9 -48.85 146.6 -19.54 -39.08 175.9 -39.08 156.3 -29.31 39.08 -39.08 146.6 78.16 -9.77
5.225 117.2 146.6 -58.62 97.7 107.5 205.2 39.08 205.2 87.93 9.77 283.3 -9.77 234.5 0 146.6 -29.31 185.6 78.16 48.85
5.23 175.9 175.9 0 107.5 136.8 205.2 117.2 244.3 185.6 39.08 371.3 39.08 302.9 58.62 224.7 -9.77 224.7 78.16 78.16
5.235 195.4 136.8 19.54 58.62 107.5 156.3 166.1 205.2 205.2 39.08 381 68.39 273.6 68.39 234.5 -39.08 214.9 19.54 78.16
5.24 136.8 78.16 -19.54 -9.77 29.31 58.62 156.3 127 166.1 -29.31 312.7 68.39 205.2 48.85 205.2 -68.39 175.9 -48.85 9.77
5.245 48.85 -29.31 -117.2 -78.16 -97.7 -39.08 87.93 19.54 68.39 -97.7 185.6 48.85 87.93 0 78.16 -107.5 97.7 -146.6 -58.62
5.25 -68.39 -127 -244.3 -146.6 -205.2 -136.8 29.31 -58.62 -29.31 -175.9 58.62 29.31 -39.08 -68.39 -39.08 -166.1 -19.54 -234.5 -146.6
5.255 -136.8 -185.6 -332.2 -175.9 -254 -185.6 -29.31 -107.5 -78.16 -214.9 0 0 -107.5 -127 -127 -214.9 -87.93 -273.6 -175.9
5.26 -146.6 -205.2 -332.2 -175.9 -244.3 -195.4 19.54 -97.7 -68.39 -156.3 -19.54 0 -117.2 -185.6 -136.8 -224.7 -127 -244.3 -127
5.265 -107.5 -185.6 -283.3 -136.8 -175.9 -175.9 97.7 -48.85 9.77 -97.7 39.08 -9.77 -87.93 -205.2 -117.2 -195.4 -136.8 -156.3 -78.16
5.27 -39.08 -146.6 -205.2 -107.5 -117.2 -136.8 175.9 19.54 97.7 -19.54 97.7 -29.31 -29.31 -224.7 -29.31 -117.2 -87.93 -78.16 0
5.275 0 -136.8 -146.6 -117.2 -58.62 -127 224.7 58.62 166.1 39.08 127 -48.85 19.54 -234.5 58.62 -97.7 -58.62 -29.31 39.08
5.28 0 -136.8 -136.8 -146.6 -68.39 -156.3 205.2 48.85 146.6 19.54 136.8 -97.7 48.85 -224.7 87.93 -78.16 -68.39 -48.85 9.77
5.285 -68.39 -166.1 -166.1 -205.2 -107.5 -224.7 127 -9.77 58.62 -39.08 107.5 -156.3 58.62 -244.3 87.93 -127 -107.5 -107.5 -78.16
5.29 -185.6 -234.5 -244.3 -302.9 -166.1 -302.9 0 -87.93 -68.39 -127 68.39 -205.2 29.31 -263.8 39.08 -166.1 -195.4 -234.5 -224.7
5.295 -283.3 -302.9 -332.2 -371.3 -244.3 -381 -107.5 -195.4 -214.9 -244.3 -9.77 -234.5 19.54 -263.8 0 -185.6 -273.6 -361.5 -361.5
5.3 -351.7 -332.2 -390.8 -400.6 -322.4 -420.1 -205.2 -293.1 -332.2 -361.5 -78.16 -234.5 0 -273.6 -19.54 -195.4 -302.9 -429.9 -459.2
5.305 -371.3 -293.1 -400.6 -351.7 -361.5 -381 -244.3 -302.9 -390.8 -429.9 -146.6 -166.1 -29.31 -244.3 -19.54 -185.6 -283.3 -420.1 -478.7
5.31 -400.6 -224.7 -390.8 -283.3 -361.5 -322.4 -254 -283.3 -429.9 -429.9 -195.4 -127 -68.39 -205.2 -48.85 -146.6 -234.5 -371.3 -469
5.315 -400.6 -136.8 -351.7 -205.2 -312.7 -214.9 -195.4 -185.6 -390.8 -381 -254 -68.39 -87.93 -146.6 -58.62 -117.2 -166.1 -263.8 -400.6
5.32 -381 -48.85 -293.1 -127 -244.3 -97.7 -156.3 -78.16 -332.2 -302.9 -263.8 -19.54 -78.16 -87.93 -68.39 -87.93 -127 -156.3 -302.9
5.325 -342 -9.77 -234.5 -68.39 -185.6 -39.08 -97.7 -9.77 -244.3 -234.5 -254 9.77 -58.62 -68.39 -19.54 -58.62 -97.7 -87.93 -224.7
5.33 -273.6 58.62 -156.3 0 -136.8 -19.54 -48.85 39.08 -175.9 -185.6 -205.2 29.31 9.77 -39.08 48.85 -48.85 -68.39 -48.85 -166.1
5.335 -205.2 117.2 -87.93 58.62 -107.5 -9.77 -9.77 87.93 -107.5 -117.2 -117.2 68.39 87.93 -9.77 117.2 -29.31 -58.62 -39.08 -107.5
5.34 -175.9 156.3 -58.62 87.93 -97.7 -9.77 0 107.5 -68.39 -78.16 -39.08 117.2 156.3 19.54 127 0 -68.39 -48.85 -48.85
5.345 -156.3 175.9 -39.08 107.5 -87.93 0 29.31 175.9 -39.08 19.54 29.31 166.1 185.6 68.39 78.16 39.08 -48.85 -39.08 0
5.35 -156.3 185.6 -9.77 146.6 -48.85 58.62 87.93 273.6 9.77 117.2 87.93 234.5 205.2 97.7 29.31 68.39 -19.54 0 87.93
5.355 -146.6 185.6 29.31 195.4 29.31 107.5 136.8 351.7 48.85 185.6 146.6 302.9 205.2 127 9.77 107.5 48.85 68.39 166.1
5.36 -117.2 195.4 87.93 263.8 117.2 156.3 195.4 400.6 58.62 224.7 175.9 332.2 214.9 136.8 9.77 136.8 117.2 127 205.2
5.365 -97.7 185.6 146.6 293.1 175.9 166.1 214.9 400.6 48.85 195.4 185.6 322.4 195.4 107.5 19.54 136.8 175.9 156.3 185.6
5.37 -78.16 156.3 175.9 293.1 166.1 136.8 175.9 332.2 -9.77 107.5 156.3 273.6 156.3 68.39 0 107.5 195.4 156.3 107.5
5.375 -78.16 117.2 127 263.8 87.93 78.16 97.7 224.7 -87.93 19.54 68.39 195.4 78.16 0 -97.7 48.85 166.1 127 0
5.38 -87.93 87.93 48.85 214.9 9.77 19.54 29.31 107.5 -156.3 -78.16 -19.54 117.2 0 -48.85 -185.6 -29.31 166.1 78.16 -117.2
5.385 -58.62 97.7 -9.77 185.6 -58.62 -19.54 -29.31 9.77 -205.2 -156.3 -68.39 68.39 -9.77 -68.39 -214.9 -87.93 175.9 39.08 -185.6
5.39 -68.39 107.5 -48.85 166.1 -87.93 -19.54 -48.85 -48.85 -214.9 -175.9 -146.6 58.62 -29.31 -58.62 -244.3 -87.93 156.3 9.77 -234.5
5.395 -39.08 97.7 -48.85 166.1 -87.93 0 -48.85 -68.39 -214.9 -175.9 -195.4 68.39 -9.77 -39.08 -224.7 -68.39 117.2 -9.77 -244.3
5.4 -68.39 48.85 -68.39 146.6 -97.7 39.08 -39.08 -39.08 -205.2 -146.6 -234.5 97.7 -9.77 -48.85 -185.6 -39.08 39.08 -19.54 -234.5
5.405 -127 -39.08 -127 97.7 -127 19.54 -39.08 -19.54 -214.9 -107.5 -283.3 78.16 -39.08 -68.39 -205.2 -19.54 -87.93 -48.85 -234.5
5.41 -224.7 -136.8 -234.5 19.54 -175.9 -29.31 -48.85 19.54 -224.7 -87.93 -312.7 48.85 -68.39 -97.7 -214.9 -78.16 -195.4 -107.5 -234.5
5.415 -312.7 -185.6 -351.7 -68.39 -205.2 -68.39 -78.16 29.31 -263.8 -68.39 -332.2 19.54 -107.5 -107.5 -302.9 -127 -302.9 -146.6 -244.3
5.42 -381 -224.7 -429.9 -117.2 -254 -117.2 -87.93 48.85 -293.1 -58.62 -371.3 -19.54 -166.1 -87.93 -371.3 -156.3 -332.2 -185.6 -254
5.425 -390.8 -224.7 -449.4 -136.8 -254 -117.2 -117.2 58.62 -302.9 -48.85 -361.5 -39.08 -205.2 -68.39 -410.4 -205.2 -332.2 -185.6 -263.8
5.43 -342 -195.4 -420.1 -107.5 -244.3 -117.2 -117.2 78.16 -283.3 -48.85 -332.2 -19.54 -224.7 -39.08 -410.4 -175.9 -302.9 -185.6 -263.8
5.435 -283.3 -146.6 -361.5 -68.39 -214.9 -107.5 -107.5 117.2 -244.3 -29.31 -302.9 19.54 -214.9 9.77 -342 -136.8 -283.3 -185.6 -254
5.44 -263.8 -78.16 -312.7 -39.08 -195.4 -87.93 -58.62 166.1 -156.3 29.31 -283.3 68.39 -185.6 78.16 -254 -68.39 -302.9 -185.6 -205.2
5.445 -273.6 0 -302.9 -9.77 -185.6 -68.39 9.77 244.3 -68.39 117.2 -312.7 107.5 -175.9 146.6 -156.3 29.31 -361.5 -175.9 -156.3
5.45 -273.6 48.85 -312.7 -9.77 -166.1 -58.62 78.16 293.1 9.77 185.6 -322.4 136.8 -166.1 185.6 -78.16 107.5 -381 -156.3 -127
5.455 -263.8 68.39 -312.7 -39.08 -146.6 -68.39 87.93 273.6 39.08 175.9 -381 87.93 -185.6 185.6 -48.85 156.3 -381 -156.3 -136.8
5.46 -263.8 48.85 -322.4 -58.62 -166.1 -117.2 39.08 195.4 0 97.7 -429.9 19.54 -214.9 127 -58.62 146.6 -371.3 -195.4 -214.9
5.465 -244.3 -9.77 -332.2 -127 -214.9 -214.9 -68.39 39.08 -117.2 -58.62 -478.7 -78.16 -254 39.08 -127 78.16 -381 -263.8 -342
5.47 -283.3 -87.93 -371.3 -224.7 -312.7 -342 -205.2 -146.6 -283.3 -263.8 -556.9 -175.9 -312.7 -39.08 -244.3 29.31 -429.9 -390.8 -488.5
5.475 -332.2 -146.6 -439.7 -332.2 -420.1 -469 -351.7 -302.9 -410.4 -410.4 -596 -263.8 -371.3 -127 -322.4 -48.85 -498.3 -517.8 -596
5.48 -410.4 -244.3 -527.6 -439.7 -527.6 -586.2 -478.7 -449.4 -508.1 -488.5 -605.8 -332.2 -400.6 -205.2 -390.8 -146.6 -576.5 -625.3 -693.7
5.485 -498.3 -302.9 -576.5 -537.4 -586.2 -664.4 -556.9 -537.4 -547.6 -537.4 -586.2 -390.8 -400.6 -263.8 -400.6 -214.9 -655.1 -742.6 -762.1
5.49 -556.9 -371.3 -615.5 -605.8 -625.3 -723 -625.3 -615.5 -527.6 -527.6 -537.4 -449.4 -390.8 -361.5 -390.8 -351.7 -713.2 -801.2 -771.9
5.495 -596 -478.7 -615.5 -664.4 -615.5 -762.1 -625.3 -674.6 -508.1 -508.1 -488.5 -498.3 -351.7 -439.7 -381 -449.4 -742.6 -840.3 -801.2
5.5 -586.2 -586.2 -586.2 -713.2 -586.2 -771.9 -596 -703.5 -459.2 -508.1 -449.4 -537.4 -322.4 -498.3 -361.5 -508.1 -752.3 -840.3 -762.1
5.505 -586.2 -674.6 -556.9 -713.2 -537.4 -723 -556.9 -693.7 -429.9 -469 -420.1 -537.4 -293.1 -508.1 -322.4 -488.5 -713.2 -781.6 -723
5.51 -556.9 -713.2 -527.6 -655.1 -498.3 -635.6 -508.1 -625.3 -400.6 -410.4 -381 -478.7 -263.8 -488.5 -293.1 -410.4 -644.8 -693.7 -644.8
5.515 -537.4 -703.5 -469 -556.9 -420.1 -537.4 -478.7 -527.6 -390.8 -342 -342 -410.4 -214.9 -439.7 -244.3 -312.7 -547.6 -566.7 -566.7
5.52 -517.8 -655.1 -410.4 -469 -342 -469 -439.7 -439.7 -410.4 -254 -293.1 -361.5 -175.9 -420.1 -224.7 -175.9 -469 -459.2 -498.3
5.525 -527.6 -615.5 -371.3 -429.9 -273.6 -439.7 -410.4 -371.3 -410.4 -195.4 -263.8 -361.5 -136.8 -400.6 -254 -78.16 -449.4 -410.4 -439.7
5.53 -517.8 -605.8 -351.7 -429.9 -234.5 -439.7 -400.6 -351.7 -390.8 -156.3 -224.7 -371.3 -97.7 -410.4 -263.8 -39.08 -429.9 -390.8 -400.6
5.535 -527.6 -625.3 -342 -439.7 -195.4 -410.4 -351.7 -342 -312.7 -136.8 -195.4 -381 -78.16 -390.8 -283.3 -39.08 -410.4 -381 -371.3
5.54 -517.8 -596 -342 -410.4 -195.4 -361.5 -312.7 -342 -214.9 -117.2 -146.6 -322.4 -87.93 -351.7 -273.6 -87.93 -371.3 -371.3 -302.9
5.545 -478.7 -566.7 -293.1 -351.7 -175.9 -283.3 -263.8 -361.5 -136.8 -107.5 -87.93 -244.3 -48.85 -312.7 -214.9 -146.6 -283.3 -322.4 -244.3
5.55 -420.1 -478.7 -234.5 -273.6 -117.2 -185.6 -224.7 -371.3 -58.62 -117.2 -39.08 -136.8 -19.54 -283.3 -136.8 -175.9 -185.6 -224.7 -205.2
5.555 -351.7 -390.8 -136.8 -195.4 -78.16 -117.2 -205.2 -361.5 -9.77 -146.6 0 -58.62 19.54 -254 -78.16 -185.6 -107.5 -156.3 -185.6
5.56 -293.1 -351.7 -68.39 -166.1 -39.08 -87.93 -205.2 -371.3 -29.31 -205.2 29.31 -19.54 29.31 -244.3 -58.62 -175.9 -58.62 -97.7 -166.1
5.565 -273.6 -361.5 -48.85 -175.9 -29.31 -97.7 -254 -361.5 -97.7 -263.8 29.31 0 29.31 -224.7 -68.39 -146.6 -48.85 -78.16 -175.9
5.57 -263.8 -410.4 -78.16 -205.2 -58.62 -117.2 -293.1 -332.2 -166.1 -283.3 9.77 -19.54 -9.77 -195.4 -107.5 -97.7 -78.16 -78.16 -185.6
5.575 -263.8 -439.7 -87.93 -234.5 -78.16 -97.7 -302.9 -283.3 -205.2 -273.6 9.77 -29.31 -39.08 -166.1 -146.6 -68.39 -97.7 -68.39 -166.1
5.58 -244.3 -439.7 -107.5 -244.3 -87.93 -68.39 -254 -234.5 -214.9 -254 19.54 0 -39.08 -107.5 -146.6 -19.54 -117.2 -39.08 -127
5.585 -195.4 -371.3 -97.7 -234.5 -58.62 -29.31 -214.9 -195.4 -185.6 -224.7 78.16 39.08 -19.54 -39.08 -127 -19.54 -117.2 -19.54 -97.7
5.59 -117.2 -273.6 -58.62 -175.9 -29.31 29.31 -146.6 -146.6 -107.5 -166.1 127 127 19.54 9.77 -87.93 -29.31 -78.16 9.77 -48.85
5.595 -39.08 -166.1 19.54 -87.93 29.31 87.93 -78.16 -107.5 -9.77 -117.2 205.2 195.4 78.16 58.62 -58.62 -19.54 9.77 29.31 -9.77
5.6 58.62 -58.62 87.93 39.08 97.7 156.3 9.77 -39.08 117.2 -29.31 273.6 263.8 136.8 97.7 -9.77 -78.16 127 107.5 58.62
5.605 136.8 29.31 185.6 117.2 195.4 244.3 127 19.54 244.3 78.16 342 283.3 175.9 107.5 48.85 -58.62 234.5 185.6 166.1
5.61 185.6 78.16 254 146.6 293.1 293.1 205.2 58.62 332.2 185.6 351.7 273.6 214.9 127 107.5 -29.31 302.9 244.3 224.7
5.615 234.5 127 293.1 146.6 332.2 293.1 244.3 78.16 371.3 263.8 322.4 234.5 224.7 136.8 136.8 0 283.3 244.3 293.1
5.62 293.1 166.1 312.7 117.2 342 254 244.3 68.39 381 332.2 283.3 195.4 234.5 136.8 175.9 48.85 263.8 234.5 312.7
5.625 361.5 263.8 342 127 312.7 234.5 224.7 68.39 351.7 361.5 214.9 214.9 214.9 146.6 166.1 87.93 254 224.7 332.2
5.63 429.9 361.5 381 185.6 273.6 254 224.7 58.62 332.2 361.5 175.9 273.6 224.7 166.1 156.3 127 273.6 214.9 361.5
5.635 498.3 420.1 420.1 244.3 273.6 283.3 214.9 39.08 322.4 342 175.9 322.4 224.7 195.4 136.8 136.8 293.1 234.5 400.6
5.64 498.3 429.9 449.4 283.3 263.8 283.3 214.9 -19.54 293.1 273.6 127 351.7 214.9 205.2 146.6 127 312.7 234.5 410.4
5.645 459.2 361.5 420.1 263.8 234.5 254 175.9 -78.16 254 214.9 87.93 322.4 175.9 185.6 136.8 97.7 263.8 214.9 381
5.65 371.3 224.7 371.3 224.7 185.6 156.3 97.7 -146.6 205.2 136.8 48.85 254 136.8 156.3 127 68.39 195.4 175.9 332.2
5.655 312.7 87.93 312.7 136.8 146.6 58.62 29.31 -214.9 166.1 78.16 29.31 146.6 78.16 87.93 87.93 9.77 117.2 136.8 283.3
5.66 273.6 -48.85 254 68.39 78.16 -19.54 -58.62 -224.7 107.5 48.85 0 48.85 9.77 29.31 29.31 -29.31 29.31 97.7 234.5
5.665 214.9 -185.6 175.9 0 19.54 -87.93 -146.6 -214.9 48.85 39.08 -48.85 -9.77 -48.85 0 -29.31 -29.31 -29.31 68.39 195.4
5.67 146.6 -302.9 97.7 -68.39 -39.08 -97.7 -234.5 -175.9 -29.31 29.31 -117.2 -58.62 -127 -9.77 -127 -58.62 -97.7 39.08 146.6
5.675 68.39 -390.8 39.08 -97.7 -78.16 -68.39 -293.1 -127 -97.7 0 -224.7 -68.39 -214.9 -9.77 -175.9 -58.62 -136.8 29.31 117.2
5.68 9.77 -410.4 19.54 -97.7 -87.93 -29.31 -322.4 -97.7 -117.2 -39.08 -322.4 -68.39 -263.8 19.54 -185.6 -58.62 -146.6 39.08 58.62
5.685 -29.31 -371.3 9.77 -48.85 -68.39 39.08 -302.9 -58.62 -97.7 -58.62 -381 -19.54 -283.3 58.62 -175.9 -48.85 -117.2 68.39 48.85
5.69 -19.54 -332.2 9.77 9.77 -19.54 97.7 -254 -19.54 -68.39 -48.85 -371.3 29.31 -234.5 127 -117.2 -39.08 -68.39 97.7 58.62
5.695 29.31 -263.8 29.31 58.62 58.62 136.8 -205.2 0 -29.31 -29.31 -293.1 68.39 -195.4 185.6 -58.62 -9.77 -19.54 117.2 78.16
5.7 78.16 -234.5 48.85 87.93 97.7 136.8 -175.9 19.54 -19.54 0 -234.5 78.16 -146.6 224.7 -39.08 9.77 19.54 146.6 97.7
5.705 97.7 -214.9 48.85 117.2 127 127 -166.1 39.08 -29.31 29.31 -185.6 97.7 -146.6 234.5 -29.31 19.54 29.31 195.4 107.5
5.71 136.8 -185.6 97.7 185.6 156.3 156.3 -117.2 97.7 0 97.7 -146.6 127 -175.9 244.3 -58.62 29.31 97.7 273.6 166.1
5.715 136.8 -87.93 117.2 205.2 175.9 166.1 -19.54 136.8 58.62 146.6 -48.85 146.6 -166.1 254 -48.85 68.39 166.1 332.2 195.4
5.72 136.8 29.31 117.2 175.9 195.4 156.3 87.93 127 107.5 166.1 39.08 87.93 -117.2 214.9 -29.31 48.85 175.9 332.2 185.6
5.725 136.8 117.2 78.16 107.5 205.2 97.7 175.9 97.7 166.1 166.1 156.3 -9.77 -48.85 156.3 0 39.08 175.9 283.3 156.3
5.73 87.93 166.1 9.77 0 185.6 -9.77 244.3 9.77 185.6 146.6 263.8 -117.2 9.77 68.39 39.08 -9.77 107.5 175.9 87.93
5.735 87.93 175.9 -19.54 -68.39 205.2 -107.5 273.6 -87.93 185.6 117.2 312.7 -205.2 39.08 9.77 58.62 -58.62 48.85 58.62 19.54
5.74 107.5 166.1 -39.08 -58.62 224.7 -136.8 263.8 -127 185.6 78.16 342 -185.6 58.62 0 58.62 -68.39 19.54 29.31 -19.54
5.745 136.8 205.2 -9.77 -29.31 214.9 -127 224.7 -136.8 156.3 48.85 371.3 -156.3 48.85 0 39.08 -68.39 19.54 29.31 -48.85
5.75 185.6 205.2 29.31 -9.77 224.7 -97.7 166.1 -136.8 117.2 39.08 400.6 -136.8 39.08 0 39.08 -68.39 48.85 68.39 -58.62
5.755 224.7 195.4 78.16 0 195.4 -87.93 58.62 -127 29.31 0 390.8 -156.3 0 -9.77 29.31 -68.39 48.85 117.2 -78.16
5.76 244.3 205.2 117.2 9.77 156.3 -68.39 -29.31 -117.2 -19.54 -39.08 390.8 -214.9 -39.08 0 9.77 -78.16 68.39 146.6 -78.16
5.765 244.3 195.4 136.8 0 117.2 -68.39 -58.62 -87.93 -19.54 -39.08 400.6 -263.8 -58.62 0 29.31 -58.62 97.7 156.3 -9.77
5.77 195.4 195.4 146.6 -29.31 78.16 -87.93 -58.62 -68.39 29.31 -19.54 400.6 -322.4 -78.16 -9.77 19.54 -39.08 97.7 136.8 87.93
5.775 136.8 195.4 136.8 -39.08 87.93 -117.2 29.31 -58.62 156.3 39.08 429.9 -351.7 -48.85 0 58.62 -29.31 78.16 127 214.9
5.78 87.93 214.9 146.6 -48.85 127 -136.8 195.4 -58.62 302.9 78.16 420.1 -361.5 9.77 0 107.5 29.31 68.39 117.2 332.2
5.785 97.7 224.7 185.6 -39.08 214.9 -127 322.4 -29.31 410.4 136.8 420.1 -342 78.16 9.77 166.1 58.62 97.7 156.3 420.1
5.79 107.5 224.7 254 9.77 293.1 -87.93 390.8 9.77 478.7 195.4 381 -283.3 136.8 19.54 214.9 68.39 156.3 195.4 459.2
5.795 146.6 254 302.9 78.16 332.2 -19.54 390.8 39.08 439.7 185.6 342 -205.2 156.3 19.54 234.5 68.39 214.9 224.7 439.7
5.8 175.9 263.8 332.2 127 312.7 39.08 293.1 78.16 361.5 185.6 322.4 -117.2 146.6 39.08 234.5 58.62 244.3 244.3 371.3
5.805 156.3 244.3 312.7 156.3 254 87.93 205.2 97.7 283.3 166.1 302.9 -29.31 136.8 39.08 244.3 39.08 244.3 205.2 293.1
5.81 127 214.9 263.8 156.3 166.1 107.5 87.93 127 195.4 136.8 283.3 29.31 117.2 48.85 244.3 58.62 214.9 156.3 195.4
5.815 107.5 205.2 263.8 175.9 127 127 58.62 136.8 175.9 97.7 302.9 58.62 136.8 48.85 293.1 78.16 224.7 127 146.6
5.82 87.93 195.4 254 185.6 117.2 156.3 97.7 185.6 214.9 107.5 322.4 87.93 185.6 78.16 371.3 117.2 244.3 136.8 127
5.825 97.7 205.2 283.3 195.4 146.6 195.4 156.3 214.9 273.6 127 361.5 117.2 244.3 87.93 439.7 117.2 283.3 175.9 156.3
5.83 146.6 234.5 332.2 234.5 195.4 224.7 273.6 244.3 361.5 156.3 420.1 166.1 302.9 107.5 517.8 127 342 234.5 185.6
5.835 185.6 273.6 361.5 273.6 205.2 244.3 342 273.6 420.1 175.9 439.7 214.9 312.7 117.2 537.4 146.6 371.3 254 214.9
5.84 195.4 283.3 361.5 254 156.3 224.7 332.2 263.8 390.8 136.8 400.6 214.9 254 87.93 488.5 136.8 342 205.2 205.2
5.845 205.2 283.3 332.2 234.5 87.93 205.2 254 254 283.3 87.93 342 234.5 156.3 87.93 390.8 127 302.9 136.8 156.3
5.85 185.6 273.6 263.8 214.9 -9.77 195.4 146.6 224.7 146.6 29.31 244.3 234.5 39.08 68.39 273.6 117.2 254 58.62 87.93
5.855 136.8 234.5 205.2 185.6 -68.39 195.4 48.85 195.4 9.77 -19.54 146.6 195.4 -48.85 39.08 185.6 87.93 175.9 0 19.54
5.86 107.5 224.7 146.6 175.9 -97.7 185.6 -9.77 175.9 -87.93 -48.85 97.7 175.9 -107.5 9.77 127 68.39 107.5 -19.54 -29.31
5.865 68.39 175.9 107.5 136.8 -87.93 195.4 -19.54 166.1 -117.2 -39.08 68.39 107.5 -127 -9.77 78.16 39.08 39.08 -9.77 -9.77
5.87 48.85 117.2 97.7 97.7 -48.85 205.2 29.31 175.9 -68.39 9.77 87.93 78.16 -107.5 -48.85 58.62 19.54 -9.77 29.31 58.62
5.875 29.31 117.2 87.93 87.93 0 254 117.2 234.5 0 97.7 136.8 87.93 -68.39 -48.85 58.62 29.31 -19.54 97.7 156.3
5.88 68.39 146.6 156.3 127 107.5 322.4 244.3 322.4 127 205.2 214.9 127 9.77 -48.85 107.5 29.31 48.85 175.9 283.3
5.885 156.3 224.7 263.8 224.7 254 410.4 361.5 439.7 254 302.9 322.4 214.9 107.5 -19.54 185.6 68.39 175.9 293.1 400.6
5.89 254 322.4 371.3 322.4 371.3 498.3 459.2 527.6 342 371.3 410.4 302.9 175.9 19.54 254 127 332.2 410.4 478.7
5.895 322.4 400.6 469 400.6 459.2 556.9 527.6 566.7 410.4 390.8 488.5 381 234.5 29.31 332.2 136.8 469 498.3 517.8
5.9 371.3 429.9 517.8 410.4 459.2 547.1 508.1 498.3 410.4 351.7 508.1 410.4 244.3 29.31 361.5 136.8 537.4 517.8 459.2
5.905 332.2 420.1 488.5 361.5 371.3 488.5 410.4 371.3 342 244.3 469 390.8 195.4 9.77 332.2 107.5 517.8 439.7 312.7
5.91 283.3 371.3 439.7 263.8 254 371.3 302.9 234.5 273.6 117.2 400.6 312.7 127 -39.08 273.6 29.31 469 302.9 156.3
5.915 234.5 293.1 381 117.2 166.1 244.3 175.9 87.93 195.4 -29.31 312.7 224.7 58.62 -68.39 195.4 0 400.6 156.3 9.77
5.92 166.1 205.2 312.7 9.77 78.16 156.3 78.16 19.54 117.2 -97.7 214.9 146.6 9.77 -97.7 127 0 302.9 39.08 -97.7
5.925 107.5 127 263.8 -39.08 39.08 127 39.08 48.85 97.7 -97.7 146.6 68.39 -9.77 -107.5 87.93 29.31 234.5 -19.54 -107.5
5.93 68.39 58.62 234.5 -68.39 19.54 136.8 48.85 117.2 107.5 -39.08 107.5 39.08 -9.77 -78.16 97.7 78.16 185.6 -29.31 -48.85
5.935 9.77 9.77 195.4 -97.7 9.77 156.3 68.39 195.4 146.6 29.31 107.5 19.54 9.77 -58.62 127 136.8 117.2 -39.08 0
5.94 -19.54 0 175.9 -107.5 -39.08 146.6 87.93 224.7 146.6 78.16 97.7 19.54 29.31 -39.08 156.3 166.1 87.93 -68.39 29.31
5.945 -58.62 0 146.6 -127 -78.16 107.5 39.08 224.7 117.2 87.93 78.16 19.54 29.31 -39.08 146.6 185.6 58.62 -87.93 -19.54
5.95 -68.39 9.77 146.6 -117.2 -107.5 58.62 -19.54 195.4 39.08 78.16 39.08 29.31 0 -29.31 97.7 185.6 68.39 -117.2 -58.62
5.955 -58.62 39.08 175.9 -78.16 -117.2 58.62 -78.16 166.1 -58.62 58.62 -19.54 48.85 -39.08 -29.31 19.54 185.6 107.5 -58.62 -87.93
5.96 -39.08 58.62 224.7 -29.31 -97.7 68.39 -107.5 146.6 -146.6 39.08 -58.62 78.16 -29.31 -9.77 -39.08 214.9 166.1 9.77 -87.93
5.965 -19.54 78.16 283.3 19.54 -48.85 107.5 -97.7 127 -195.4 29.31 -48.85 136.8 -9.77 9.77 -97.7 234.5 244.3 117.2 -39.08
5.97 -19.54 58.62 312.7 19.54 0 107.5 -39.08 97.7 -205.2 29.31 -29.31 136.8 9.77 9.77 -97.7 224.7 273.6 185.6 19.54
5.975 -58.62 19.54 312.7 19.54 19.54 97.7 39.08 87.93 -156.3 58.62 9.77 117.2 39.08 -9.77 -58.62 205.2 254 224.7 97.7
5.98 -117.2 -48.85 342 -9.77 58.62 48.85 127 68.39 -68.39 58.62 9.77 29.31 87.93 -58.62 9.77 97.7 244.3 244.3 166.1
5.985 -175.9 -107.5 361.5 -48.85 97.7 9.77 195.4 39.08 -9.77 58.62 0 -78.16 107.5 -136.8 78.16 -19.54 224.7 254 175.9
5.99 -214.9 -156.3 361.5 -87.93 107.5 -58.62 214.9 0 39.08 29.31 -19.54 -166.1 117.2 -195.4 136.8 -97.7 205.2 224.7 156.3
5.995 -273.6 -205.2 342 -146.6 58.62 -156.3 185.6 -78.16 29.31 -9.77 -87.93 -254 78.16 -263.8 127 -146.6 146.6 146.6 78.16
6 -322.4 -244.3 283.3 -205.2 -19.54 -224.7 136.8 -127 19.54 -58.62 -156.3 -302.9 48.85 -293.1 87.93 -136.8 68.39 48.85 -9.77
6.005 -332.2 -263.8 224.7 -244.3 -87.93 -234.5 107.5 -146.6 0 -48.85 -214.9 -312.7 9.77 -283.3 39.08 -78.16 29.31 -29.31 -58.62
6.01 -351.7 -283.3 195.4 -234.5 -146.6 -205.2 78.16 -127 -9.77 -48.85 -273.6 -293.1 -19.54 -224.7 0 -39.08 9.77 -68.39 -78.16
6.015 -361.5 -273.6 195.4 -224.7 -185.6 -136.8 68.39 -78.16 -29.31 -48.85 -342 -263.8 -39.08 -166.1 -48.85 9.77 9.77 -68.39 -58.62
6.02 -342 -254 195.4 -185.6 -205.2 -87.93 9.77 -48.85 -87.93 -48.85 -371.3 -205.2 -58.62 -87.93 -117.2 29.31 19.54 -68.39 -68.39
6.025 -351.7 -224.7 166.1 -146.6 -254 -58.62 -87.93 -19.54 -195.4 -87.93 -449.4 -156.3 -117.2 -19.54 -234.5 29.31 -9.77 -97.7 -107.5
