    T[sec] Fp1 Fp2  F7  F3  F4  F8  T3  C3  C4  T4  T5  P3  P4  T6  O1  O2
41 361.2 361.2 361.2 361.2 361.2 361.2 361.2 361.2 361.2 361.2 361.2 361.2 361.2 361.2 361.2 361.2
0.625 -25.04 -27.16 -19.05 -1.058 -17.11 -41.09 -13.05 -3.174 -17.11 -35.09 -7.054 -2.116 -7.054 -43.03 -17.11 -77.07
0.63 -32.1 -35.09 -26.1 -7.054 -22.04 -47.09 -11.11 4.938 -6.172 -33.15 -7.054 14.99 2.998 -34.04 -10.05 -65.08
0.635 -42.15 -47.09 -33.15 -9.17 -27.16 -46.03 -9.17 12.87 0.8818 -26.1 -8.112 24.87 19.93 -24.16 -1.058 -52.02
0.64 -47.09 -53.08 -35.09 -15.17 -31.04 -43.03 -11.11 13.93 9.876 -21.16 -7.054 29.98 25.92 -17.11 3.88 -39.15
0.645 -46.03 -51.14 -33.15 -10.05 -26.1 -32.1 -10.05 14.99 12.87 -12.17 -4.056 31.92 21.87 -10.05 20.99 -33.15
0.65 -42.15 -47.09 -27.16 -6.172 -20.1 -20.1 -8.112 12.87 5.996 -12.17 -1.058 28.92 9.876 -9.17 29.98 -34.04
0.655 -33.15 -47.09 -23.1 -7.054 -17.11 -9.17 -3.174 9.876 -2.116 -11.11 5.996 21.87 -1.058 -15.17 27.86 -39.15
0.66 -25.04 -45.15 -25.04 -10.05 -14.11 -1.058 1.94 9.876 -3.174 -7.054 4.938 16.93 -10.05 -18.16 13.93 -41.09
0.665 -19.05 -47.09 -31.04 -22.04 -16.05 0.8818 -2.116 5.996 0.8818 -1.058 -2.116 8.994 -8.112 -21.16 -10.05 -40.03
0.67 -19.05 -49.03 -35.09 -35.09 -23.1 -5.114 -9.17 -2.116 1.94 0 -11.11 -2.116 -3.174 -19.05 -33.15 -31.04
0.675 -19.05 -49.03 -35.09 -41.09 -27.16 -6.172 -19.05 -9.17 3.88 4.938 -25.04 -6.172 -1.058 -11.11 -44.09 -17.11
0.68 -23.1 -47.09 -33.15 -45.15 -29.1 -8.112 -25.04 -21.16 0 2.998 -35.09 -18.16 0.8818 -6.172 -48.15 1.94
0.685 -31.04 -45.15 -29.1 -43.03 -29.1 -11.11 -29.1 -29.1 -3.174 -1.058 -39.15 -27.16 0 -1.058 -39.15 7.936
0.69 -35.09 -37.03 -27.16 -39.15 -27.16 -12.17 -29.1 -29.1 -11.11 -6.172 -37.03 -27.16 2.998 0.8818 -26.1 20.99
0.695 -35.09 -29.1 -25.04 -35.09 -23.1 -14.11 -25.04 -23.1 -9.17 -8.112 -35.09 -21.16 9.876 6.878 -11.11 32.98
0.7 -31.04 -25.04 -27.16 -33.15 -19.05 -15.17 -23.1 -15.17 0.8818 -1.058 -33.15 -9.17 23.98 5.996 -1.058 43.91
0.705 -27.16 -15.17 -29.1 -31.04 -17.11 -19.05 -21.16 -15.17 9.876 0 -33.15 -3.174 37.92 0.8818 0 50.97
0.71 -23.1 -13.05 -29.1 -29.1 -19.05 -23.1 -23.1 -23.1 15.87 0.8818 -35.09 -5.114 37.92 -9.17 -2.116 44.97
0.715 -23.1 -9.17 -25.04 -25.04 -21.16 -25.04 -27.16 -35.09 7.936 -11.11 -37.03 -15.17 23.98 -21.16 -5.114 27.86
0.72 -25.04 -7.054 -21.16 -23.1 -23.1 -25.04 -31.04 -47.09 -7.054 -27.16 -35.09 -27.16 -2.116 -27.16 -11.11 5.996
0.725 -25.04 -5.114 -21.16 -21.16 -19.05 -23.1 -33.15 -49.03 -27.16 -39.15 -35.09 -37.03 -23.1 -25.04 -13.05 -9.17
0.73 -21.16 -7.054 -23.1 -23.1 -13.05 -23.1 -33.15 -43.03 -37.03 -41.09 -35.09 -41.09 -41.09 -23.1 -9.17 -19.05
0.735 -13.05 -9.17 -31.04 -27.16 -11.11 -23.1 -35.09 -37.03 -39.15 -37.03 -39.15 -43.03 -49.03 -23.1 -7.054 -21.16
0.74 -7.054 -11.11 -41.09 -35.09 -15.17 -27.16 -41.09 -41.09 -39.15 -35.09 -47.09 -53.08 -59.08 -33.15 -17.11 -23.1
0.745 -3.174 -9.17 -49.03 -41.09 -23.1 -31.04 -49.03 -55.02 -45.15 -41.09 -55.02 -75.13 -77.07 -45.15 -45.15 -35.09
0.75 -2.116 0.8818 -47.09 -43.03 -33.15 -35.09 -57.14 -75.13 -65.08 -55.02 -63.14 -107 -107 -55.02 -85 -55.02
0.755 3.88 12.87 -37.03 -39.15 -33.15 -33.15 -61.02 -93.12 -89.06 -65.08 -65.08 -137 -145.1 -61.02 -119 -79.01
0.76 13.93 28.92 -23.1 -31.04 -25.04 -25.04 -57.14 -97.17 -105.1 -67.02 -63.14 -153.1 -168.1 -59.08 -137 -90.12
0.765 21.87 40.91 -13.05 -25.04 -9.17 -15.17 -47.09 -87.12 -103.2 -53.08 -59.08 -145.1 -169.1 -53.08 -133.1 -81.12
0.77 23.98 38.97 -13.05 -23.1 -2.116 -7.054 -35.09 -67.02 -80.07 -33.15 -53.08 -117.1 -140 -45.15 -107 -50.09
0.775 19.93 26.98 -23.1 -27.16 1.94 -5.114 -29.1 -47.09 -48.15 -12.17 -47.09 -76.01 -94.17 -30.16 -71.07 -10.05
0.78 7.936 6.878 -37.03 -37.03 -1.058 -13.05 -29.1 -33.15 -23.1 -3.174 -39.15 -41.09 -47.09 -13.05 -31.04 27.86
0.785 -1.058 -3.174 -45.15 -45.15 -15.17 -27.16 -35.09 -30.16 -10.05 -2.116 -33.15 -10.05 -6.172 1.94 -2.116 64.9
0.79 -15.17 -7.054 -43.03 -53.08 -33.15 -41.09 -43.03 -32.1 -10.05 -8.112 -29.1 1.94 7.936 4.938 23.98 87.83
0.795 -29.1 -7.054 -37.03 -61.02 -47.09 -51.14 -47.09 -37.03 -19.05 -25.04 -29.1 3.88 17.99 -1.058 41.97 91.88
0.8 -43.03 -9.17 -31.04 -70.01 -56.08 -57.14 -48.15 -34.04 -27.16 -38.09 -35.09 6.878 19.93 -18.16 49.91 87.83
0.805 -59.08 -19.05 -35.09 -80.07 -66.13 -63.14 -50.09 -28.04 -29.1 -51.14 -43.03 11.99 26.98 -36.15 47.97 74.95
0.81 -73.01 -35.09 -43.03 -91.18 -77.07 -67.02 -51.14 -25.04 -29.1 -61.02 -49.03 9.876 31.92 -43.03 39.86 51.85
0.815 -83.06 -49.03 -55.02 -100.2 -86.06 -71.07 -52.02 -23.1 -32.1 -63.14 -51.14 3.88 25.92 -31.04 28.92 29.98
0.82 -85 -55.02 -59.08 -102.1 -92.06 -77.07 -54.14 -31.04 -43.03 -62.08 -46.03 -2.116 7.936 -19.05 16.93 2.998
0.825 -81.12 -49.03 -55.02 -101.1 -93.12 -77.07 -57.14 -47.09 -61.02 -61.02 -43.03 -27.16 -21.16 -15.17 3.88 -23.1
0.83 -69.13 -35.09 -44.09 -93.12 -85 -73.01 -53.08 -64.02 -81.12 -61.02 -36.15 -55.02 -56.08 -25.04 -8.112 -54.14
0.835 -56.08 -25.04 -30.16 -85 -77.07 -60.14 -51.14 -73.01 -93.12 -62.08 -32.1 -78.13 -90.12 -46.03 -24.16 -80.07
0.84 -43.03 -17.11 -19.05 -73.01 -63.14 -47.09 -41.09 -77.07 -97.17 -65.08 -29.1 -89.06 -109.2 -61.02 -39.15 -95.06
0.845 -32.1 -7.054 -7.054 -56.08 -50.09 -28.04 -27.16 -71.07 -86.06 -58.02 -21.16 -90.12 -109.2 -60.14 -48.15 -100.2
0.85 -23.1 -1.058 -1.058 -37.03 -36.15 -17.11 -12.17 -55.02 -71.07 -47.09 -11.11 -86.06 -107 -46.03 -54.14 -96.11
0.855 -12.17 0.8818 -2.116 -19.05 -24.16 -6.172 -4.056 -43.03 -60.14 -35.09 -4.056 -84.12 -101.1 -30.16 -64.02 -90.12
0.86 -3.174 8.994 1.94 -5.114 -12.17 -5.114 -4.056 -43.03 -53.08 -23.1 -5.114 -88 -105.1 -24.16 -76.01 -90.12
0.865 -1.058 6.878 0.8818 -4.056 -6.172 -2.116 -13.05 -49.03 -54.14 -24.16 -13.05 -100.2 -109.2 -32.1 -90.12 -90.12
0.87 -2.116 4.938 -13.05 -9.17 -1.058 -1.058 -25.04 -59.08 -59.08 -25.04 -27.16 -111.1 -117.1 -41.09 -99.11 -83.06
0.875 -1.058 -1.058 -24.16 -17.11 0.8818 2.998 -37.03 -63.14 -55.02 -26.1 -38.09 -108.1 -106.2 -40.03 -88 -62.08
0.88 0.8818 -11.11 -32.1 -21.16 1.94 7.936 -35.09 -64.02 -39.15 -19.05 -44.09 -89.06 -82.01 -27.16 -62.08 -22.04
0.885 0.8818 -21.16 -35.09 -25.04 -3.174 11.99 -33.15 -51.14 -23.1 -9.17 -41.09 -61.02 -49.03 -9.17 -29.1 19.93
0.89 -1.058 -25.04 -35.09 -24.16 -8.112 7.936 -26.1 -33.15 -7.054 0 -34.04 -28.04 -13.05 0 0 64.9
0.895 -7.054 -29.1 -33.15 -28.04 -18.16 -1.058 -22.04 -23.1 -2.116 -3.174 -31.04 -7.054 3.88 3.88 8.994 91.88
0.9 -17.11 -35.09 -33.15 -39.15 -35.09 -17.11 -25.04 -29.1 -13.05 -15.17 -29.1 -3.174 5.996 -2.116 5.996 97.88
0.905 -35.09 -39.15 -35.09 -50.09 -48.15 -29.1 -30.16 -38.09 -29.1 -25.04 -25.04 -5.114 0.8818 0 3.88 92.94
0.91 -45.15 -45.15 -33.15 -60.14 -56.08 -35.09 -28.04 -44.09 -43.03 -28.04 -17.11 -8.112 -1.058 0 3.88 81.83
0.915 -51.14 -49.03 -25.04 -59.08 -55.02 -27.16 -19.05 -39.15 -41.09 -23.1 -5.114 -1.058 1.94 0 13.93 73.89
0.92 -47.09 -43.03 -13.05 -47.09 -45.15 -17.11 -1.058 -20.1 -22.04 -8.112 0 12.87 21.87 4.938 29.98 69.84
0.925 -39.15 -37.03 -1.058 -29.1 -33.15 -9.17 11.99 1.94 1.94 0.8818 7.936 30.86 40.91 4.938 41.97 52.91
0.93 -33.15 -31.04 1.94 -19.05 -23.1 -5.114 17.99 11.99 13.93 -2.116 11.99 35.98 43.91 0.8818 39.86 23.98
0.935 -33.15 -27.16 -2.116 -15.17 -17.11 -5.114 15.87 11.99 14.99 -8.112 13.93 22.93 32.98 -8.112 25.92 -4.056
0.94 -35.09 -23.1 -3.174 -19.05 -15.17 -5.114 9.876 -2.116 -1.058 -23.1 13.93 -1.058 2.998 -13.05 0.8818 -42.15
0.945 -37.03 -19.05 -7.054 -23.1 -13.05 -5.114 1.94 -19.05 -17.11 -33.15 13.93 -29.1 -27.16 -13.05 -39.15 -69.13
0.95 -35.09 -7.054 -5.114 -21.16 -11.11 -3.174 0 -35.09 -35.09 -35.09 9.876 -57.14 -58.02 -15.17 -85 -84.12
0.955 -27.16 -1.058 0.8818 -13.05 -9.17 -1.058 0 -45.15 -45.15 -33.15 0 -81.12 -87.12 -21.16 -127.2 -93.12
0.96 -23.1 8.994 3.88 -1.058 -11.11 -3.174 0 -47.09 -51.14 -35.09 -9.17 -101.1 -107 -31.04 -157.1 -97.17
0.965 -21.16 10.93 7.936 1.94 -15.17 -5.114 -2.116 -47.09 -57.14 -39.15 -25.04 -119 -123.1 -39.15 -169.1 -97.17
0.97 -25.04 6.878 3.88 3.88 -21.16 -5.114 -5.114 -49.03 -63.14 -45.15 -35.09 -131 -133.1 -43.03 -157.1 -95.06
0.975 -27.16 0.8818 0.8818 1.94 -21.16 -3.174 -15.17 -53.08 -65.08 -43.03 -41.09 -135.1 -129.1 -37.03 -129.1 -83.06
0.98 -27.16 -1.058 -7.054 0.8818 -15.17 -2.116 -27.16 -55.02 -59.08 -31.04 -41.09 -123.1 -111.1 -27.16 -95.06 -63.14
0.985 -23.1 -3.174 -15.17 -3.174 -7.054 5.996 -35.09 -55.02 -45.15 -13.05 -39.15 -97.17 -81.12 -19.05 -61.02 -41.09
0.99 -15.17 -3.174 -19.05 -7.054 -1.058 11.99 -39.15 -47.09 -27.16 -2.116 -35.09 -61.02 -45.15 -11.11 -31.04 -17.11
0.995 -11.11 -3.174 -19.05 -9.17 -3.174 15.87 -37.03 -33.15 -9.17 7.936 -27.16 -23.1 -11.11 -1.058 0.8818 -2.116
1 -7.054 -5.114 -15.17 -9.17 -7.054 17.99 -29.1 -13.05 -2.116 9.876 -17.11 9.876 13.93 3.88 31.92 16.93
1.005 -5.114 -5.114 -11.11 -11.11 -13.05 15.87 -15.17 0 3.88 5.996 -1.058 41.97 35.98 11.99 73.89 30.86
1.01 -5.114 -9.17 -5.114 -11.11 -17.11 9.876 -1.058 15.87 7.936 -2.116 11.99 63.84 47.97 15.87 107.9 39.86
1.015 -7.054 -9.17 -5.114 -15.17 -19.05 0 1.94 21.87 7.936 -5.114 23.98 73.89 49.91 12.87 125.9 44.97
1.02 -15.17 -15.17 -7.054 -21.16 -23.1 -3.174 1.94 17.99 5.996 -13.05 31.92 71.95 45.85 -1.058 118.9 42.85
1.025 -25.04 -25.04 -11.11 -31.04 -27.16 -7.054 0.8818 7.936 1.94 -15.17 31.92 61.9 41.97 -7.054 95.94 37.92
1.03 -33.15 -29.1 -13.05 -41.09 -33.15 -4.056 -3.174 0 0 -11.11 28.92 49.91 41.97 -6.172 70.89 35.98
1.035 -33.15 -29.1 -9.17 -45.15 -33.15 1.94 0.8818 0.8818 1.94 0 28.92 43.91 47.97 0 56.96 33.86
1.04 -19.05 -23.1 0.8818 -37.03 -23.1 5.996 3.88 -2.116 11.99 9.876 29.98 39.86 55.9 7.936 51.85 27.86
1.045 -1.058 -5.114 5.996 -17.11 -7.054 14.99 15.87 5.996 26.98 22.93 30.86 31.92 58.9 21.87 46.91 24.87
1.05 26.98 8.994 15.87 1.94 9.876 22.93 21.87 9.876 36.86 28.92 28.92 16.93 48.85 27.86 26.98 10.93
1.055 43.91 24.87 23.98 23.98 29.98 33.86 17.99 7.936 37.92 29.98 17.99 -5.114 23.98 25.92 -11.11 -3.174
1.06 48.85 36.86 25.92 37.92 43.91 45.85 10.93 0 32.98 28.92 4.938 -38.09 1.94 20.99 -59.08 -21.16
1.065 42.85 38.97 25.92 41.97 49.91 55.9 1.94 -4.056 22.93 22.93 -5.114 -64.02 -26.1 16.93 -103.2 -32.1
1.07 27.86 36.86 23.98 39.86 47.97 57.84 -11.11 -17.11 11.99 17.99 -21.16 -85 -45.15 11.99 -121.2 -37.03
1.075 13.93 32.98 15.87 31.92 42.85 52.91 -16.05 -24.16 3.88 11.99 -26.1 -88 -49.03 12.87 -111.1 -29.1
1.08 -1.058 22.93 11.99 24.87 28.92 39.86 -16.05 -30.16 -1.058 6.878 -24.16 -79.01 -49.03 13.93 -86.06 -17.11
1.085 -17.11 16.93 5.996 13.93 9.876 25.92 -15.17 -33.15 -9.17 0 -15.17 -65.08 -43.03 13.93 -57.14 -2.116
1.09 -29.1 8.994 2.998 12.87 1.94 16.93 -12.17 -29.1 -11.11 0.8818 0 -42.15 -28.04 15.87 -25.04 22.93
1.095 -36.15 4.938 0 11.99 -7.054 7.936 -7.054 -18.16 -11.11 -3.174 9.876 -16.05 -8.112 14.99 0 49.91
1.1 -38.09 4.938 0.8818 12.87 -11.11 1.94 -6.172 -1.058 1.94 -7.054 20.99 9.876 10.93 3.88 24.87 76.89
1.105 -34.04 4.938 0.8818 15.87 -7.054 -2.116 -3.174 8.994 11.99 -3.174 25.92 40.91 38.97 1.94 58.9 94
1.11 -27.16 4.938 1.94 14.99 -3.174 -4.056 1.94 23.98 23.98 -5.114 28.92 68.96 58.9 -3.174 95.94 103
1.115 -23.1 -1.058 -2.116 9.876 -7.054 -13.05 5.996 33.86 31.92 -7.054 31.92 85.89 71.95 -2.116 115.9 99.99
1.12 -21.16 -3.174 -2.116 4.938 -14.11 -15.17 14.99 42.85 33.86 -6.172 32.98 99.99 75.83 11.99 121 91.88
1.125 -23.1 -9.17 0 0.8818 -22.04 -12.17 20.99 48.85 27.86 -7.054 36.86 104.9 75.83 20.99 109.9 83.95
1.13 -27.16 -11.11 1.94 -3.174 -31.04 -11.11 23.98 51.85 21.87 -9.17 35.98 97.88 65.96 15.87 87.83 67.9
1.135 -28.04 -7.054 3.88 -7.054 -33.15 -11.11 26.98 48.85 14.99 -8.112 37.92 84.83 52.91 2.998 69.84 48.85
1.14 -30.16 2.998 3.88 -7.054 -33.15 -13.05 24.87 37.92 4.938 -8.112 34.92 62.96 34.92 -10.05 61.9 21.87
1.145 -27.16 4.938 3.88 -7.054 -31.04 -17.11 17.99 19.93 -1.058 -11.11 27.86 31.92 5.996 -23.1 43.91 -11.11
1.15 -26.1 10.93 1.94 -5.114 -31.04 -20.1 9.876 0 -14.11 -14.11 18.87 0.8818 -18.16 -25.04 20.99 -50.09
1.155 -24.16 16.93 0.8818 -5.114 -31.04 -22.04 -2.116 -17.11 -32.1 -18.16 6.878 -29.1 -50.09 -27.16 -12.17 -86.06
1.16 -23.1 16.93 -7.054 -13.05 -33.15 -21.16 -11.11 -41.09 -49.03 -29.1 -3.174 -57.14 -81.12 -31.04 -55.02 -109.2
1.165 -25.04 14.99 -13.05 -21.16 -39.15 -22.04 -23.1 -61.02 -65.08 -42.15 -16.05 -83.06 -109.2 -44.09 -88 -113
1.17 -29.1 6.878 -19.05 -35.09 -45.15 -26.1 -33.15 -77.07 -81.12 -57.14 -26.1 -107 -129.1 -58.02 -106.2 -105.1
1.175 -31.04 -1.058 -23.1 -45.15 -47.09 -31.04 -39.15 -87.12 -93.12 -65.08 -29.1 -123.1 -137 -67.02 -109.2 -87.12
1.18 -33.15 -1.058 -23.1 -47.09 -47.09 -31.04 -41.09 -89.06 -97.17 -63.14 -27.16 -131 -133.1 -62.08 -104 -56.08
1.185 -29.1 -1.058 -19.05 -39.15 -39.15 -23.1 -43.03 -85 -89.06 -51.14 -25.04 -127.2 -115.2 -46.03 -101.1 -24.16
1.19 -17.11 2.998 -11.11 -23.1 -21.16 -7.054 -45.15 -73.01 -73.01 -33.15 -23.1 -109.2 -83.06 -25.04 -95.06 0
1.195 -2.116 14.99 -1.058 0.8818 -2.116 7.936 -43.03 -53.08 -45.15 -9.17 -25.04 -81.12 -45.15 -3.174 -79.01 26.98
1.2 19.93 32.98 5.996 17.99 23.98 23.98 -37.03 -29.1 -15.17 9.876 -23.1 -41.09 -3.174 9.876 -51.14 48.85
1.205 37.92 44.97 13.93 35.98 43.91 31.92 -27.16 -1.058 11.99 27.86 -19.05 0.8818 31.92 25.92 -13.05 65.96
1.21 45.85 52.91 19.93 45.85 57.84 31.92 -15.17 19.93 37.92 39.86 -11.11 33.86 65.96 37.92 19.93 79.89
1.215 43.91 52.91 19.93 49.91 59.96 27.86 -3.174 39.86 57.84 45.85 -1.058 59.96 87.83 45.85 47.97 85.89
1.22 33.86 46.91 17.99 47.97 53.96 21.87 0 47.97 67.9 47.97 3.88 73.89 101.9 47.97 61.9 87.83
1.225 25.92 38.97 17.99 45.85 45.85 19.93 3.88 49.91 71.95 45.85 11.99 75.83 106 41.97 67.9 85.89
1.23 25.92 28.92 19.93 41.97 39.86 21.87 7.936 45.85 69.84 41.97 15.87 75.83 106 35.98 75.83 75.83
1.235 31.92 22.93 23.98 39.86 35.98 25.92 13.93 45.85 65.96 37.92 19.93 75.83 103.9 29.98 81.83 59.96
1.24 43.91 16.93 27.86 39.86 35.98 27.86 19.93 51.85 61.9 35.98 25.92 77.95 95.94 25.92 83.95 39.86
1.245 53.96 14.99 27.86 39.86 35.98 29.98 23.98 55.9 58.9 33.86 27.86 73.89 80.95 21.87 71.95 17.99
1.25 57.84 12.87 19.93 35.98 31.92 29.98 17.99 54.85 50.97 27.86 25.92 59.96 56.96 11.99 43.91 1.94
1.255 55.9 12.87 5.996 27.86 23.98 29.98 5.996 39.86 33.86 17.99 17.99 29.98 19.93 0 7.936 -21.16
1.26 49.91 10.93 -3.174 15.87 14.99 27.86 -5.114 14.99 12.87 6.878 3.88 1.94 -12.17 -10.05 -25.04 -42.15
1.265 41.97 8.994 -15.17 1.94 0.8818 24.87 -18.16 -8.112 -6.172 -2.116 -3.174 -30.16 -48.15 -20.1 -47.09 -56.08
1.27 33.86 6.878 -23.1 -5.114 -9.17 13.93 -25.04 -31.04 -27.16 -13.05 -11.11 -49.03 -77.07 -23.1 -51.14 -63.14
1.275 23.98 4.938 -25.04 -15.17 -22.04 0.8818 -24.16 -42.15 -43.03 -24.16 -13.05 -56.08 -89.06 -18.16 -47.09 -58.02
1.28 9.876 -1.058 -29.1 -25.04 -38.09 -8.112 -22.04 -45.15 -53.08 -32.1 -9.17 -58.02 -93.12 -16.05 -41.09 -47.09
1.285 -1.058 -15.17 -35.09 -33.15 -53.08 -23.1 -27.16 -47.09 -57.14 -43.03 -7.054 -57.14 -87.12 -17.11 -45.15 -33.15
1.29 -12.17 -33.15 -41.09 -43.03 -56.08 -26.1 -32.1 -49.03 -57.14 -47.09 -7.054 -57.14 -76.01 -23.1 -51.14 -19.05
1.295 -22.04 -51.14 -45.15 -45.15 -53.08 -23.1 -41.09 -48.15 -57.14 -47.09 -8.112 -53.08 -61.02 -29.1 -57.14 -12.17
1.3 -25.04 -63.14 -45.15 -39.15 -43.03 -21.16 -45.15 -45.15 -47.09 -39.15 -13.05 -41.09 -45.15 -33.15 -49.03 -9.17
1.305 -16.05 -57.14 -32.1 -25.04 -23.1 -9.17 -35.09 -25.04 -27.16 -26.1 -14.11 -18.16 -22.04 -26.1 -31.04 -5.114
1.31 -2.116 -41.09 -14.11 -1.058 -4.056 0 -14.11 0.8818 -8.112 -15.17 -12.17 9.876 -2.116 -14.11 -3.174 -2.116
1.315 9.876 -19.05 3.88 21.87 11.99 5.996 5.996 29.98 9.876 -1.058 -7.054 41.97 25.92 -3.174 15.87 3.88
1.32 31.92 -1.058 26.98 47.97 27.86 15.87 29.98 62.96 33.86 9.876 -2.116 71.95 54.85 4.938 27.86 26.98
1.325 42.85 2.998 40.91 66.84 45.85 24.87 44.97 86.94 56.96 25.92 0 95.94 85.89 13.93 33.86 50.97
1.33 49.91 4.938 47.97 73.89 53.96 31.92 49.91 101.9 77.95 45.85 3.88 103.9 112 25.92 37.92 73.89
1.335 52.91 6.878 50.97 78.83 62.96 40.91 50.97 112 97.88 62.96 9.876 113.9 136 38.97 47.97 87.83
1.34 52.91 8.994 48.85 73.89 66.84 51.85 50.97 112 113.9 79.89 15.87 109.9 151 50.97 61.9 92.94
1.345 54.85 14.99 46.91 66.84 73.89 60.84 53.96 106.9 125.9 84.83 20.99 106.9 151.8 54.85 73.89 82.89
1.35 64.9 16.93 42.85 57.84 76.89 67.9 52.91 99.99 124 83.95 27.86 99.99 140.9 52.91 75.83 60.84
1.355 72.83 18.87 38.97 54.85 80.95 70.89 52.91 89.94 115.9 76.89 29.98 85.89 118 44.97 59.96 35.98
1.36 77.95 18.87 31.92 51.85 81.83 69.84 45.85 71.95 99.99 67.9 19.93 65.96 94 33.86 31.92 15.87
1.365 82.89 18.87 26.98 50.97 81.83 66.84 34.92 60.84 86.94 59.96 7.936 45.85 75.83 23.98 0 6.878
1.37 81.83 14.99 20.99 45.85 77.95 59.96 19.93 44.97 75.83 51.85 -4.056 23.98 60.84 22.93 -19.05 4.938
1.375 71.95 10.93 15.87 39.86 67.9 53.96 3.88 31.92 67.9 47.97 -21.16 1.94 49.91 19.93 -35.09 7.936
1.38 64.9 8.994 16.93 29.98 60.84 46.91 -1.058 21.87 62.96 37.92 -24.16 -7.054 41.97 18.87 -47.09 12.87
1.385 58.9 4.938 16.93 21.87 47.97 35.98 0.8818 17.99 55.9 28.92 -24.16 -18.16 32.98 10.93 -61.02 9.876
1.39 49.91 0.8818 15.87 13.93 33.86 21.87 -2.116 9.876 37.92 13.93 -17.11 -29.1 21.87 -2.116 -77.07 -2.116
1.395 38.97 -7.054 15.87 9.876 19.93 5.996 1.94 8.994 21.87 0 -10.05 -33.15 11.99 -5.114 -91.18 -2.116
1.4 24.87 -21.16 9.876 5.996 4.938 -8.112 -1.058 9.876 9.876 -11.11 -1.058 -29.1 2.998 -11.11 -93.12 -3.174
1.405 3.88 -37.03 -2.116 0 -7.054 -23.1 -3.174 13.93 0 -21.16 -2.116 -17.11 0 -13.05 -75.13 0
1.41 -11.11 -47.09 -9.17 -5.114 -22.04 -32.1 -6.172 19.93 1.94 -30.16 1.94 -1.058 3.88 -8.112 -41.09 17.99
1.415 -25.04 -49.03 -21.16 -19.05 -36.15 -44.09 -10.05 24.87 -1.058 -32.1 5.996 22.93 11.99 -4.056 0.8818 34.92
1.42 -33.15 -49.03 -29.1 -35.09 -49.03 -53.08 -11.11 25.92 -7.054 -35.09 9.876 41.97 15.87 -7.054 33.86 47.97
1.425 -39.15 -41.09 -35.09 -47.09 -60.14 -62.08 -8.112 18.87 -14.11 -38.09 11.99 46.91 12.87 -12.17 59.96 56.96
1.43 -45.15 -37.03 -37.03 -57.14 -72.13 -67.02 -15.17 2.998 -24.16 -44.09 9.876 38.97 0.8818 -14.11 75.83 60.84
1.435 -53.08 -39.15 -43.03 -63.14 -81.12 -69.13 -25.04 -15.17 -43.03 -55.02 7.936 17.99 -19.05 -17.11 79.89 49.91
1.44 -61.02 -41.09 -49.03 -69.13 -83.06 -65.08 -39.15 -34.04 -58.02 -65.08 5.996 0.8818 -46.03 -17.11 79.89 36.86
1.445 -65.08 -45.15 -57.14 -73.01 -83.06 -61.02 -49.03 -49.03 -74.07 -73.01 3.88 -19.05 -74.07 -21.16 69.84 13.93
1.45 -63.14 -49.03 -63.14 -77.07 -79.01 -57.14 -55.02 -59.08 -91.18 -77.07 1.94 -35.09 -97.17 -27.16 53.96 -7.054
1.455 -55.02 -49.03 -61.02 -79.01 -77.07 -59.08 -55.02 -63.14 -103.2 -81.12 0 -47.09 -115.2 -39.15 31.92 -31.04
1.46 -43.03 -45.15 -55.02 -75.13 -75.13 -59.08 -51.14 -67.02 -111.1 -81.12 0.8818 -57.14 -127.2 -51.14 9.876 -51.14
1.465 -35.09 -39.15 -45.15 -67.02 -71.07 -55.02 -47.09 -69.13 -113 -77.07 -5.114 -67.02 -131 -55.02 -5.114 -65.08
1.47 -27.16 -33.15 -35.09 -57.14 -63.14 -45.15 -45.15 -71.07 -105.1 -69.13 -9.17 -77.07 -131 -53.08 -21.16 -69.13
1.475 -23.1 -25.04 -25.04 -45.15 -51.14 -29.1 -45.15 -69.13 -91.18 -53.08 -13.05 -83.06 -119 -43.03 -35.09 -63.14
1.48 -15.17 -19.05 -17.11 -31.04 -33.15 -13.05 -39.15 -63.14 -69.13 -31.04 -15.17 -85 -97.17 -29.1 -51.14 -49.03
1.485 -5.114 -11.11 -5.114 -17.11 -15.17 0.8818 -31.04 -51.14 -45.15 -9.17 -15.17 -83.06 -67.02 -11.11 -65.08 -31.04
1.49 3.88 -3.174 1.94 -5.114 -2.116 7.936 -17.11 -37.03 -23.1 5.996 -11.11 -73.01 -35.09 1.94 -71.07 -11.11
1.495 15.87 -1.058 13.93 3.88 11.99 15.87 -3.174 -21.16 -5.114 21.87 -7.054 -57.14 -5.114 19.93 -69.13 1.94
1.5 23.98 2.998 19.93 9.876 19.93 19.93 0 -3.174 3.88 27.86 -5.114 -39.15 15.87 35.98 -55.02 15.87
1.505 21.87 0.8818 13.93 11.99 23.98 19.93 0 7.936 17.99 29.98 -5.114 -21.16 33.86 41.97 -39.15 27.86
1.51 11.99 -3.174 0 3.88 21.87 11.99 -1.058 15.87 29.98 27.86 -7.054 -7.054 45.85 38.97 -25.04 36.86
1.515 0.8818 -13.05 -11.11 -3.174 15.87 0 -9.17 17.99 37.92 21.87 -7.054 0 53.96 29.98 -11.11 41.97
1.52 -17.11 -21.16 -27.16 -17.11 3.88 -10.05 -16.05 13.93 41.97 16.93 -1.058 8.994 58.9 20.99 0.8818 46.91
1.525 -29.1 -25.04 -33.15 -25.04 -2.116 -24.16 -20.1 8.994 33.86 8.994 0 16.93 54.85 14.99 7.936 44.97
1.53 -37.03 -29.1 -35.09 -27.16 -15.17 -33.15 -21.16 1.94 19.93 0 3.88 23.98 43.91 11.99 21.87 35.98
1.535 -38.09 -27.16 -33.15 -25.04 -24.16 -34.04 -18.16 0.8818 -2.116 -6.172 5.996 28.92 24.87 8.994 31.92 24.87
1.54 -40.03 -29.1 -31.04 -27.16 -34.04 -38.09 -18.16 0 -17.11 -18.16 0.8818 24.87 -1.058 0 33.86 -1.058
1.545 -49.03 -39.15 -35.09 -31.04 -45.15 -45.15 -25.04 -9.17 -35.09 -31.04 -1.058 9.876 -27.16 -17.11 23.98 -29.1
1.55 -60.14 -43.03 -41.09 -39.15 -54.14 -50.09 -32.1 -28.04 -48.15 -45.15 -6.172 -3.174 -53.08 -43.03 7.936 -65.08
1.555 -68.07 -49.03 -45.15 -46.03 -63.14 -55.02 -43.03 -45.15 -58.02 -55.02 -10.05 -25.04 -81.12 -62.08 -1.058 -95.06
1.56 -71.07 -49.03 -47.09 -53.08 -71.07 -53.08 -51.14 -59.08 -65.08 -59.08 -11.11 -41.09 -93.12 -69.13 0.8818 -115.2
1.565 -61.02 -41.09 -45.15 -54.14 -69.13 -43.03 -53.08 -61.02 -66.13 -52.02 -12.17 -44.09 -92.06 -59.08 0 -115.2
1.57 -47.09 -37.03 -43.03 -52.02 -58.02 -32.1 -52.02 -54.14 -64.02 -43.03 -13.05 -43.03 -85 -40.03 -8.112 -102.1
1.575 -33.15 -35.09 -41.09 -51.14 -47.09 -19.05 -47.09 -47.09 -59.08 -33.15 -19.05 -37.03 -69.13 -23.1 -29.1 -77.07
1.58 -20.1 -33.15 -33.15 -43.03 -33.15 -8.112 -42.15 -39.15 -51.14 -22.04 -17.11 -35.09 -55.02 -9.17 -53.08 -43.03
1.585 -17.11 -29.1 -20.1 -34.04 -26.1 0 -34.04 -39.15 -40.03 -17.11 -17.11 -36.15 -42.15 -6.172 -75.13 -17.11
1.59 -17.11 -21.16 -6.172 -23.1 -19.05 1.94 -25.04 -36.15 -29.1 -15.17 -12.17 -40.03 -32.1 -5.114 -78.13 0.8818
1.595 -13.05 -5.114 6.878 -14.11 -18.16 1.94 -16.05 -33.15 -22.04 -11.11 -9.17 -42.15 -24.16 -12.17 -69.13 9.876
1.6 -6.172 4.938 13.93 -5.114 -15.17 1.94 -6.172 -19.05 -17.11 -8.112 -5.114 -39.15 -15.17 -13.05 -51.14 15.87
1.605 -2.116 16.93 17.99 0.8818 -11.11 0.8818 -3.174 -5.114 -15.17 -9.17 -7.054 -31.04 -7.054 -11.11 -33.15 21.87
1.61 9.876 20.99 15.87 -1.058 -6.172 2.998 0 6.878 -12.17 -7.054 -3.174 -17.11 0.8818 -6.172 -22.04 34.92
1.615 21.87 16.93 11.99 0.8818 0.8818 7.936 0.8818 17.99 -10.05 -4.056 -4.056 -1.058 8.994 1.94 -12.17 53.96
1.62 27.86 14.99 11.99 7.936 5.996 19.93 1.94 25.92 0.8818 -2.116 -1.058 19.93 21.87 3.88 0.8818 69.84
1.625 34.92 18.87 19.93 20.99 23.98 29.98 11.99 39.86 16.93 11.99 1.94 39.86 41.97 12.87 20.99 81.83
1.63 42.85 30.86 27.86 37.92 38.97 32.98 18.87 50.97 38.97 27.86 -1.058 53.96 61.9 21.87 45.85 81.83
1.635 47.97 40.91 33.86 51.85 55.9 33.86 19.93 55.9 55.9 39.86 -1.058 55.9 65.96 27.86 53.96 69.84
1.64 54.85 48.85 33.86 57.84 66.84 38.97 14.99 56.96 63.84 48.85 -4.056 44.97 58.9 33.86 47.97 46.91
1.645 56.96 50.97 27.86 53.96 70.89 42.85 6.878 46.91 55.9 46.91 -9.17 22.93 34.92 32.98 27.86 12.87
1.65 55.9 50.97 23.98 47.97 67.9 47.97 0 31.92 39.86 37.92 -5.114 3.88 1.94 23.98 11.99 -15.17
1.655 57.84 46.91 23.98 39.86 62.96 48.85 4.938 20.99 21.87 26.98 -2.116 1.94 -22.04 6.878 9.876 -44.09
1.66 53.96 46.91 31.92 41.97 55.9 40.91 16.93 15.87 7.936 12.87 11.99 0.8818 -42.15 -10.05 21.87 -68.07
1.665 43.91 46.91 43.91 45.85 49.91 21.87 33.86 23.98 1.94 -2.116 23.98 11.99 -49.03 -35.09 33.86 -85
1.67 31.92 48.85 53.96 53.96 43.91 3.88 45.85 37.92 0 -11.11 27.86 25.92 -47.09 -52.02 27.86 -96.11
1.675 21.87 48.85 57.84 57.84 39.86 -3.174 49.91 49.91 1.94 -21.16 25.92 33.86 -39.15 -53.08 0 -99.11
1.68 13.93 44.97 51.85 57.84 33.86 -3.174 47.97 57.84 5.996 -21.16 19.93 35.98 -27.16 -37.03 -25.04 -87.12
1.685 13.93 44.97 41.97 51.85 29.98 0 45.85 61.9 11.99 -15.17 17.99 39.86 -9.17 -15.17 -39.15 -59.08
1.69 21.87 42.85 35.98 41.97 25.92 7.936 45.85 61.9 17.99 -1.058 21.87 45.85 7.936 0 -27.16 -17.11
1.695 29.98 46.91 33.86 35.98 23.98 9.876 49.91 61.9 27.86 5.996 29.98 59.96 33.86 7.936 -2.116 23.98
1.7 33.86 48.85 35.98 31.92 23.98 9.876 53.96 61.9 31.92 13.93 39.86 69.84 51.85 5.996 27.86 61.9
1.705 31.92 50.97 35.98 25.92 21.87 5.996 53.96 55.9 33.86 13.93 43.91 69.84 61.9 3.88 39.86 83.95
1.71 21.87 46.91 31.92 21.87 17.99 7.936 45.85 45.85 29.98 11.99 39.86 59.96 61.9 5.996 35.98 89.94
1.715 13.93 40.91 21.87 13.93 15.87 11.99 35.98 29.98 23.98 9.876 29.98 43.91 55.9 11.99 27.86 85.89
1.72 9.876 32.98 7.936 9.876 13.93 17.99 23.98 15.87 21.87 13.93 17.99 27.86 49.91 19.93 25.92 81.83
1.725 11.99 30.86 -2.116 7.936 15.87 23.98 15.87 7.936 23.98 19.93 9.876 19.93 47.97 21.87 37.92 77.95
1.73 15.87 34.92 0.8818 7.936 19.93 23.98 9.876 5.996 27.86 25.92 7.936 19.93 49.91 17.99 55.9 73.89
1.735 19.93 44.97 0 13.93 27.86 21.87 5.996 7.936 33.86 27.86 9.876 21.87 49.91 9.876 67.9 57.84
1.74 19.93 54.85 7.936 21.87 37.92 21.87 5.996 13.93 35.98 27.86 9.876 21.87 43.91 5.996 65.96 25.92
1.745 19.93 62.96 17.99 29.98 47.97 21.87 5.996 19.93 37.92 27.86 7.936 17.99 29.98 5.996 47.97 -13.05
1.75 21.87 70.89 25.92 37.92 53.96 23.98 7.936 21.87 37.92 27.86 1.94 9.876 13.93 8.994 24.87 -63.14
1.755 29.98 74.95 31.92 43.91 53.96 23.98 13.93 23.98 37.92 26.98 0.8818 3.88 -2.116 6.878 4.938 -100.2
1.76 37.92 72.83 35.98 47.97 49.91 17.99 17.99 21.87 33.86 19.93 -1.058 0 -11.11 -2.116 -9.17 -119
1.765 41.97 68.96 37.92 47.97 39.86 9.876 19.93 19.93 28.92 12.87 0.8818 -2.116 -19.05 -8.112 -20.1 -112.2
1.77 41.97 60.84 39.86 44.97 31.92 4.938 17.99 13.93 16.93 4.938 -2.116 0.8818 -24.16 -14.11 -28.04 -90.12
1.775 33.86 50.97 37.92 33.86 27.86 0 13.93 5.996 3.88 0 0 -3.174 -27.16 -9.17 -33.15 -57.14
1.78 23.98 38.97 31.92 26.98 26.98 1.94 5.996 -2.116 1.94 2.998 -2.116 -9.17 -24.16 3.88 -33.15 -20.1
1.785 13.93 26.98 21.87 18.87 22.93 -2.116 -2.116 -5.114 -1.058 6.878 -1.058 -14.11 -20.1 17.99 -29.1 4.938
1.79 9.876 18.87 11.99 11.99 11.99 -9.17 -5.114 -9.17 3.88 7.936 -7.054 -21.16 -15.17 23.98 -23.1 29.98
1.795 5.996 16.93 5.996 6.878 0.8818 -12.17 -6.172 -13.05 11.99 5.996 -4.056 -20.1 -6.172 21.87 -20.1 45.85
1.8 0 16.93 3.88 2.998 -4.056 -18.16 0 -7.054 13.93 0 0.8818 -12.17 0 14.99 -19.05 53.96
1.805 -5.114 18.87 7.936 -2.116 -11.11 -21.16 1.94 -2.116 7.936 -1.058 11.99 -2.116 1.94 5.996 -17.11 55.9
1.81 -17.11 16.93 11.99 -2.116 -9.17 -25.04 12.87 9.876 4.938 0.8818 22.93 16.93 5.996 1.94 -5.114 49.91
1.815 -25.04 10.93 12.87 -1.058 -10.05 -28.04 16.93 19.93 1.94 -2.116 28.92 31.92 8.994 5.996 4.938 36.86
1.82 -29.1 -1.058 11.99 0.8818 -15.17 -33.15 13.93 19.93 -3.174 -9.17 27.86 39.86 3.88 0 19.93 17.99
1.825 -26.1 -5.114 4.938 -1.058 -22.04 -35.09 12.87 18.87 0 -16.05 28.92 41.97 0 0.8818 34.92 5.996
1.83 -22.04 -15.17 0 -9.17 -24.16 -33.15 7.936 15.87 -2.116 -20.1 28.92 37.92 -1.058 -5.114 45.85 -3.174
1.835 -16.05 -15.17 1.94 -8.112 -18.16 -27.16 4.938 15.87 -1.058 -20.1 25.92 32.98 -5.114 -10.05 51.85 -13.05
1.84 -14.11 -13.05 0.8818 -5.114 -8.112 -11.11 7.936 17.99 0.8818 -8.112 20.99 29.98 1.94 -5.114 63.84 -17.11
1.845 -10.05 -3.174 0.8818 0 2.998 0 2.998 18.87 8.994 4.938 8.994 21.87 1.94 1.94 68.96 -17.11
1.85 -7.054 -1.058 -2.116 3.88 13.93 11.99 0.8818 15.87 19.93 19.93 -3.174 11.99 1.94 5.996 59.96 -21.16
1.855 -3.174 6.878 0 6.878 12.87 16.93 -12.17 7.936 27.86 28.92 -16.05 0 1.94 15.87 34.92 -26.1
1.86 0.8818 12.87 -7.054 0.8818 3.88 13.93 -22.04 -3.174 24.87 27.86 -24.16 -12.17 -11.11 13.93 1.94 -27.16
1.865 1.94 12.87 -13.05 -7.054 -5.114 5.996 -27.16 -17.11 13.93 15.87 -25.04 -25.04 -21.16 9.876 -29.1 -31.04
1.87 7.936 14.99 -11.11 -12.17 -8.112 2.998 -22.04 -21.16 1.94 9.876 -18.16 -28.04 -24.16 2.998 -39.15 -29.1
1.875 11.99 14.99 -5.114 -8.112 -2.116 4.938 -14.11 -17.11 -1.058 9.876 -10.05 -24.16 -20.1 0.8818 -32.1 -25.04
1.88 17.99 18.87 0 0.8818 1.94 11.99 -9.17 -7.054 0.8818 15.87 -5.114 -17.11 -11.11 -2.116 -17.11 -19.05
1.885 17.99 22.93 7.936 8.994 14.99 16.93 -5.114 -2.116 8.994 24.87 -1.058 -4.056 0 1.94 -3.174 -14.11
1.89 15.87 28.92 13.93 16.93 16.93 12.87 -3.174 3.88 18.87 26.98 0 1.94 0.8818 6.878 0 -10.05
1.895 13.93 30.86 15.87 19.93 9.876 3.88 0.8818 11.99 21.87 15.87 7.936 13.93 3.88 5.996 -2.116 -5.114
1.9 9.876 34.92 17.99 20.99 -2.116 -2.116 7.936 19.93 18.87 0.8818 19.93 29.98 6.878 0.8818 6.878 1.94
1.905 7.936 40.91 23.98 21.87 -3.174 -9.17 19.93 29.98 6.878 -12.17 33.86 41.97 7.936 -6.172 20.99 2.998
1.91 9.876 48.85 31.92 29.98 -3.174 -9.17 31.92 37.92 0.8818 -23.1 39.86 45.85 7.936 -21.16 31.92 7.936
1.915 13.93 60.84 39.86 37.92 -2.116 -3.174 33.86 41.97 -5.114 -22.04 39.86 41.97 7.936 -30.16 32.98 8.994
1.92 17.99 66.84 39.86 41.97 5.996 -2.116 29.98 35.98 -3.174 -17.11 31.92 29.98 5.996 -30.16 22.93 5.996
1.925 13.93 68.96 27.86 35.98 7.936 -2.116 21.87 19.93 0.8818 -7.054 21.87 9.876 -2.116 -21.16 1.94 5.996
1.93 5.996 64.9 7.936 17.99 1.94 -1.058 7.936 -2.116 -2.116 -3.174 9.876 -3.174 -5.114 -9.17 -7.054 7.936
1.935 -3.174 50.97 -11.11 -1.058 -5.114 -7.054 0.8818 -17.11 -3.174 -5.114 3.88 -19.05 -11.11 -2.116 -3.174 5.996
1.94 -17.11 28.92 -33.15 -25.04 -15.17 -7.054 -11.11 -33.15 -13.05 -11.11 0 -31.04 -17.11 3.88 7.936 0
1.945 -25.04 4.938 -47.09 -39.15 -17.11 -3.174 -21.16 -41.09 -19.05 -13.05 0.8818 -33.15 -19.05 3.88 23.98 -7.054
1.95 -27.16 -11.11 -53.08 -43.03 -11.11 1.94 -29.1 -43.03 -21.16 -11.11 -3.174 -33.15 -21.16 0 29.98 -23.1
1.955 -19.05 -23.1 -53.08 -39.15 -3.174 13.93 -35.09 -41.09 -15.17 -3.174 -11.11 -31.04 -21.16 -3.174 17.99 -39.15
1.96 -9.17 -25.04 -47.09 -33.15 1.94 21.87 -37.03 -41.09 -7.054 0 -17.11 -31.04 -25.04 -9.17 0.8818 -55.02
1.965 0.8818 -17.11 -43.03 -27.16 5.996 25.92 -37.03 -43.03 -1.058 1.94 -23.1 -37.03 -33.15 -11.11 -27.16 -67.02
1.97 1.94 -7.054 -37.03 -25.04 3.88 25.92 -37.03 -49.03 -3.174 1.94 -29.1 -53.08 -45.15 -11.11 -51.14 -75.13
1.975 1.94 0.8818 -33.15 -29.1 -2.116 21.87 -37.03 -57.14 -9.17 0.8818 -35.09 -73.01 -59.08 -9.17 -69.13 -77.07
1.98 -2.116 0.8818 -29.1 -33.15 -7.054 13.93 -37.03 -65.08 -21.16 -3.174 -41.09 -91.18 -69.13 -7.054 -81.12 -73.01
1.985 -5.114 0.8818 -25.04 -37.03 -21.16 7.936 -33.15 -67.02 -33.15 -7.054 -43.03 -101.1 -73.01 -9.17 -84.12 -57.14
1.99 -13.05 -5.114 -19.05 -41.09 -31.04 0 -27.16 -63.14 -39.15 -7.054 -41.09 -95.06 -65.08 -13.05 -79.01 -29.1
1.995 -19.05 -5.114 -13.05 -39.15 -39.15 -2.116 -17.11 -51.14 -39.15 -7.054 -33.15 -75.13 -43.03 -15.17 -60.14 1.94
2 -21.16 -3.174 -11.11 -37.03 -41.09 -1.058 -7.054 -35.09 -31.04 -5.114 -21.16 -45.15 -13.05 -9.17 -32.1 45.85
2.005 -17.11 -1.058 -11.11 -31.04 -37.03 1.94 0.8818 -17.11 -15.17 0.8818 -9.17 -9.17 17.99 1.94 -3.174 87.83
2.01 -10.05 0.8818 -11.11 -29.1 -31.04 8.994 1.94 -1.058 -1.058 3.88 -1.058 16.93 52.91 22.93 21.87 121.9
2.015 -4.056 0.8818 -15.17 -27.16 -25.04 14.99 3.88 2.998 10.93 13.93 -2.116 38.97 76.89 40.91 35.98 142.8
2.02 -1.058 -1.058 -19.05 -31.04 -21.16 15.87 1.94 1.94 17.99 19.93 0 45.85 85.89 47.97 41.97 143.9
2.025 0 -7.054 -27.16 -35.09 -20.1 14.99 -1.058 1.94 16.93 20.99 -2.116 42.85 82.89 42.85 42.85 130.9
2.03 0 -15.17 -35.09 -39.15 -20.1 9.876 -11.11 -10.05 10.93 16.93 0.8818 26.98 68.96 30.86 42.85 106.9
2.035 0.8818 -23.1 -43.03 -39.15 -17.11 1.94 -21.16 -21.16 0 9.876 -1.058 7.936 47.97 15.87 43.91 77.95
2.04 5.996 -23.1 -47.09 -35.09 -8.112 1.94 -27.16 -28.04 0.8818 6.878 -3.174 -1.058 27.86 8.994 43.91 48.85
2.045 13.93 -15.17 -43.03 -23.1 0.8818 6.878 -29.1 -30.16 0.8818 8.994 -3.174 -11.11 7.936 7.936 40.91 20.99
2.05 23.98 -11.11 -37.03 -13.05 9.876 11.99 -27.16 -27.16 -1.058 9.876 -5.114 -17.11 -5.114 3.88 29.98 -3.174
2.055 26.98 -11.11 -27.16 -5.114 13.93 13.93 -25.04 -27.16 -6.172 7.936 -7.054 -26.1 -26.1 0.8818 15.87 -33.15
2.06 25.92 -13.05 -23.1 -4.056 5.996 10.93 -28.04 -30.16 -17.11 1.94 -9.17 -43.03 -57.14 1.94 -3.174 -62.08
2.065 19.93 -19.05 -21.16 -11.11 -1.058 1.94 -33.15 -41.09 -35.09 -11.11 -13.05 -65.08 -87.12 -7.054 -31.04 -87.12
2.07 19.93 -15.17 -18.16 -12.17 -11.11 -1.058 -30.16 -49.03 -49.03 -16.05 -17.11 -82.01 -108.1 -12.17 -54.14 -87.12
2.075 29.98 -5.114 -11.11 -9.17 -3.174 2.998 -23.1 -47.09 -47.09 -8.112 -16.05 -85 -107 -15.17 -68.07 -69.13
2.08 43.91 2.998 -1.058 0.8818 7.936 13.93 -6.172 -27.16 -29.1 2.998 -16.05 -71.07 -81.12 -8.112 -67.02 -27.16
2.085 51.85 14.99 5.996 15.87 23.98 24.87 5.996 -1.058 -1.058 22.93 -16.05 -47.09 -33.15 -2.116 -50.09 17.99
2.09 47.97 18.87 10.93 24.87 35.98 32.98 16.93 19.93 23.98 36.86 -17.11 -20.1 10.93 12.87 -28.04 63.84
2.095 35.98 6.878 7.936 21.87 31.92 29.98 17.99 27.86 41.97 35.98 -19.05 -3.174 47.97 23.98 -17.11 91.88
2.1 25.92 -1.058 1.94 10.93 19.93 24.87 8.994 28.92 47.97 30.86 -23.1 3.88 63.84 28.92 -15.17 104.9
2.105 20.99 -13.05 -1.058 -2.116 3.88 17.99 0 15.87 36.86 21.87 -25.04 6.878 66.84 26.98 -27.16 103.9
2.11 25.92 -13.05 -7.054 -5.114 0.8818 15.87 -1.058 5.996 27.86 13.93 -31.04 5.996 63.84 17.99 -37.03 99.99
2.115 35.98 0.8818 -7.054 -5.114 -1.058 22.93 -3.174 8.994 25.92 12.87 -33.15 11.99 61.9 11.99 -28.04 94.88
2.12 49.91 8.994 -1.058 -2.116 10.93 27.86 0.8818 16.93 29.98 14.99 -31.04 27.86 67.9 4.938 -3.174 91
2.125 55.9 20.99 -2.116 7.936 19.93 29.98 3.88 27.86 37.92 15.87 -23.1 43.91 69.84 0 25.92 77.95
2.13 58.9 26.98 5.996 15.87 26.98 29.98 13.93 38.97 46.91 20.99 -11.11 58.9 72.83 2.998 54.85 60.84
2.135 56.96 22.93 11.99 19.93 28.92 24.87 23.98 40.91 46.91 22.93 0 68.96 64.9 6.878 68.96 36.86
2.14 53.96 20.99 15.87 23.98 25.92 19.93 33.86 35.98 41.97 23.98 13.93 67.9 53.96 9.876 67.9 7.936
2.145 46.91 18.87 15.87 21.87 25.92 20.99 35.98 26.98 30.86 27.86 17.99 60.84 36.86 16.93 57.84 -14.11
2.15 40.91 24.87 13.93 21.87 27.86 22.93 31.92 17.99 22.93 25.92 15.87 46.91 18.87 16.93 43.91 -39.15
2.155 35.98 30.86 13.93 25.92 33.86 25.92 23.98 7.936 15.87 21.87 7.936 29.98 0 15.87 27.86 -53.08
2.16 33.86 32.98 17.99 31.92 37.92 30.86 19.93 3.88 9.876 17.99 3.88 17.99 -11.11 15.87 16.93 -61.02
2.165 37.92 34.92 27.86 39.86 41.97 29.98 21.87 5.996 7.936 15.87 1.94 11.99 -27.16 15.87 10.93 -59.08
2.17 43.91 32.98 39.86 47.97 39.86 25.92 29.98 9.876 5.996 15.87 7.936 9.876 -37.03 17.99 11.99 -53.08
2.175 47.97 34.92 51.85 53.96 37.92 23.98 39.86 13.93 5.996 17.99 13.93 9.876 -39.15 21.87 14.99 -45.15
2.18 47.97 40.91 57.84 55.9 35.98 23.98 49.91 17.99 7.936 19.93 15.87 7.936 -35.09 23.98 11.99 -33.15
2.185 43.91 46.91 55.9 53.96 37.92 23.98 51.85 17.99 13.93 21.87 11.99 5.996 -21.16 25.92 -1.058 -19.05
2.19 39.86 50.97 47.97 47.97 39.86 23.98 47.97 17.99 23.98 21.87 5.996 1.94 -5.114 23.98 -33.15 -1.058
2.195 37.92 48.85 35.98 39.86 39.86 19.93 37.92 17.99 33.86 21.87 0 -1.058 7.936 17.99 -67.02 13.93
2.2 37.92 38.97 23.98 31.92 35.98 11.99 27.86 13.93 39.86 19.93 -2.116 -13.05 21.87 11.99 -89.06 33.86
2.205 37.92 28.92 13.93 23.98 23.98 1.94 15.87 5.996 37.92 15.87 0 -25.04 31.92 7.936 -89.06 47.97
2.21 33.86 20.99 11.99 15.87 9.876 -1.058 7.936 0.8818 29.98 9.876 1.94 -33.15 35.98 7.936 -65.08 55.9
2.215 23.98 16.93 11.99 9.876 -2.116 -7.054 3.88 -11.11 15.87 3.88 3.88 -35.09 35.98 9.876 -31.04 53.96
2.22 11.99 12.87 13.93 5.996 -5.114 -9.17 1.94 -17.11 5.996 -2.116 5.996 -25.04 31.92 9.876 -3.174 45.85
2.225 1.94 4.938 13.93 0 -9.17 -13.05 5.996 -19.05 -2.116 -1.058 7.936 -11.11 25.92 1.94 7.936 31.92
2.23 -1.058 2.998 7.936 -3.174 -11.11 -13.05 9.876 -13.05 0.8818 -1.058 9.876 1.94 19.93 -1.058 13.93 16.93
2.235 -3.174 -7.054 0 -13.05 -11.11 -9.17 11.99 -5.114 -2.116 0.8818 11.99 13.93 13.93 -3.174 19.93 1.94
2.24 -1.058 -9.17 -3.174 -17.11 -11.11 0.8818 11.99 0.8818 6.878 1.94 11.99 17.99 8.994 -2.116 24.87 0
2.245 0 -7.054 -7.054 -17.11 -7.054 7.936 7.936 0.8818 14.99 7.936 7.936 13.93 2.998 9.876 28.92 -6.172
2.25 5.996 0.8818 -3.174 -13.05 -1.058 17.99 3.88 -1.058 17.99 11.99 -2.116 5.996 -1.058 21.87 25.92 -11.11
2.255 7.936 10.93 0.8818 -5.114 -2.116 21.87 0.8818 -4.056 16.93 8.994 -5.114 0.8818 -12.17 20.99 20.99 -14.11
2.26 7.936 16.93 0 -1.058 -2.116 15.87 0.8818 -8.112 6.878 1.94 -7.054 -3.174 -30.16 6.878 18.87 -25.04
2.265 7.936 22.93 1.94 0.8818 0.8818 0 0 -11.11 -5.114 -9.17 -5.114 -3.174 -47.09 -5.114 17.99 -33.15
2.27 9.876 22.93 0 0 -4.056 -5.114 4.938 -10.05 -19.05 -12.17 0 0.8818 -53.08 -16.05 29.98 -33.15
2.275 13.93 24.87 -2.116 -2.116 -6.172 -9.17 8.994 -10.05 -29.1 -8.112 9.876 5.996 -51.14 -14.11 31.92 -22.04
2.28 15.87 16.93 -2.116 -7.054 -7.054 -5.114 11.99 -9.17 -29.1 -1.058 15.87 13.93 -41.09 -3.174 25.92 -5.114
2.285 15.87 16.93 1.94 -4.056 -2.116 -1.058 14.99 -1.058 -16.05 1.94 17.99 17.99 -22.04 5.996 6.878 11.99
2.29 9.876 18.87 9.876 1.94 0 -2.116 17.99 0 -4.056 -2.116 14.99 16.93 -8.112 7.936 -10.05 28.92
2.295 3.88 26.98 19.93 1.94 -5.114 -1.058 17.99 7.936 0 -3.174 9.876 13.93 1.94 3.88 -23.1 43.91
2.3 2.998 38.97 29.98 11.99 -3.174 -3.174 20.99 18.87 6.878 -8.112 6.878 12.87 14.99 -1.058 -22.04 58.9
2.305 6.878 54.85 34.92 19.93 -3.174 -2.116 22.93 29.98 12.87 -7.054 6.878 14.99 25.92 1.94 -13.05 70.89
2.31 13.93 60.84 31.92 27.86 -2.116 -1.058 21.87 35.98 17.99 0.8818 5.996 13.93 39.86 5.996 -5.114 83.95
2.315 18.87 58.9 24.87 30.86 5.996 1.94 18.87 37.92 27.86 2.998 5.996 11.99 50.97 12.87 -2.116 91.88
2.32 16.93 46.91 11.99 26.98 8.994 -1.058 11.99 33.86 33.86 5.996 3.88 6.878 53.96 14.99 -9.17 88.88
2.325 2.998 38.97 2.998 16.93 2.998 -10.05 4.938 29.98 35.98 3.88 0.8818 1.94 53.96 10.93 -16.05 77.95
2.33 -6.172 26.98 0.8818 8.994 1.94 -21.16 1.94 23.98 33.86 0 0 -1.058 47.97 8.994 -15.17 64.9
2.335 -12.17 22.93 1.94 0.8818 -5.114 -24.16 2.998 25.92 33.86 -1.058 0 7.936 50.97 10.93 -4.056 49.91
2.34 -9.17 24.87 1.94 0 -1.058 -17.11 9.876 31.92 35.98 5.996 5.996 25.92 55.9 15.87 9.876 37.92
2.345 0 30.86 12.87 5.996 5.996 0 16.93 43.91 44.97 15.87 14.99 46.91 59.96 23.98 29.98 26.98
2.35 6.878 36.86 23.98 13.93 23.98 7.936 18.87 52.91 52.91 22.93 22.93 58.9 56.96 26.98 48.85 12.87
2.355 11.99 42.85 27.86 17.99 31.92 13.93 21.87 53.96 57.84 23.98 31.92 57.84 43.91 17.99 59.96 0.8818
2.36 13.93 54.85 29.98 18.87 34.92 15.87 23.98 51.85 54.85 19.93 36.86 50.97 22.93 5.996 62.96 -19.05
2.365 17.99 62.96 25.92 16.93 30.86 11.99 18.87 37.92 42.85 13.93 35.98 33.86 0.8818 -1.058 56.96 -35.09
2.37 19.93 68.96 17.99 7.936 19.93 5.996 11.99 21.87 25.92 5.996 33.86 19.93 -13.05 -9.17 37.92 -47.09
2.375 23.98 72.83 7.936 2.998 10.93 1.94 8.994 6.878 11.99 -1.058 29.98 3.88 -25.04 -8.112 21.87 -50.09
2.38 25.92 72.83 1.94 0.8818 8.994 1.94 -1.058 0 1.94 -4.056 23.98 -5.114 -35.09 -4.056 1.94 -47.09
2.385 23.98 76.89 3.88 1.94 5.996 3.88 0.8818 -9.17 -5.114 -13.05 19.93 -17.11 -43.03 -1.058 -11.11 -33.15
2.39 21.87 80.95 11.99 5.996 7.936 3.88 1.94 -10.05 -10.05 -12.17 15.87 -19.05 -42.15 1.94 -18.16 -9.17
2.395 21.87 88.88 23.98 15.87 9.876 7.936 2.998 -6.172 -12.17 -4.056 17.99 -13.05 -38.09 -1.058 -22.04 14.99
2.4 21.87 94.88 31.92 21.87 15.87 11.99 13.93 -2.116 -9.17 1.94 23.98 -1.058 -23.1 3.88 -19.05 43.91
2.405 21.87 98.94 35.98 25.92 21.87 13.93 23.98 9.876 -1.058 13.93 25.92 7.936 -2.116 15.87 -14.11 66.84
2.41 23.98 98.94 31.92 27.86 25.92 13.93 29.98 17.99 8.994 19.93 27.86 15.87 14.99 23.98 -4.056 82.89
2.415 23.98 98.94 25.92 29.98 29.98 13.93 29.98 23.98 15.87 15.87 25.92 19.93 29.98 25.92 0.8818 79.89
2.42 23.98 97 21.87 33.86 33.86 13.93 29.98 25.92 17.99 9.876 23.98 23.98 37.92 23.98 0 72.83
2.425 25.92 92.94 23.98 39.86 35.98 17.99 29.98 29.98 17.99 5.996 23.98 29.98 41.97 21.87 0 61.9
2.43 31.92 94.88 29.98 47.97 37.92 21.87 31.92 37.92 21.87 9.876 27.86 39.86 45.85 23.98 5.996 57.84
2.435 37.92 92.94 35.98 51.85 37.92 27.86 35.98 49.91 27.86 21.87 35.98 51.85 51.85 29.98 17.99 57.84
2.44 47.97 91 39.86 51.85 39.86 39.86 39.86 61.9 37.92 35.98 39.86 63.84 59.96 35.98 35.98 57.84
2.445 57.84 92.94 39.86 49.91 45.85 53.96 43.91 71.95 51.85 47.97 41.97 71.95 69.84 37.92 55.9 53.96
2.45 67.9 94.88 37.92 51.85 57.84 67.9 45.85 77.95 67.9 57.84 39.86 75.83 77.95 33.86 69.84 39.86
2.455 75.83 98.94 35.98 53.96 71.95 77.95 43.91 79.89 81.83 61.9 37.92 77.95 81.83 25.92 71.95 15.87
2.46 83.95 100.9 35.98 55.9 81.83 77.95 43.91 79.89 91.88 59.96 37.92 75.83 79.89 15.87 63.84 -5.114
2.465 85.89 98.94 35.98 57.84 81.83 65.96 43.91 77.95 94 53.96 41.97 73.89 67.9 9.876 55.9 -31.04
2.47 83.95 97 39.86 51.85 71.95 47.97 45.85 71.95 81.83 41.97 45.85 69.84 47.97 5.996 48.85 -49.03
2.475 77.95 94.88 43.91 41.97 51.85 27.86 47.97 63.84 59.96 25.92 47.97 55.9 19.93 1.94 38.97 -61.02
2.48 69.84 97 45.85 33.86 33.86 15.87 45.85 47.97 31.92 9.876 41.97 35.98 -3.174 -2.116 19.93 -63.14
2.485 57.84 100.9 47.97 29.98 23.98 11.99 41.97 29.98 7.936 1.94 29.98 7.936 -21.16 0.8818 1.94 -61.02
2.49 45.85 104.9 45.85 31.92 21.87 17.99 31.92 15.87 -2.116 3.88 15.87 -13.05 -27.16 0 -26.1 -49.03
2.495 35.98 103 41.97 35.98 27.86 23.98 21.87 7.936 1.94 11.99 3.88 -33.15 -17.11 11.99 -43.03 -33.15
2.5 29.98 92.94 33.86 35.98 29.98 22.93 13.93 5.996 14.99 19.93 1.94 -32.1 0.8818 28.92 -39.15 -9.17
2.505 27.86 78.83 27.86 29.98 25.92 14.99 11.99 10.93 30.86 23.98 7.936 -18.16 16.93 40.91 -19.05 11.99
2.51 27.86 68.96 21.87 17.99 13.93 0 11.99 13.93 33.86 19.93 21.87 0 31.92 47.97 3.88 41.97
2.515 23.98 64.9 15.87 3.88 0 -6.172 11.99 14.99 30.86 12.87 28.92 22.93 40.91 50.97 28.92 67.9
2.52 17.99 56.96 7.936 -5.114 -7.054 -14.11 9.876 8.994 20.99 6.878 28.92 32.98 44.97 50.97 39.86 87.83
2.525 3.88 48.85 0.8818 -13.05 -19.05 -21.16 0 1.94 9.876 3.88 21.87 35.98 47.97 49.91 41.97 101.9
2.53 -6.172 38.97 -11.11 -17.11 -27.16 -21.16 -1.058 0.8818 7.936 -1.058 12.87 39.86 52.91 48.85 48.85 112
2.535 -16.05 26.98 -17.11 -17.11 -29.1 -27.16 -3.174 2.998 7.936 1.94 10.93 41.97 58.9 47.97 61.9 115.9
2.54 -21.16 10.93 -15.17 -17.11 -27.16 -31.04 0.8818 9.876 5.996 -5.114 13.93 51.85 63.84 33.86 79.89 118
2.545 -20.1 6.878 -7.054 -14.11 -19.05 -30.16 3.88 13.93 8.994 -9.17 23.98 66.84 67.9 22.93 100.9 112
2.55 -16.05 14.99 -1.058 -10.05 -4.056 -27.16 11.99 20.99 11.99 -13.05 33.86 77.95 68.96 10.93 115.9 99.99
2.555 -13.05 28.92 0 -7.054 3.88 -19.05 17.99 25.92 13.93 -9.17 41.97 83.95 67.9 3.88 119.9 87.83
2.56 -9.17 42.85 0.8818 0.8818 14.99 -12.17 21.87 33.86 19.93 -4.056 45.85 87.83 69.84 4.938 119.9 73.89
2.565 -2.116 48.85 -1.058 3.88 25.92 -10.05 22.93 41.97 27.86 0.8818 48.85 85.89 65.96 6.878 121 63.84
2.57 0 48.85 0 7.936 34.92 -12.17 20.99 50.97 32.98 0.8818 46.91 81.83 62.96 1.94 115 51.85
2.575 6.878 46.91 0.8818 13.93 37.92 -16.05 18.87 47.97 37.92 0 36.86 63.84 49.91 -2.116 103 41.97
2.58 13.93 38.97 0.8818 13.93 42.85 -14.11 11.99 35.98 33.86 1.94 19.93 37.92 35.98 -8.112 77.95 33.86
2.585 21.87 34.92 -2.116 7.936 41.97 -3.174 1.94 11.99 15.87 0.8818 3.88 5.996 13.93 -9.17 47.97 25.92
2.59 28.92 32.98 -1.058 4.938 40.91 3.88 0.8818 0 1.94 0 -3.174 -13.05 1.94 1.94 17.99 25.92
2.595 36.86 32.98 0.8818 8.994 39.86 20.99 -3.174 -15.17 -12.17 13.93 -9.17 -30.16 -7.054 14.99 0 29.98
2.6 41.97 38.97 1.94 13.93 43.91 27.86 -2.116 -11.11 -11.11 27.86 -13.05 -33.15 -1.058 27.86 -11.11 29.98
2.605 48.85 50.97 11.99 25.92 51.85 33.86 5.996 1.94 0 42.85 -8.112 -27.16 8.994 33.86 -5.114 27.86
2.61 62.96 62.96 27.86 43.91 57.84 35.98 15.87 10.93 23.98 48.85 -6.172 -15.17 22.93 22.93 1.94 15.87
2.615 69.84 76.89 35.98 55.9 59.96 33.86 19.93 21.87 39.86 45.85 -9.17 -13.05 27.86 7.936 0 -2.116
2.62 73.89 80.95 35.98 57.84 53.96 34.92 23.98 20.99 42.85 34.92 -10.05 -12.17 24.87 0.8818 0 -15.17
2.625 71.95 78.83 29.98 51.85 41.97 34.92 19.93 16.93 30.86 26.98 -14.11 -8.112 16.93 4.938 -2.116 -27.16
2.63 61.9 68.96 17.99 39.86 27.86 29.98 13.93 9.876 15.87 19.93 -17.11 0 7.936 15.87 -7.054 -31.04
2.635 47.97 54.85 9.876 25.92 17.99 28.92 11.99 14.99 10.93 25.92 -15.17 18.87 12.87 32.98 0.8818 -25.04
2.64 33.86 44.97 7.936 17.99 17.99 26.98 11.99 25.92 18.87 35.98 -11.11 42.85 23.98 38.97 15.87 -15.17
2.645 25.92 40.91 9.876 17.99 19.93 21.87 15.87 37.92 33.86 43.91 -3.174 63.84 41.97 35.98 35.98 -5.114
2.65 23.98 42.85 13.93 19.93 23.98 17.99 21.87 49.91 51.85 43.91 -2.116 73.89 59.96 25.92 52.91 -2.116
2.655 25.92 42.85 11.99 23.98 25.92 15.87 23.98 53.96 61.9 37.92 3.88 75.83 67.9 19.93 54.85 0
2.66 29.98 42.85 7.936 25.92 23.98 15.87 25.92 51.85 59.96 35.98 5.996 73.89 67.9 19.93 45.85 1.94
2.665 31.92 36.86 3.88 25.92 25.92 19.93 25.92 47.97 55.9 35.98 3.88 71.95 63.84 25.92 30.86 5.996
2.67 35.98 30.86 3.88 25.92 27.86 19.93 25.92 43.91 49.91 37.92 0 65.96 57.84 31.92 16.93 7.936
2.675 35.98 26.98 9.876 29.98 31.92 19.93 25.92 41.97 49.91 37.92 -2.116 59.96 51.85 27.86 5.996 5.996
2.68 35.98 28.92 21.87 35.98 37.92 13.93 27.86 41.97 47.97 29.98 0.8818 47.97 41.97 11.99 -2.116 -3.174
2.685 33.86 38.97 33.86 45.85 43.91 7.936 29.98 41.97 43.91 17.99 0.8818 33.86 27.86 -7.054 -1.058 -25.04
2.69 33.86 48.85 41.97 55.9 53.96 3.88 29.98 43.91 35.98 5.996 0.8818 21.87 9.876 -27.16 -7.054 -49.03
2.695 37.92 54.85 43.91 63.84 63.84 1.94 31.92 43.91 25.92 1.94 -2.116 11.99 0.8818 -35.09 -15.17 -65.08
2.7 41.97 52.91 39.86 67.9 73.89 5.996 33.86 43.91 19.93 3.88 -2.116 7.936 -7.054 -29.1 -23.1 -69.13
2.705 43.91 44.97 33.86 65.96 75.83 11.99 33.86 41.97 17.99 9.876 -2.116 11.99 -5.114 -17.11 -31.04 -61.02
2.71 41.97 32.98 27.86 59.96 73.89 17.99 33.86 39.86 17.99 11.99 0.8818 17.99 1.94 -7.054 -37.03 -49.03
2.715 35.98 24.87 23.98 53.96 65.96 23.98 29.98 39.86 23.98 11.99 -3.174 27.86 21.87 -3.174 -39.15 -41.09
2.72 31.92 22.93 21.87 47.97 59.96 29.98 25.92 43.91 31.92 11.99 -9.17 41.97 43.91 -5.114 -39.15 -39.15
2.725 29.98 20.99 23.98 47.97 57.84 33.86 23.98 51.85 45.85 17.99 -13.05 55.9 65.96 -3.174 -33.15 -35.09
2.73 35.98 26.98 27.86 51.85 61.9 33.86 27.86 61.9 61.9 30.86 -13.05 69.84 81.83 0.8818 -17.11 -25.04
2.735 39.86 32.98 27.86 52.91 63.84 29.98 31.92 65.96 72.83 42.85 -5.114 77.95 87.83 18.87 -1.058 -8.112
2.74 39.86 32.98 23.98 47.97 57.84 21.87 33.86 63.84 73.89 45.85 -2.116 75.83 81.83 29.98 3.88 1.94
2.745 29.98 32.98 13.93 34.92 43.91 7.936 30.86 49.91 64.9 42.85 3.88 64.9 68.96 32.98 7.936 10.93
2.75 15.87 28.92 0 14.99 21.87 0.8818 18.87 27.86 42.85 30.86 7.936 42.85 48.85 20.99 7.936 8.994
2.755 0 16.93 -9.17 -3.174 -2.116 -9.17 1.94 3.88 19.93 13.93 9.876 17.99 25.92 0.8818 9.876 -1.058
2.76 -6.172 6.878 -15.17 -16.05 -13.05 -12.17 -2.116 -11.11 0.8818 0.8818 12.87 1.94 4.938 -19.05 13.93 -20.1
2.765 -12.17 -3.174 -17.11 -26.1 -21.16 -14.11 -6.172 -22.04 -10.05 -7.054 14.99 -16.05 -14.11 -35.09 22.93 -42.15
2.77 -17.11 -11.11 -13.05 -29.1 -25.04 -17.11 -5.114 -31.04 -27.16 -19.05 13.93 -33.15 -39.15 -43.03 19.93 -59.08
2.775 -18.16 -15.17 -7.054 -29.1 -29.1 -12.17 1.94 -36.15 -45.15 -29.1 16.93 -41.09 -63.14 -40.03 6.878 -65.08
2.78 -22.04 -19.05 -9.17 -39.15 -35.09 -10.05 0.8818 -42.15 -63.14 -32.1 10.93 -51.14 -85 -34.04 -16.05 -67.02
2.785 -27.16 -31.04 -13.05 -47.09 -45.15 -9.17 -5.114 -51.14 -77.07 -31.04 7.936 -63.14 -95.06 -27.16 -43.03 -57.14
2.79 -21.16 -37.03 -17.11 -47.09 -49.03 -5.114 -14.11 -56.08 -81.12 -27.16 7.936 -66.13 -90.12 -16.05 -52.02 -43.03
2.795 -17.11 -45.15 -21.16 -42.15 -45.15 -5.114 -19.05 -51.14 -76.01 -23.1 3.88 -65.08 -81.12 -11.11 -43.03 -32.1
2.8 -5.114 -43.03 -21.16 -31.04 -33.15 0.8818 -25.04 -47.09 -63.14 -23.1 1.94 -63.14 -65.08 -7.054 -29.1 -21.16
2.805 2.998 -35.09 -16.05 -13.05 -15.17 -2.116 -23.1 -31.04 -47.09 -22.04 -1.058 -54.14 -50.09 -10.05 -13.05 -15.17
2.81 5.996 -27.16 -11.11 -4.056 0.8818 -1.058 -23.1 -22.04 -35.09 -24.16 -4.056 -48.15 -39.15 -13.05 -15.17 -11.11
2.815 0 -21.16 -13.05 -2.116 1.94 0 -25.04 -18.16 -29.1 -21.16 -12.17 -43.03 -29.1 -11.11 -34.04 -7.054
2.82 -5.114 -27.16 -15.17 -10.05 0 -4.056 -33.15 -22.04 -23.1 -18.16 -18.16 -42.15 -23.1 -7.054 -51.14 -3.174
2.825 -18.16 -31.04 -20.1 -13.05 0.8818 -7.054 -35.09 -27.16 -15.17 -14.11 -20.1 -36.15 -14.11 0 -51.14 0
2.83 -21.16 -33.15 -21.16 -11.11 -5.114 -7.054 -33.15 -29.1 -9.17 -11.11 -19.05 -29.1 -3.174 -3.174 -37.03 5.996
2.835 -15.17 -27.16 -17.11 -2.116 -3.174 -7.054 -21.16 -19.05 0 -9.17 -11.11 -11.11 1.94 -11.11 -3.174 10.93
2.84 -5.114 -19.05 -9.17 5.996 0.8818 -5.114 -10.05 -4.056 0 -11.11 -1.058 2.998 8.994 -26.1 22.93 11.99
2.845 -1.058 -19.05 -9.17 5.996 -2.116 -11.11 -7.054 3.88 -2.116 -15.17 -2.116 15.87 9.876 -35.09 45.85 5.996
2.85 -6.172 -25.04 -13.05 -2.116 0.8818 -16.05 -7.054 8.994 -3.174 -14.11 4.938 25.92 1.94 -28.04 54.85 0
2.855 -16.05 -37.03 -23.1 -13.05 -7.054 -20.1 -9.17 0.8818 -13.05 -13.05 4.938 21.87 -5.114 -10.05 48.85 0.8818
2.86 -25.04 -53.08 -29.1 -29.1 -17.11 -19.05 -13.05 -11.11 -19.05 -13.05 5.996 5.996 -21.16 0 39.86 0.8818
2.865 -24.16 -57.14 -27.16 -38.09 -25.04 -12.17 -12.17 -26.1 -26.1 -13.05 10.93 -2.116 -32.1 7.936 30.86 -1.058
2.87 -18.16 -55.02 -19.05 -42.15 -31.04 -8.112 -6.172 -37.03 -34.04 -18.16 10.93 -16.05 -46.03 0.8818 21.87 -1.058
2.875 -13.05 -51.14 -11.11 -43.03 -39.15 -9.17 -3.174 -41.09 -43.03 -27.16 11.99 -29.1 -57.14 -19.05 11.99 -1.058
2.88 -15.17 -47.09 -13.05 -48.15 -49.03 -13.05 -8.112 -45.15 -54.14 -34.04 7.936 -44.09 -70.01 -34.04 0.8818 -10.05
2.885 -21.16 -55.02 -23.1 -58.02 -59.08 -17.11 -24.16 -55.02 -70.01 -42.15 0.8818 -64.02 -84.12 -36.15 -21.16 -18.16
2.89 -27.16 -63.14 -39.15 -67.02 -63.14 -19.05 -45.15 -67.02 -83.06 -45.15 -15.17 -81.12 -95.06 -27.16 -45.15 -21.16
2.895 -27.16 -63.14 -51.14 -68.07 -59.08 -15.17 -63.14 -75.13 -84.12 -42.15 -31.04 -91.18 -93.12 -12.17 -61.02 -14.11
2.9 -21.16 -57.14 -51.14 -61.02 -45.15 -5.114 -67.02 -75.13 -75.13 -34.04 -41.09 -87.12 -77.07 0 -63.14 -1.058
2.905 -9.17 -45.15 -43.03 -45.15 -27.16 -2.116 -59.08 -63.14 -55.02 -23.1 -41.09 -73.01 -51.14 -2.116 -49.03 7.936
2.91 -3.174 -25.04 -27.16 -27.16 -11.11 1.94 -45.15 -41.09 -31.04 -13.05 -35.09 -53.08 -27.16 0 -25.04 19.93
2.915 -1.058 -11.11 -13.05 -11.11 -3.174 1.94 -31.04 -19.05 -13.05 -9.17 -27.16 -35.09 -9.17 -2.116 -5.114 25.92
2.92 -3.174 -11.11 -3.174 -1.058 -2.116 0 -23.1 -3.174 -1.058 -9.17 -21.16 -23.1 -1.058 0.8818 0.8818 29.98
2.925 -5.114 -11.11 0.8818 0 1.94 0 -19.05 1.94 1.94 -11.11 -19.05 -13.05 -2.116 -1.058 -5.114 31.92
2.93 -3.174 -9.17 -2.116 5.996 9.876 3.88 -19.05 5.996 7.936 -11.11 -19.05 -5.114 5.996 -3.174 -15.17 35.98
2.935 -2.116 -5.114 -2.116 9.876 23.98 7.936 -19.05 5.996 15.87 -7.054 -19.05 -2.116 15.87 -5.114 -17.11 39.86
2.94 5.996 0.8818 -2.116 15.87 35.98 13.93 -17.11 5.996 23.98 -1.058 -17.11 1.94 23.98 -5.114 -5.114 41.97
2.945 11.99 0.8818 0.8818 17.99 39.86 15.87 -13.05 5.996 27.86 0 -15.17 1.94 21.87 -1.058 9.876 39.86
2.95 15.87 -1.058 -3.174 11.99 33.86 15.87 -13.05 1.94 23.98 1.94 -13.05 -1.058 9.876 -2.116 29.98 33.86
2.955 11.99 -13.05 -13.05 1.94 15.87 9.876 -19.05 -1.058 7.936 -2.116 -13.05 -13.05 -11.11 0 39.86 21.87
2.96 3.88 -33.15 -29.1 -11.11 -5.114 3.88 -29.1 -17.11 -9.17 -7.054 -15.17 -33.15 -41.09 0 31.92 7.936
2.965 -5.114 -55.02 -49.03 -35.09 -33.15 -1.058 -47.09 -41.09 -33.15 -17.11 -21.16 -55.02 -71.07 0.8818 5.996 -1.058
2.97 -23.1 -73.01 -65.08 -61.02 -57.14 -11.11 -67.02 -71.07 -55.02 -27.16 -27.16 -83.06 -93.12 -3.174 -23.1 -9.17
2.975 -39.15 -89.06 -77.07 -87.12 -75.13 -21.16 -83.06 -101.1 -69.13 -33.15 -35.09 -111.1 -107 -7.054 -57.14 -11.11
2.98 -51.14 -101.1 -81.12 -111.1 -87.12 -28.04 -91.18 -125 -79.01 -35.09 -39.15 -131 -107 -11.11 -83.06 -3.174
2.985 -57.14 -109.2 -81.12 -127.2 -95.06 -37.03 -91.18 -137 -83.06 -39.15 -41.09 -135.1 -99.11 -13.05 -93.12 3.88
2.99 -59.08 -109.2 -75.13 -135.1 -101.1 -40.03 -83.06 -133.1 -85 -42.15 -40.03 -125 -85 -14.11 -89.06 22.93
2.995 -57.14 -107 -69.13 -133.1 -107 -46.03 -71.07 -117.1 -83.06 -48.15 -40.03 -101.1 -69.13 -16.05 -73.01 34.92
3 -55.02 -101.1 -61.02 -123.1 -111.1 -55.02 -55.02 -97.17 -85 -55.02 -37.03 -75.13 -53.08 -19.05 -55.02 41.97
3.005 -54.14 -87.12 -51.14 -105.1 -115.2 -62.08 -42.15 -79.01 -82.01 -66.13 -32.1 -52.02 -43.03 -20.1 -32.1 44.97
3.01 -56.08 -73.01 -37.03 -91.18 -117.1 -70.01 -30.16 -65.08 -80.07 -70.01 -22.04 -38.09 -37.03 -24.16 -14.11 42.85
3.015 -57.14 -57.14 -23.1 -75.13 -115.2 -73.01 -23.1 -57.14 -77.07 -73.01 -13.05 -31.04 -31.04 -29.1 -1.058 37.92
3.02 -52.02 -35.09 -10.05 -63.14 -106.2 -65.08 -16.05 -49.03 -68.07 -63.14 -1.058 -26.1 -23.1 -31.04 4.938 34.92
3.025 -44.09 -17.11 -4.056 -51.14 -92.06 -55.02 -8.112 -37.03 -56.08 -53.08 0.8818 -18.16 -19.05 -33.15 4.938 31.92
3.03 -37.03 -7.054 -1.058 -37.03 -79.01 -41.09 -7.054 -25.04 -47.09 -41.09 -1.058 -9.17 -15.17 -25.04 1.94 25.92
3.035 -25.04 -1.058 1.94 -20.1 -60.14 -27.16 0.8818 -13.05 -33.15 -26.1 -2.116 1.94 -13.05 -14.11 1.94 18.87
3.04 -19.05 -3.174 0 -4.056 -41.09 -16.05 0.8818 -6.172 -27.16 -13.05 0.8818 3.88 -13.05 0.8818 9.876 6.878
3.045 -11.11 -1.058 0 1.94 -25.04 -9.17 0 -3.174 -19.05 -5.114 -2.116 7.936 -13.05 5.996 27.86 0
3.05 -3.174 4.938 2.998 8.994 -8.112 0.8818 4.938 0 -12.17 1.94 10.93 11.99 -8.112 7.936 50.97 0
3.055 2.998 16.93 6.878 14.99 1.94 2.998 9.876 -1.058 -1.058 2.998 20.99 10.93 -3.174 1.94 59.96 -9.17
3.06 10.93 26.98 7.936 14.99 1.94 6.878 11.99 0 0 0.8818 27.86 6.878 -5.114 -1.058 47.97 -16.05
3.065 12.87 30.86 6.878 14.99 4.938 10.93 13.93 -5.114 1.94 0.8818 28.92 -1.058 -9.17 -9.17 17.99 -27.16
3.07 11.99 26.98 6.878 14.99 4.938 11.99 10.93 -8.112 0.8818 -1.058 24.87 -9.17 -16.05 -9.17 -8.112 -32.1
3.075 9.876 18.87 7.936 13.93 11.99 13.93 5.996 -13.05 -2.116 5.996 17.99 -21.16 -19.05 -2.116 -35.09 -33.15
3.08 9.876 16.93 13.93 18.87 23.98 22.93 3.88 -16.05 0.8818 17.99 11.99 -29.1 -15.17 13.93 -51.14 -20.1
3.085 13.93 14.99 16.93 22.93 34.92 33.86 5.996 -15.17 1.94 30.86 -1.058 -27.16 -5.114 24.87 -49.03 -2.116
3.09 11.99 14.99 17.99 27.86 33.86 33.86 7.936 -9.17 3.88 33.86 -9.17 -19.05 1.94 25.92 -45.15 7.936
3.095 6.878 12.87 20.99 25.92 24.87 25.92 10.93 -1.058 12.87 27.86 -17.11 -4.056 13.93 17.99 -34.04 21.87
3.1 -4.056 0.8818 16.93 17.99 6.878 13.93 8.994 1.94 16.93 13.93 -23.1 6.878 25.92 5.996 -20.1 30.86
3.105 -23.1 -9.17 11.99 7.936 -11.11 0.8818 5.996 7.936 17.99 -1.058 -23.1 17.99 31.92 0.8818 -3.174 35.98
3.11 -36.15 -21.16 7.936 -1.058 -26.1 -10.05 2.998 11.99 18.87 -10.05 -14.11 28.92 35.98 0 8.994 40.91
3.115 -44.09 -27.16 1.94 -11.11 -33.15 -14.11 -1.058 13.93 14.99 -10.05 -4.056 32.98 37.92 -1.058 22.93 44.97
3.12 -47.09 -29.1 0.8818 -15.17 -35.09 -9.17 -2.116 15.87 9.876 -7.054 0.8818 33.86 37.92 3.88 33.86 45.85
3.125 -43.03 -27.16 -5.114 -13.05 -35.09 -2.116 -2.116 15.87 9.876 -2.116 -1.058 39.86 35.98 4.938 39.86 46.91
3.13 -39.15 -25.04 -7.054 -9.17 -31.04 0 -2.116 19.93 11.99 -2.116 -1.058 45.85 35.98 1.94 49.91 38.97
3.135 -35.09 -21.16 -7.054 -5.114 -27.16 -2.116 0 25.92 19.93 -3.174 0 53.96 39.86 -9.17 59.96 27.86
3.14 -29.1 -19.05 -3.174 -1.058 -19.05 2.998 1.94 33.86 31.92 0 3.88 59.96 43.91 -11.11 69.84 17.99
3.145 -21.16 -13.05 0.8818 0 -3.174 7.936 7.936 41.97 43.91 15.87 9.876 59.96 47.97 0.8818 75.83 9.876
3.15 -7.054 -1.058 0 9.876 11.99 19.93 13.93 47.97 53.96 33.86 15.87 57.84 49.91 15.87 75.83 5.996
3.155 3.88 10.93 5.996 23.98 31.92 33.86 15.87 49.91 59.96 51.85 19.93 53.96 45.85 41.97 65.96 5.996
3.16 19.93 24.87 11.99 41.97 51.85 45.85 15.87 49.91 61.9 61.9 15.87 47.97 41.97 59.96 53.96 7.936
3.165 33.86 32.98 17.99 53.96 69.84 57.84 15.87 49.91 63.84 63.84 11.99 41.97 39.86 67.9 39.86 11.99
3.17 43.91 34.92 21.87 59.96 81.83 63.84 17.99 49.91 65.96 61.9 7.936 35.98 41.97 63.84 25.92 13.93
3.175 51.85 30.86 25.92 59.96 87.83 67.9 21.87 49.91 65.96 57.84 9.876 27.86 43.91 55.9 11.99 15.87
3.18 55.9 24.87 25.92 55.9 89.94 69.84 27.86 47.97 63.84 57.84 15.87 19.93 47.97 49.91 -2.116 17.99
3.185 59.96 22.93 23.98 53.96 85.89 67.9 33.86 39.86 59.96 59.96 19.93 11.99 49.91 45.85 -7.054 21.87
3.19 63.84 22.93 21.87 51.85 79.89 65.96 33.86 29.98 55.9 61.9 21.87 5.996 49.91 45.85 -15.17 27.86
3.195 61.9 24.87 21.87 51.85 71.95 63.84 31.92 21.87 51.85 63.84 17.99 1.94 51.85 47.97 -21.16 31.92
3.2 53.96 24.87 25.92 49.91 67.9 61.9 29.98 13.93 51.85 61.9 13.93 0 53.96 49.91 -25.04 33.86
3.205 41.97 20.99 31.92 45.85 65.96 55.9 27.86 11.99 49.91 57.84 9.876 3.88 55.9 43.91 -25.04 33.86
3.21 27.86 14.99 33.86 36.86 59.96 45.85 29.98 7.936 45.85 47.97 9.876 7.936 51.85 29.98 -20.1 29.98
3.215 13.93 10.93 29.98 23.98 47.97 27.86 27.86 5.996 37.92 29.98 9.876 13.93 43.91 7.936 -11.11 23.98
3.22 3.88 2.998 21.87 10.93 27.86 5.996 21.87 -2.116 21.87 5.996 9.876 15.87 29.98 -11.11 1.94 13.93
3.225 1.94 -1.058 8.994 -1.058 0 -11.11 7.936 -7.054 0 -19.05 3.88 13.93 7.936 -31.04 6.878 0
3.23 -9.17 -15.17 -3.174 -15.17 -23.1 -27.16 -1.058 -21.16 -21.16 -47.09 0.8818 5.996 -11.11 -41.09 13.93 -9.17
3.235 -20.1 -29.1 -18.16 -36.15 -47.09 -41.09 -13.05 -41.09 -47.09 -65.08 -7.054 -2.116 -35.09 -43.03 11.99 -25.04
3.24 -36.15 -51.14 -36.15 -63.14 -70.01 -51.14 -23.1 -63.14 -69.13 -75.13 -10.05 -20.1 -61.02 -41.09 5.996 -41.09
3.245 -57.14 -75.13 -55.02 -97.17 -95.06 -63.14 -33.15 -89.06 -89.06 -79.01 -13.05 -43.03 -85 -43.03 -1.058 -53.08
3.25 -76.01 -91.18 -70.01 -123.1 -116 -78.13 -43.03 -112.2 -109.2 -83.06 -16.05 -64.02 -107 -55.02 -10.05 -67.02
3.255 -91.18 -99.11 -79.01 -136.1 -136.1 -94.17 -55.02 -130.2 -125 -91.18 -22.04 -84.12 -127.2 -71.07 -18.16 -78.13
3.26 -103.2 -105.1 -83.06 -139.1 -147.1 -107 -65.08 -135.1 -131 -99.11 -33.15 -103.2 -145.1 -83.06 -33.15 -87.12
3.265 -105.1 -101.1 -77.07 -127.2 -146 -112.2 -71.07 -132.1 -135.1 -103.2 -46.03 -114.1 -151.1 -84.12 -45.15 -90.12
3.27 -102.1 -93.12 -68.07 -116 -133.1 -108.1 -71.07 -122 -131 -101.1 -54.14 -121.2 -149 -76.01 -56.08 -88
3.275 -95.06 -89.06 -63.14 -109.2 -119 -99.11 -67.02 -117.1 -119 -91.18 -59.08 -127.2 -139.1 -67.02 -65.08 -75.13
3.28 -89.06 -87.12 -65.08 -108.1 -109.2 -87.12 -67.02 -111.1 -109.2 -83.06 -57.14 -128 -120.1 -60.14 -71.07 -62.08
3.285 -94.17 -91.18 -70.01 -116 -106.2 -81.12 -69.13 -114.1 -99.11 -79.01 -52.02 -126.1 -98.05 -58.02 -77.07 -49.03
3.29 -101.1 -93.12 -77.07 -121.2 -111.1 -79.01 -73.01 -111.1 -89.06 -77.07 -51.14 -125 -81.12 -65.08 -81.12 -43.03
3.295 -101.1 -89.06 -78.13 -119 -109.2 -73.01 -72.13 -100.2 -80.07 -75.13 -47.09 -114.1 -59.08 -64.02 -79.01 -37.03
3.3 -86.06 -77.07 -67.02 -102.1 -94.17 -59.08 -61.02 -80.07 -66.13 -62.08 -45.15 -92.06 -38.09 -58.02 -66.13 -30.16
3.305 -60.14 -55.02 -55.02 -72.13 -69.13 -39.15 -47.09 -54.14 -45.15 -40.03 -45.15 -61.02 -15.17 -40.03 -54.14 -22.04
3.31 -32.1 -31.04 -37.03 -44.09 -38.09 -19.05 -27.16 -30.16 -20.1 -16.05 -39.15 -28.04 -1.058 -20.1 -40.03 -12.17
3.315 -11.11 -11.11 -26.1 -25.04 -15.17 -5.114 -16.05 -12.17 0 0.8818 -33.15 0 17.99 -2.116 -33.15 -5.114
3.32 -1.058 -3.174 -23.1 -19.05 -3.174 0.8818 -11.11 -1.058 5.996 3.88 -35.09 11.99 23.98 1.94 -31.04 -7.054
3.325 -6.172 -7.054 -22.04 -22.04 -2.116 0.8818 -15.17 0 7.936 -2.116 -34.04 18.87 26.98 -1.058 -31.04 -13.05
3.33 -15.17 -17.11 -27.16 -30.16 -11.11 -5.114 -21.16 -3.174 0 -7.054 -33.15 14.99 18.87 -8.112 -25.04 -24.16
3.335 -29.1 -25.04 -29.1 -35.09 -17.11 -13.05 -21.16 -11.11 -9.17 -17.11 -27.16 7.936 3.88 -21.16 -13.05 -37.03
3.34 -36.15 -31.04 -30.16 -32.1 -21.16 -18.16 -19.05 -20.1 -19.05 -25.04 -20.1 1.94 -9.17 -34.04 2.998 -46.03
3.345 -45.15 -39.15 -35.09 -33.15 -30.16 -26.1 -21.16 -30.16 -33.15 -33.15 -14.11 -5.114 -31.04 -44.09 13.93 -58.02
3.35 -53.08 -47.09 -43.03 -39.15 -41.09 -37.03 -25.04 -49.03 -53.08 -45.15 -13.05 -29.1 -59.08 -55.02 7.936 -75.13
3.355 -63.14 -51.14 -49.03 -52.02 -54.14 -46.03 -37.03 -68.07 -73.01 -61.02 -16.05 -56.08 -91.18 -65.08 -2.116 -90.12
3.36 -76.01 -61.02 -60.14 -69.13 -68.07 -54.14 -49.03 -86.06 -95.06 -81.12 -20.1 -80.07 -123.1 -75.13 -24.16 -101.1
3.365 -85 -63.14 -63.14 -81.12 -75.13 -61.02 -57.14 -99.11 -113 -95.06 -27.16 -99.11 -141.1 -83.06 -43.03 -99.11
3.37 -78.13 -53.08 -60.14 -79.01 -72.13 -63.14 -59.08 -99.11 -119 -97.17 -30.16 -100.2 -143 -83.06 -49.03 -85
3.375 -70.01 -33.15 -54.14 -70.01 -67.02 -63.14 -57.14 -93.12 -115.2 -83.06 -39.15 -94.17 -127.2 -75.13 -53.08 -59.08
3.38 -61.02 -21.16 -47.09 -59.08 -57.14 -61.02 -55.02 -81.12 -97.17 -65.08 -47.09 -85 -101.1 -61.02 -59.08 -33.15
3.385 -54.14 -11.11 -44.09 -46.03 -55.02 -59.08 -55.02 -75.13 -83.06 -49.03 -55.02 -81.12 -73.01 -47.09 -64.02 -11.11
3.39 -57.14 -13.05 -45.15 -44.09 -57.14 -59.08 -57.14 -73.01 -71.07 -41.09 -59.08 -81.12 -57.14 -35.09 -70.01 -2.116
3.395 -67.02 -23.1 -47.09 -47.09 -61.02 -61.02 -57.14 -75.13 -67.02 -43.03 -57.14 -83.06 -47.09 -27.16 -71.07 1.94
3.4 -75.13 -25.04 -45.15 -48.15 -65.08 -65.08 -51.14 -71.07 -69.13 -51.14 -49.03 -75.13 -43.03 -23.1 -60.14 1.94
3.405 -77.07 -25.04 -39.15 -47.09 -63.14 -69.13 -37.03 -59.08 -67.02 -55.02 -39.15 -55.02 -37.03 -23.1 -45.15 5.996
3.41 -67.02 -11.11 -27.16 -37.03 -57.14 -69.13 -21.16 -37.03 -61.02 -57.14 -29.1 -25.04 -21.16 -25.04 -27.16 9.876
3.415 -49.03 0.8818 -17.11 -19.05 -47.09 -65.08 -7.054 -11.11 -49.03 -53.08 -21.16 3.88 0.8818 -31.04 -13.05 13.93
3.42 -25.04 16.93 -7.054 -3.174 -31.04 -55.02 0.8818 7.936 -31.04 -43.03 -15.17 31.92 15.87 -37.03 0.8818 11.99
3.425 -7.054 26.98 -1.058 3.88 -15.17 -41.09 1.94 23.98 -15.17 -33.15 -11.11 49.91 31.92 -39.15 13.93 3.88
3.43 3.88 28.92 0.8818 11.99 0.8818 -29.1 5.996 33.86 -3.174 -23.1 -9.17 57.84 37.92 -37.03 31.92 -7.054
3.435 13.93 26.98 0 17.99 9.876 -19.05 13.93 37.92 0 -15.17 -5.114 59.96 33.86 -33.15 45.85 -25.04
3.44 19.93 24.87 5.996 21.87 17.99 -15.17 19.93 37.92 3.88 -7.054 0.8818 55.9 21.87 -29.1 47.97 -39.15
3.445 21.87 26.98 11.99 27.86 21.87 -13.05 25.92 35.98 1.94 -7.054 3.88 47.97 5.996 -29.1 35.98 -51.14
3.45 23.98 34.92 19.93 33.86 19.93 -15.17 29.98 29.98 0 -9.17 13.93 37.92 -5.114 -33.15 17.99 -57.14
3.455 23.98 42.85 25.92 35.98 17.99 -17.11 29.98 23.98 -1.058 -13.05 21.87 23.98 -23.1 -39.15 2.998 -61.02
3.46 23.98 42.85 23.98 33.86 13.93 -15.17 25.92 11.99 -9.17 -15.17 23.98 7.936 -41.09 -45.15 -3.174 -63.14
3.465 23.98 36.86 17.99 25.92 13.93 -11.11 17.99 -2.116 -20.1 -17.11 17.99 -6.172 -57.14 -45.15 -4.056 -65.08
3.47 21.87 26.98 7.936 15.87 11.99 -7.054 5.996 -12.17 -32.1 -15.17 5.996 -26.1 -71.07 -39.15 -6.172 -63.14
3.475 19.93 16.93 -2.116 5.996 9.876 -1.058 -2.116 -29.1 -41.09 -11.11 -5.114 -51.14 -79.01 -27.16 -11.11 -55.02
3.48 15.87 10.93 -3.174 0 7.936 0.8818 -7.054 -38.09 -44.09 -9.17 -15.17 -62.08 -76.01 -15.17 -14.11 -40.03
3.485 13.93 8.994 -5.114 -2.116 7.936 -2.116 -11.11 -40.03 -40.03 -5.114 -21.16 -68.07 -66.13 -1.058 -13.05 -20.1
3.49 17.99 14.99 -1.058 5.996 13.93 0 -13.05 -35.09 -31.04 -2.116 -21.16 -65.08 -45.15 0 -17.11 -2.116
3.495 20.99 18.87 -2.116 14.99 28.92 5.996 -14.11 -20.1 -11.11 9.876 -19.05 -52.02 -20.1 6.878 -15.17 22.93
3.5 28.92 18.87 3.88 22.93 36.86 12.87 -16.05 -9.17 -2.116 17.99 -17.11 -37.03 1.94 10.93 -21.16 38.97
3.505 31.92 14.99 9.876 27.86 37.92 17.99 -13.05 -1.058 11.99 23.98 -17.11 -25.04 13.93 9.876 -25.04 47.97
3.51 36.86 14.99 22.93 34.92 34.92 20.99 1.94 9.876 20.99 23.98 -10.05 -3.174 33.86 16.93 -17.11 52.91
3.515 38.97 18.87 32.98 40.91 30.86 20.99 18.87 32.98 31.92 23.98 0.8818 26.98 53.96 26.98 0.8818 57.84
3.52 37.92 24.87 45.85 49.91 31.92 21.87 41.97 59.96 45.85 31.92 23.98 65.96 81.83 37.92 29.98 55.9
3.525 41.97 28.92 54.85 59.96 45.85 26.98 67.9 94 69.84 43.91 48.85 112 110.9 49.91 71.95 54.85
3.53 43.91 28.92 52.91 63.84 61.9 35.98 77.95 116.9 94 59.96 62.96 149.9 130 49.91 109.9 48.85
3.535 47.97 20.99 43.91 65.96 77.95 39.86 75.83 125.9 109.9 71.95 65.96 161.9 136 43.91 130 39.86
3.54 49.91 8.994 34.92 62.96 84.83 41.97 70.89 115.9 113.9 71.95 58.9 157 127.9 30.86 127 28.92
3.545 52.91 -1.058 27.86 56.96 77.95 37.92 61.9 97 103.9 60.84 48.85 136.9 106.9 21.87 106 15.87
3.55 50.97 -3.174 22.93 48.85 63.84 28.92 53.96 78.83 79.89 42.85 40.91 109.9 79.89 13.93 74.95 6.878
3.555 50.97 -5.114 17.99 38.97 47.97 25.92 45.85 60.84 57.84 24.87 34.92 80.95 50.97 7.936 43.91 -1.058
3.56 47.97 -7.054 6.878 25.92 40.91 25.92 32.98 43.91 37.92 11.99 28.92 52.91 21.87 4.938 18.87 -12.17
3.565 47.97 -13.05 -9.17 13.93 37.92 27.86 13.93 25.92 25.92 9.876 21.87 25.92 -1.058 -1.058 1.94 -25.04
3.57 47.97 -21.16 -26.1 1.94 41.97 35.98 -1.058 4.938 21.87 11.99 12.87 0 -21.16 -11.11 -1.058 -34.04
3.575 47.97 -31.04 -42.15 -1.058 47.97 36.86 -17.11 -11.11 15.87 17.99 2.998 -25.04 -34.04 -15.17 -5.114 -34.04
3.58 43.91 -41.09 -47.09 -9.17 45.85 31.92 -33.15 -29.1 9.876 15.87 -5.114 -47.09 -41.09 -19.05 -11.11 -25.04
3.585 42.85 -45.15 -38.09 -6.172 42.85 24.87 -36.15 -36.15 3.88 11.99 -10.05 -58.02 -35.09 -10.05 -19.05 0.8818
3.59 38.97 -41.09 -24.16 -1.058 36.86 14.99 -32.1 -33.15 -1.058 9.876 -12.17 -59.08 -15.17 0.8818 -25.04 22.93
3.595 31.92 -35.09 -13.05 7.936 33.86 7.936 -29.1 -23.1 1.94 13.93 -17.11 -51.14 1.94 17.99 -29.1 47.97
3.6 28.92 -23.1 -5.114 20.99 28.92 8.994 -24.16 -7.054 13.93 21.87 -19.05 -37.03 30.86 32.98 -29.1 70.89
3.605 22.93 -15.17 -1.058 26.98 26.98 11.99 -22.04 -1.058 33.86 31.92 -23.1 -26.1 56.96 40.91 -23.1 84.83
3.61 19.93 -7.054 1.94 25.92 23.98 15.87 -21.16 7.936 45.85 39.86 -27.16 -15.17 75.83 37.92 -19.05 87.83
3.615 17.99 -5.114 9.876 25.92 21.87 13.93 -15.17 16.93 52.91 37.92 -27.16 0 84.83 27.86 -11.11 84.83
3.62 19.93 -5.114 17.99 27.86 17.99 9.876 -1.058 28.92 50.97 29.98 -23.1 8.994 82.89 17.99 -6.172 74.95
3.625 19.93 -9.17 27.86 33.86 11.99 3.88 11.99 43.91 45.85 19.93 -13.05 25.92 71.95 15.87 -2.116 53.96
3.63 15.87 -11.11 33.86 41.97 11.99 -2.116 31.92 58.9 42.85 17.99 0.8818 48.85 63.84 17.99 10.93 29.98
3.635 9.876 -7.054 37.92 47.97 11.99 -2.116 45.85 71.95 44.97 17.99 9.876 66.84 59.96 19.93 24.87 5.996
3.64 3.88 -3.174 37.92 47.97 11.99 0 53.96 77.95 47.97 17.99 23.98 79.89 55.9 21.87 33.86 -7.054
3.645 0.8818 -3.174 31.92 37.92 7.936 -2.116 53.96 75.83 49.91 11.99 31.92 83.95 51.85 13.93 36.86 -17.11
3.65 -7.054 -9.17 21.87 19.93 -2.116 -9.17 43.91 65.96 41.97 -2.116 35.98 75.83 37.92 0 31.92 -23.1
3.655 -17.11 -21.16 9.876 -2.116 -13.05 -27.16 31.92 47.97 23.98 -19.05 33.86 59.96 15.87 -13.05 23.98 -31.04
3.66 -27.16 -35.09 -2.116 -17.11 -29.1 -47.09 17.99 25.92 -2.116 -39.15 29.98 39.86 -7.054 -29.1 15.87 -39.15
3.665 -35.09 -45.15 -3.174 -27.16 -41.09 -59.08 7.936 7.936 -21.16 -51.14 27.86 19.93 -37.03 -39.15 9.876 -49.03
3.67 -35.09 -45.15 -7.054 -29.1 -41.09 -57.14 1.94 -3.174 -37.03 -53.08 25.92 3.88 -57.14 -45.15 5.996 -51.14
3.675 -27.16 -37.03 -7.054 -23.1 -33.15 -47.09 0.8818 -11.11 -43.03 -47.09 25.92 -5.114 -65.08 -45.15 1.94 -41.09
3.68 -13.05 -27.16 -7.054 -13.05 -19.05 -35.09 -3.174 -15.17 -37.03 -35.09 21.87 -17.11 -57.14 -37.03 -1.058 -19.05
3.685 0 -19.05 -5.114 -3.174 -5.114 -23.1 -7.054 -17.11 -27.16 -23.1 13.93 -27.16 -43.03 -23.1 -13.05 5.996
3.69 11.99 -13.05 -1.058 1.94 1.94 -17.11 -11.11 -15.17 -13.05 -9.17 1.94 -33.15 -23.1 -3.174 -23.1 33.86
3.695 19.93 -7.054 1.94 13.93 11.99 -11.11 -9.17 -11.11 -1.058 -2.116 -1.058 -35.09 -3.174 7.936 -25.04 53.96
3.7 21.87 -3.174 9.876 25.92 21.87 -3.174 -3.174 -3.174 7.936 7.936 -5.114 -29.1 9.876 17.99 -21.16 67.9
3.705 21.87 0.8818 13.93 35.98 31.92 -2.116 1.94 3.88 19.93 15.87 -3.174 -19.05 25.92 21.87 -11.11 73.89
3.71 19.93 2.998 13.93 41.97 42.85 1.94 11.99 15.87 30.86 20.99 -2.116 -3.174 40.91 20.99 -2.116 75.83
3.715 17.99 6.878 9.876 41.97 46.91 -2.116 16.93 25.92 40.91 20.99 1.94 7.936 54.85 18.87 -1.058 72.83
3.72 15.87 4.938 5.996 37.92 45.85 -5.114 15.87 33.86 47.97 15.87 1.94 19.93 61.9 13.93 0 59.96
3.725 13.93 2.998 7.936 33.86 40.91 -12.17 14.99 36.86 50.97 12.87 0 30.86 64.9 12.87 8.994 44.97
3.73 11.99 4.938 13.93 29.98 34.92 -12.17 12.87 38.97 50.97 10.93 0 40.91 60.84 6.878 22.93 24.87
3.735 9.876 6.878 19.93 25.92 27.86 -7.054 13.93 35.98 45.85 11.99 3.88 45.85 49.91 1.94 39.86 11.99
3.74 6.878 12.87 22.93 21.87 23.98 0 16.93 32.98 41.97 15.87 11.99 52.91 43.91 0 57.84 2.998
3.745 -1.058 16.93 16.93 13.93 15.87 0 18.87 26.98 39.86 11.99 15.87 54.85 35.98 -3.174 57.84 0.8818
3.75 -5.114 16.93 7.936 5.996 3.88 -11.11 11.99 21.87 31.92 1.94 13.93 51.85 27.86 -7.054 43.91 -11.11
3.755 -8.112 12.87 -1.058 0.8818 -4.056 -23.1 3.88 13.93 22.93 -6.172 3.88 43.91 16.93 -14.11 24.87 -27.16
3.76 -14.11 -1.058 0 -13.05 -20.1 -31.04 0.8818 0 5.996 -17.11 0 23.98 2.998 -19.05 7.936 -46.03
3.765 -19.05 -11.11 0.8818 -23.1 -37.03 -33.15 -1.058 -7.054 -5.114 -25.04 -7.054 3.88 -13.05 -25.04 0.8818 -67.02
3.77 -22.04 -21.16 1.94 -30.16 -48.15 -28.04 -3.174 -16.05 -21.16 -27.16 -6.172 -10.05 -30.16 -23.1 -2.116 -79.01
3.775 -25.04 -27.16 -3.174 -40.03 -59.08 -23.1 -8.112 -27.16 -35.09 -28.04 -6.172 -29.1 -45.15 -21.16 -4.056 -82.01
3.78 -31.04 -31.04 -11.11 -47.09 -65.08 -21.16 -13.05 -37.03 -51.14 -33.15 -5.114 -45.15 -57.14 -23.1 -11.11 -73.01
3.785 -35.09 -31.04 -18.16 -54.14 -68.07 -24.16 -17.11 -45.15 -59.08 -38.09 -5.114 -53.08 -59.08 -23.1 -14.11 -54.14
3.79 -37.03 -31.04 -25.04 -56.08 -69.13 -30.16 -21.16 -47.09 -60.14 -45.15 -3.174 -52.02 -55.02 -27.16 -10.05 -30.16
3.795 -35.09 -33.15 -25.04 -58.02 -68.07 -30.16 -17.11 -43.03 -51.14 -40.03 -1.058 -44.09 -38.09 -27.16 0 -5.114
3.8 -33.15 -37.03 -21.16 -54.14 -59.08 -24.16 -11.11 -35.09 -36.15 -29.1 9.876 -24.16 -15.17 -15.17 20.99 8.994
3.805 -33.15 -41.09 -16.05 -46.03 -48.15 -16.05 -1.058 -21.16 -19.05 -10.05 21.87 -3.174 9.876 1.94 42.85 22.93
3.81 -31.04 -43.03 -13.05 -41.09 -37.03 -9.17 0.8818 -9.17 -1.058 -2.116 25.92 11.99 29.98 13.93 53.96 25.92
3.815 -23.1 -39.15 -15.17 -34.04 -29.1 -3.174 0 0.8818 7.936 10.93 20.99 17.99 41.97 27.86 50.97 22.93
3.82 -14.11 -39.15 -15.17 -28.04 -22.04 1.94 -3.174 0 7.936 17.99 10.93 18.87 44.97 33.86 36.86 21.87
3.825 0.8818 -33.15 -15.17 -21.16 -19.05 0 -9.17 -1.058 9.876 23.98 -2.116 11.99 43.91 31.92 21.87 17.99
3.83 12.87 -23.1 -6.172 -9.17 -8.112 7.936 -7.054 0 15.87 33.86 -2.116 9.876 46.91 29.98 23.98 24.87
3.835 24.87 -13.05 1.94 0 2.998 17.99 -3.174 9.876 24.87 36.86 -3.174 15.87 50.97 28.92 28.92 31.92
3.84 27.86 -7.054 0 9.876 15.87 17.99 0.8818 15.87 35.98 35.98 0.8818 15.87 51.85 27.86 35.98 35.98
3.845 24.87 -3.174 2.998 15.87 21.87 14.99 0.8818 20.99 37.92 27.86 -3.174 20.99 51.85 21.87 37.92 27.86
3.85 12.87 2.998 1.94 9.876 13.93 8.994 0.8818 16.93 27.86 17.99 -7.054 10.93 33.86 17.99 29.98 4.938
3.855 0 -3.174 -5.114 0 -2.116 0 -2.116 3.88 11.99 1.94 -11.11 -1.058 5.996 7.936 11.99 -19.05
3.86 -3.174 -5.114 -5.114 -3.174 -14.11 -2.116 0.8818 -2.116 -4.056 -2.116 -11.11 -20.1 -14.11 -1.058 -1.058 -44.09
3.865 -7.054 -3.174 -1.058 -7.054 -24.16 -6.172 0.8818 -12.17 -20.1 -8.112 -7.054 -34.04 -38.09 -6.172 -6.172 -66.13
3.87 -5.114 0.8818 1.94 -3.174 -27.16 -7.054 0 -15.17 -27.16 -11.11 -1.058 -39.15 -53.08 -17.11 -13.05 -81.12
3.875 -1.058 10.93 7.936 0 -20.1 -7.054 0.8818 -9.17 -26.1 -16.05 -2.116 -33.15 -56.08 -26.1 -14.11 -90.12
3.88 0 16.93 11.99 7.936 -10.05 -7.054 -2.116 0.8818 -20.1 -18.16 1.94 -21.16 -50.09 -30.16 -16.05 -97.17
3.885 7.936 18.87 11.99 9.876 -3.174 -3.174 -2.116 3.88 -11.11 -15.17 3.88 -5.114 -39.15 -31.04 -13.05 -95.06
3.89 11.99 18.87 7.936 5.996 0.8818 0.8818 -2.116 9.876 -3.174 -7.054 5.996 1.94 -23.1 -21.16 -7.054 -81.12
3.895 9.876 16.93 5.996 0 -1.058 0 0.8818 13.93 1.94 0.8818 7.936 9.876 -7.054 -11.11 0.8818 -59.08
3.9 3.88 10.93 3.88 0.8818 -7.054 1.94 0.8818 11.99 7.936 0 9.876 13.93 1.94 -1.058 5.996 -33.15
3.905 0.8818 8.994 1.94 -3.174 -11.11 0 -1.058 7.936 7.936 -2.116 7.936 13.93 9.876 -2.116 15.87 -7.054
3.91 -7.054 8.994 1.94 -1.058 -15.17 -1.058 -1.058 5.996 3.88 -1.058 3.88 13.93 13.93 0 25.92 7.936
3.915 -7.054 10.93 0 0.8818 -13.05 -3.174 -3.174 3.88 -2.116 -1.058 0 15.87 17.99 3.88 37.92 25.92
3.92 0.8818 14.99 -2.116 0 -9.17 -5.114 -3.174 5.996 0.8818 -2.116 0.8818 19.93 23.98 11.99 47.97 41.97
3.925 5.996 18.87 0.8818 0 -5.114 -3.174 -3.174 5.996 0 7.936 -3.174 17.99 33.86 23.98 47.97 57.84
3.93 13.93 16.93 -3.174 0.8818 -3.174 -2.116 -3.174 3.88 5.996 15.87 -9.17 11.99 41.97 33.86 35.98 69.84
3.935 11.99 10.93 -9.17 -3.174 -5.114 1.94 -3.174 0 11.99 19.93 -15.17 0 43.91 39.86 11.99 73.89
3.94 1.94 -1.058 -11.11 -7.054 -11.11 5.996 -3.174 -3.174 15.87 15.87 -15.17 -5.114 37.92 37.92 -5.114 69.84
3.945 -5.114 -9.17 -11.11 -7.054 -15.17 7.936 -1.058 -7.054 13.93 11.99 -11.11 -11.11 25.92 31.92 -15.17 59.96
3.95 -17.11 -15.17 -5.114 -3.174 -17.11 7.936 0.8818 -5.114 9.876 7.936 -1.058 -13.05 13.93 23.98 -15.17 49.91
3.955 -19.05 -15.17 0 -2.116 -15.17 5.996 0 -3.174 5.996 3.88 1.94 -11.11 1.94 15.87 -11.11 40.91
3.96 -17.11 -9.17 7.936 1.94 -11.11 1.94 0 -3.174 3.88 0 5.996 -17.11 -3.174 5.996 -15.17 24.87
3.965 -11.11 -7.054 13.93 3.88 -9.17 -2.116 -2.116 -9.17 0 -1.058 1.94 -27.16 -17.11 0.8818 -31.04 -2.116
3.97 -7.054 -3.174 15.87 0 -7.054 -2.116 -3.174 -21.16 -2.116 -7.054 -1.058 -39.15 -33.15 -4.056 -55.02 -28.04
3.975 -3.174 -3.174 13.93 0.8818 -7.054 3.88 -9.17 -30.16 -16.05 -11.11 -9.17 -49.03 -51.14 -6.172 -69.13 -58.02
3.98 0.8818 0.8818 11.99 -1.058 -3.174 11.99 -11.11 -37.03 -27.16 -9.17 -13.05 -51.14 -67.02 -7.054 -73.01 -77.07
3.985 5.996 6.878 9.876 0.8818 -2.116 21.87 -13.05 -32.1 -32.1 -9.17 -17.11 -45.15 -73.01 -6.172 -67.02 -75.13
3.99 15.87 18.87 12.87 1.94 7.936 23.98 -9.17 -26.1 -34.04 -9.17 -19.05 -37.03 -73.01 -18.16 -59.08 -67.02
3.995 23.98 28.92 11.99 3.88 9.876 19.93 -11.11 -25.04 -29.1 -13.05 -25.04 -33.15 -69.13 -35.09 -53.08 -57.14
4 23.98 28.92 8.994 6.878 5.996 12.87 -11.11 -24.16 -25.04 -23.1 -29.1 -33.15 -65.08 -52.02 -48.15 -48.15
4.005 15.87 18.87 0.8818 0.8818 -1.058 1.94 -12.17 -30.16 -31.04 -35.09 -29.1 -35.09 -63.14 -65.08 -40.03 -47.09
4.01 -2.116 4.938 -7.054 -5.114 -15.17 -13.05 -17.11 -35.09 -39.15 -43.03 -27.16 -31.04 -63.14 -67.02 -21.16 -53.08
4.015 -11.11 -1.058 -16.05 -12.17 -26.1 -24.16 -22.04 -39.15 -50.09 -46.03 -19.05 -25.04 -58.02 -48.15 0.8818 -47.09
4.02 -21.16 -7.054 -23.1 -18.16 -30.16 -25.04 -20.1 -36.15 -59.08 -40.03 -9.17 -13.05 -46.03 -24.16 30.86 -34.04
4.025 -21.16 -9.17 -29.1 -23.1 -23.1 -27.16 -21.16 -33.15 -55.02 -29.1 -3.174 -3.174 -31.04 -3.174 51.85 -7.054
4.03 -16.05 -9.17 -27.16 -21.16 -16.05 -18.16 -19.05 -25.04 -46.03 -15.17 -1.058 -1.058 -9.17 8.994 64.9 16.93
4.035 -11.11 -15.17 -28.04 -20.1 -12.17 -15.17 -18.16 -24.16 -34.04 -5.114 -7.054 3.88 0.8818 15.87 65.96 43.91
4.04 -15.17 -25.04 -28.04 -19.05 -18.16 -11.11 -19.05 -21.16 -24.16 -5.114 -9.17 0 9.876 20.99 56.96 57.84
4.045 -19.05 -35.09 -28.04 -22.04 -26.1 -17.11 -22.04 -24.16 -20.1 -7.054 -13.05 0.8818 8.994 21.87 42.85 69.84
4.05 -30.16 -39.15 -25.04 -23.1 -30.16 -18.16 -21.16 -23.1 -22.04 -9.17 -9.17 -6.172 9.876 24.87 28.92 72.83
4.055 -33.15 -37.03 -23.1 -25.04 -27.16 -19.05 -17.11 -25.04 -27.16 -9.17 -5.114 -11.11 7.936 27.86 13.93 73.89
4.06 -31.04 -27.16 -13.05 -20.1 -14.11 -13.05 -10.05 -26.1 -23.1 0 0.8818 -15.17 8.994 30.86 6.878 66.84
4.065 -17.11 -11.11 -2.116 -10.05 1.94 -6.172 0 -25.04 -16.05 2.998 0 -17.11 8.994 32.98 0.8818 53.96
4.07 -2.116 -1.058 5.996 0 13.93 0 5.996 -17.11 -7.054 9.876 0 -13.05 1.94 25.92 -2.116 25.92
4.075 19.93 14.99 28.92 22.93 29.98 12.87 20.99 -4.056 0 13.93 3.88 -7.054 -2.116 23.98 -4.056 0
4.08 39.86 30.86 46.91 44.97 47.97 20.99 31.92 10.93 11.99 19.93 5.996 0 -1.058 18.87 -16.05 -22.04
4.085 55.9 46.91 61.9 63.84 65.96 31.92 43.91 31.92 21.87 27.86 9.876 11.99 0.8818 13.93 -35.09 -33.15
4.09 67.9 64.9 72.83 77.95 83.95 39.86 57.84 54.85 38.97 37.92 15.87 25.92 1.94 14.99 -47.09 -33.15
4.095 73.89 80.95 79.89 87.83 95.94 49.91 65.96 68.96 50.97 43.91 21.87 39.86 13.93 10.93 -45.15 -19.05
4.1 73.89 86.94 81.83 91.88 99.99 55.9 73.89 75.83 59.96 47.97 25.92 53.96 23.98 9.876 -27.16 -3.174
4.105 71.95 91 81.83 94 101.9 59.96 79.89 78.83 68.96 49.91 29.98 65.96 35.98 16.93 1.94 14.99
4.11 67.9 88.88 83.95 97.88 101.9 65.96 81.83 81.83 72.83 55.9 37.92 75.83 47.97 32.98 31.92 38.97
4.115 67.9 88.88 87.83 101.9 106 73.89 83.95 83.95 75.83 67.9 47.97 83.95 61.9 55.9 51.85 61.9
4.12 67.9 88.88 91.88 106 112 79.89 87.83 87.83 81.83 85.89 57.84 87.83 75.83 81.83 57.84 86.94
4.125 67.9 91 94 101.9 109.9 81.83 87.83 87.83 87.83 97.88 63.84 89.94 85.89 95.94 57.84 100.9
4.13 63.84 88.88 87.83 89.94 97.88 75.83 81.83 81.83 87.83 95.94 61.9 85.89 85.89 95.94 59.96 103.9
4.135 53.96 80.95 77.95 71.95 75.83 61.9 73.89 69.84 77.95 77.95 59.96 77.95 77.95 81.83 67.9 97.88
4.14 41.97 60.84 63.84 49.91 49.91 47.97 61.9 53.96 59.96 57.84 57.84 69.84 61.9 65.96 87.83 91.88
4.145 31.92 40.91 51.85 31.92 27.86 39.86 51.85 39.86 37.92 41.97 59.96 59.96 47.97 57.84 106 85.89
4.15 23.98 28.92 45.85 19.93 13.93 39.86 43.91 31.92 19.93 35.98 65.96 51.85 37.92 59.96 115.9 87.83
4.155 21.87 26.98 43.91 17.99 9.876 43.91 41.97 29.98 11.99 39.86 71.95 45.85 35.98 67.9 115.9 91.88
4.16 21.87 32.98 45.85 21.87 13.93 47.97 41.97 29.98 11.99 45.85 75.83 43.91 37.92 73.89 109.9 91.88
4.165 23.98 42.85 45.85 29.98 21.87 47.97 43.91 33.86 17.99 47.97 73.89 45.85 45.85 69.84 95.94 85.89
4.17 27.86 48.85 47.97 37.92 33.86 45.85 45.85 35.98 27.86 49.91 69.84 49.91 53.96 59.96 79.89 69.84
4.175 33.86 50.97 49.91 47.97 47.97 45.85 49.91 41.97 37.92 51.85 63.84 49.91 61.9 51.85 59.96 47.97
4.18 41.97 54.85 53.96 57.84 65.96 51.85 55.9 49.91 47.97 55.9 61.9 47.97 63.84 49.91 39.86 27.86
4.185 51.85 60.84 61.9 69.84 81.83 63.84 63.84 59.96 61.9 63.84 59.96 43.91 63.84 51.85 21.87 11.99
4.19 61.9 68.96 69.84 79.89 97.88 75.83 69.84 69.84 75.83 69.84 57.84 39.86 61.9 55.9 7.936 5.996
4.195 69.84 74.95 75.83 87.83 112 85.89 73.89 79.89 87.83 75.83 57.84 41.97 61.9 53.96 -1.058 7.936
4.2 75.83 78.83 75.83 91.88 118 87.83 73.89 85.89 99.99 77.95 55.9 47.97 61.9 49.91 -13.05 11.99
4.205 75.83 72.83 71.95 91 118 83.95 67.9 87.83 103.9 77.95 47.97 51.85 63.84 45.85 -28.04 15.87
4.21 67.9 56.96 61.9 79.89 107.9 71.95 55.9 81.83 97.88 73.89 35.98 49.91 61.9 43.91 -39.15 19.93
4.215 51.85 42.85 47.97 66.84 87.83 59.96 41.97 67.9 81.83 62.96 19.93 37.92 53.96 44.97 -36.15 21.87
4.22 32.98 30.86 31.92 46.91 63.84 47.97 25.92 49.91 59.96 48.85 1.94 21.87 41.97 46.91 -22.04 25.92
4.225 9.876 16.93 13.93 27.86 39.86 37.92 9.876 29.98 37.92 31.92 -7.054 3.88 29.98 43.91 0.8818 31.92
4.23 0 2.998 -2.116 12.87 21.87 33.86 1.94 13.93 22.93 26.98 -12.17 0.8818 24.87 44.97 16.93 42.85
4.235 -12.17 -7.054 -13.05 0.8818 13.93 29.98 -8.112 3.88 12.87 26.98 -12.17 -2.116 26.98 46.91 30.86 50.97
4.24 -19.05 -31.04 -25.04 -5.114 5.996 27.86 -15.17 1.94 11.99 31.92 -5.114 5.996 37.92 47.97 37.92 51.85
4.245 -24.16 -51.14 -32.1 -15.17 0.8818 19.93 -18.16 2.998 14.99 35.98 0.8818 15.87 46.91 51.85 47.97 50.97
4.25 -34.04 -67.02 -36.15 -25.04 -9.17 9.876 -20.1 2.998 10.93 33.86 8.994 23.98 46.91 47.97 53.96 44.97
4.255 -43.03 -79.01 -39.15 -33.15 -17.11 0 -21.16 0 1.94 19.93 13.93 25.92 39.86 35.98 63.84 29.98
4.26 -47.09 -75.13 -34.04 -31.04 -20.1 0 -17.11 -1.058 -3.174 8.994 19.93 21.87 29.98 20.99 67.9 15.87
4.265 -44.09 -67.02 -28.04 -28.04 -14.11 -4.056 -17.11 1.94 -13.05 1.94 17.99 13.93 13.93 7.936 54.85 0
4.27 -35.09 -59.08 -23.1 -21.16 -9.17 -3.174 -15.17 -1.058 -19.05 -7.054 15.87 5.996 1.94 -1.058 39.86 -13.05
4.275 -27.16 -49.03 -14.11 -15.17 -1.058 -4.056 -10.05 1.94 -18.16 -10.05 13.93 -1.058 -1.058 -7.054 29.98 -25.04
4.28 -26.1 -43.03 -5.114 -13.05 -3.174 -8.112 -5.114 -1.058 -14.11 -12.17 14.99 -2.116 -6.172 -7.054 14.99 -33.15
4.285 -29.1 -41.09 1.94 -17.11 -9.17 -16.05 -3.174 0 -12.17 -13.05 12.87 -12.17 -12.17 -9.17 0.8818 -35.09
4.29 -36.15 -37.03 0.8818 -21.16 -9.17 -28.04 -1.058 1.94 -12.17 -20.1 6.878 -26.1 -18.16 -19.05 -22.04 -39.15
4.295 -43.03 -33.15 0 -25.04 -11.11 -38.09 -8.112 -4.056 -18.16 -26.1 -2.116 -46.03 -29.1 -27.16 -63.14 -37.03
4.3 -51.14 -27.16 -7.054 -31.04 -13.05 -43.03 -19.05 -15.17 -25.04 -29.1 -9.17 -69.13 -39.15 -35.09 -105.1 -35.09
4.305 -54.14 -19.05 -8.112 -30.16 -14.11 -42.15 -29.1 -24.16 -31.04 -32.1 -21.16 -83.06 -49.03 -31.04 -130.2 -27.16
4.31 -55.02 -15.17 -10.05 -27.16 -18.16 -42.15 -33.15 -30.16 -31.04 -30.16 -29.1 -85 -51.14 -26.1 -129.1 -19.05
4.315 -59.08 -17.11 -11.11 -31.04 -27.16 -41.09 -31.04 -31.04 -31.04 -29.1 -31.04 -75.13 -49.03 -21.16 -107 -11.11
4.32 -60.14 -23.1 -12.17 -31.04 -33.15 -47.09 -24.16 -24.16 -30.16 -27.16 -24.16 -55.02 -34.04 -21.16 -69.13 -4.056
4.325 -64.02 -33.15 -16.05 -35.09 -37.03 -53.08 -20.1 -20.1 -28.04 -29.1 -18.16 -35.09 -18.16 -27.16 -35.09 1.94
4.33 -69.13 -43.03 -25.04 -43.03 -39.15 -57.14 -23.1 -19.05 -27.16 -35.09 -11.11 -21.16 -9.17 -37.03 -13.05 -2.116
4.335 -68.07 -47.09 -35.09 -46.03 -41.09 -57.14 -28.04 -19.05 -28.04 -36.15 -6.172 -13.05 -2.116 -38.09 0 0.8818
4.34 -66.13 -47.09 -43.03 -50.09 -43.03 -49.03 -36.15 -23.1 -26.1 -34.04 -4.056 -11.11 0 -30.16 6.878 0.8818
4.345 -57.14 -45.15 -43.03 -53.08 -45.15 -39.15 -37.03 -25.04 -21.16 -27.16 -7.054 -7.054 -1.058 -17.11 19.93 0
4.35 -44.09 -37.03 -35.09 -48.15 -43.03 -31.04 -31.04 -23.1 -17.11 -16.05 -3.174 0.8818 0.8818 -6.172 34.92 0
4.355 -33.15 -29.1 -23.1 -38.09 -37.03 -25.04 -21.16 -15.17 -13.05 -10.05 0 5.996 -2.116 -2.116 48.85 1.94
4.36 -25.04 -27.16 -13.05 -31.04 -31.04 -23.1 -7.054 -5.114 -13.05 -9.17 11.99 15.87 1.94 -7.054 57.84 3.88
4.365 -23.1 -17.11 -5.114 -22.04 -25.04 -21.16 0 0 -13.05 -9.17 23.98 23.98 5.996 -9.17 60.84 7.936
4.37 -21.16 -7.054 -3.174 -15.17 -19.05 -15.17 7.936 7.936 -13.05 -7.054 31.92 27.86 7.936 -3.174 57.84 9.876
4.375 -15.17 -1.058 0.8818 -5.114 -9.17 -5.114 13.93 11.99 -9.17 0.8818 35.98 25.92 9.876 5.996 49.91 9.876
4.38 -3.174 10.93 3.88 3.88 0 1.94 17.99 17.99 0.8818 9.876 35.98 23.98 15.87 19.93 33.86 3.88
4.385 5.996 18.87 13.93 17.99 17.99 13.93 23.98 23.98 11.99 29.98 33.86 21.87 23.98 27.86 7.936 0.8818
4.39 21.87 26.98 23.98 31.92 35.98 21.87 29.98 27.86 27.86 45.85 29.98 19.93 27.86 29.98 -15.17 -5.114
4.395 31.92 32.98 27.86 39.86 43.91 23.98 31.92 27.86 39.86 51.85 21.87 13.93 25.92 27.86 -37.03 -9.17
4.4 31.92 34.92 25.92 39.86 43.91 21.87 31.92 23.98 41.97 45.85 13.93 1.94 19.93 23.98 -51.14 -7.054
4.405 25.92 34.92 19.93 35.98 35.98 11.99 27.86 15.87 35.98 31.92 3.88 -7.054 7.936 19.93 -53.08 -3.174
4.41 13.93 28.92 17.99 27.86 21.87 0 23.98 9.876 19.93 15.87 0 -19.05 -2.116 17.99 -49.03 -1.058
4.415 1.94 18.87 15.87 19.93 9.876 -5.114 19.93 5.996 3.88 0 -1.058 -25.04 -3.174 11.99 -43.03 0.8818
4.42 -7.054 6.878 15.87 15.87 0 -11.11 17.99 5.996 -5.114 -5.114 0.8818 -25.04 -7.054 3.88 -37.03 0.8818
4.425 -17.11 0.8818 15.87 13.93 -5.114 -15.17 15.87 3.88 -11.11 -11.11 -2.116 -19.05 -7.054 0.8818 -33.15 0.8818
4.43 -23.1 -3.174 9.876 7.936 -13.05 -17.11 13.93 3.88 -13.05 -15.17 1.94 -11.11 -5.114 -3.174 -27.16 -2.116
4.435 -29.1 -3.174 3.88 1.94 -21.16 -19.05 9.876 0 -11.11 -17.11 3.88 -5.114 -1.058 -3.174 -17.11 1.94
4.44 -35.09 -5.114 -2.116 0.8818 -29.1 -19.05 3.88 0.8818 -11.11 -23.1 7.936 -1.058 -2.116 -1.058 -1.058 5.996
4.445 -41.09 -7.054 -3.174 -7.054 -37.03 -21.16 -2.116 -5.114 -15.17 -27.16 11.99 0.8818 0 -3.174 11.99 7.936
4.45 -47.09 -13.05 -7.054 -15.17 -45.15 -22.04 -3.174 -11.11 -21.16 -29.1 15.87 -2.116 -2.116 -11.11 25.92 5.996
4.455 -55.02 -21.16 -17.11 -27.16 -51.14 -25.04 -9.17 -17.11 -31.04 -31.04 17.99 0.8818 -3.174 -21.16 29.98 1.94
4.46 -58.02 -25.04 -29.1 -39.15 -59.08 -26.1 -15.17 -27.16 -39.15 -29.1 15.87 -5.114 -11.11 -27.16 22.93 2.998
4.465 -56.08 -25.04 -39.15 -49.03 -63.14 -30.16 -21.16 -35.09 -47.09 -29.1 11.99 -13.05 -21.16 -27.16 8.994 4.938
4.47 -49.03 -19.05 -41.09 -53.08 -61.02 -29.1 -27.16 -39.15 -49.03 -27.16 1.94 -21.16 -27.16 -17.11 -7.054 7.936
4.475 -32.1 -5.114 -33.15 -47.09 -49.03 -20.1 -27.16 -39.15 -50.09 -21.16 0.8818 -24.16 -27.16 -4.056 -18.16 12.87
4.48 -18.16 0.8818 -19.05 -35.09 -33.15 -10.05 -19.05 -33.15 -42.15 -9.17 -3.174 -20.1 -19.05 8.994 -18.16 14.99
4.485 -11.11 4.938 -5.114 -19.05 -19.05 -1.058 -7.054 -23.1 -31.04 -2.116 -3.174 -13.05 -9.17 15.87 -13.05 7.936
4.49 -10.05 4.938 -2.116 -9.17 -10.05 -2.116 0 -15.17 -20.1 8.994 0.8818 -6.172 -3.174 18.87 -3.174 1.94
4.495 -9.17 0.8818 0 -3.174 -6.172 0.8818 9.876 -7.054 -12.17 14.99 0 -4.056 -3.174 18.87 -7.054 -7.054
4.5 -9.17 -1.058 3.88 -2.116 -9.17 -3.174 13.93 -7.054 -11.11 15.87 3.88 -9.17 -11.11 15.87 -21.16 -15.17
4.505 -2.116 0.8818 7.936 2.998 -6.172 -3.174 15.87 -9.17 -11.11 14.99 3.88 -15.17 -20.1 15.87 -42.15 -19.05
4.51 0.8818 6.878 13.93 12.87 0 -2.116 13.93 -8.112 -17.11 12.87 0 -27.16 -30.16 15.87 -57.14 -18.16
4.515 1.94 12.87 21.87 23.98 1.94 0.8818 11.99 -11.11 -15.17 9.876 0 -33.15 -33.15 19.93 -57.14 -17.11
4.52 2.998 14.99 21.87 29.98 6.878 0.8818 14.99 -10.05 -11.11 9.876 1.94 -26.1 -23.1 18.87 -38.09 -14.11
4.525 0.8818 6.878 16.93 24.87 8.994 -5.114 14.99 -7.054 -4.056 8.994 3.88 -17.11 -13.05 11.99 -13.05 -18.16
4.53 -6.172 -1.058 2.998 13.93 3.88 -17.11 11.99 -4.056 1.94 3.88 7.936 -5.114 1.94 3.88 5.996 -17.11
4.535 -7.054 -9.17 -6.172 0.8818 -1.058 -27.16 2.998 -3.174 1.94 1.94 7.936 -2.116 7.936 0.8818 7.936 -14.11
4.54 -4.056 -11.11 -17.11 -5.114 0 -31.04 -2.116 -4.056 -3.174 -3.174 3.88 2.998 11.99 0 0.8818 -6.172
4.545 0.8818 -11.11 -19.05 -13.05 -3.174 -33.15 -9.17 -5.114 -5.114 -3.174 -2.116 1.94 13.93 -2.116 -1.058 1.94
4.55 2.998 -5.114 -15.17 -10.05 -2.116 -28.04 -9.17 -2.116 -5.114 -2.116 0 3.88 18.87 3.88 0 16.93
4.555 4.938 2.998 -7.054 -4.056 1.94 -23.1 0.8818 -2.116 1.94 -1.058 7.936 17.99 28.92 7.936 24.87 27.86
4.56 9.876 2.998 -2.116 -2.116 0 -19.05 9.876 7.936 13.93 1.94 19.93 31.92 37.92 3.88 55.9 37.92
4.565 15.87 8.994 5.996 3.88 4.938 -11.11 19.93 17.99 28.92 8.994 31.92 50.97 45.85 0.8818 73.89 43.91
4.57 24.87 12.87 9.876 9.876 14.99 -7.054 21.87 25.92 36.86 10.93 31.92 56.96 45.85 1.94 73.89 40.91
4.575 35.98 18.87 13.93 11.99 17.99 0.8818 19.93 27.86 35.98 9.876 25.92 45.85 31.92 -3.174 51.85 31.92
4.58 50.97 22.93 11.99 15.87 21.87 4.938 11.99 19.93 28.92 9.876 13.93 24.87 7.936 -2.116 20.99 14.99
4.585 62.96 28.92 13.93 23.98 23.98 14.99 9.876 11.99 18.87 11.99 3.88 0.8818 -7.054 0 0 -4.056
4.59 69.84 40.91 17.99 29.98 27.86 21.87 11.99 5.996 11.99 13.93 -2.116 -11.11 -23.1 -1.058 -17.11 -27.16
4.595 76.89 54.85 23.98 37.92 35.98 30.86 17.99 5.996 9.876 17.99 -2.116 -15.17 -27.16 0.8818 -20.1 -38.09
4.6 80.95 68.96 29.98 39.86 43.91 38.97 23.98 11.99 13.93 25.92 0 -11.11 -19.05 -2.116 -18.16 -39.15
4.605 79.89 74.95 31.92 37.92 49.91 41.97 23.98 15.87 17.99 31.92 -2.116 -5.114 -9.17 1.94 -15.17 -25.04
4.61 75.83 72.83 31.92 29.98 47.97 40.91 17.99 15.87 21.87 33.86 0.8818 -5.114 -1.058 5.996 -11.11 -9.17
4.615 71.95 64.9 31.92 21.87 39.86 33.86 9.876 13.93 19.93 29.98 -3.174 -7.054 -2.116 9.876 -13.05 1.94
4.62 65.96 54.85 29.98 17.99 29.98 23.98 5.996 9.876 15.87 19.93 -1.058 -5.114 -2.116 15.87 -17.11 13.93
4.625 57.84 46.91 31.92 21.87 25.92 15.87 7.936 11.99 9.876 11.99 1.94 -2.116 3.88 19.93 -19.05 25.92
4.63 53.96 46.91 33.86 29.98 27.86 11.99 15.87 21.87 7.936 7.936 9.876 17.99 17.99 23.98 -9.17 35.98
4.635 49.91 44.97 35.98 41.97 33.86 11.99 25.92 37.92 13.93 9.876 21.87 43.91 33.86 23.98 11.99 49.91
4.64 47.97 42.85 39.86 51.85 37.92 15.87 35.98 53.96 21.87 13.93 31.92 67.9 49.91 21.87 47.97 61.9
4.645 45.85 38.97 43.91 57.84 37.92 17.99 41.97 65.96 31.92 15.87 41.97 85.89 59.96 15.87 85.89 67.9
4.65 37.92 34.92 47.97 55.9 33.86 17.99 43.91 69.84 41.97 17.99 49.91 94 59.96 9.876 107.9 63.84
4.655 27.86 30.86 45.85 47.97 25.92 11.99 43.91 65.96 47.97 17.99 53.96 94 55.9 1.94 109.9 51.85
4.66 17.99 24.87 35.98 35.98 21.87 7.936 41.97 55.9 49.91 15.87 49.91 85.89 51.85 0.8818 94 37.92
4.665 9.876 16.93 21.87 27.86 21.87 7.936 33.86 47.97 47.97 17.99 39.86 73.89 45.85 -1.058 69.84 23.98
4.67 5.996 10.93 7.936 21.87 25.92 15.87 21.87 41.97 45.85 21.87 23.98 57.84 41.97 0.8818 49.91 11.99
4.675 7.936 4.938 -2.116 19.93 29.98 25.92 9.876 37.92 43.91 25.92 9.876 35.98 31.92 1.94 34.92 -2.116
4.68 11.99 2.998 -2.116 21.87 29.98 33.86 -2.116 31.92 41.97 29.98 0 11.99 19.93 7.936 20.99 -13.05
4.685 11.99 2.998 3.88 21.87 29.98 35.98 -1.058 23.98 39.86 27.86 0.8818 -3.174 1.94 9.876 1.94 -31.04
4.69 9.876 12.87 11.99 24.87 29.98 29.98 -1.058 19.93 35.98 25.92 0.8818 -17.11 -13.05 3.88 -14.11 -49.03
4.695 7.936 16.93 17.99 22.93 29.98 17.99 1.94 15.87 25.92 17.99 0 -18.16 -29.1 -3.174 -34.04 -59.08
4.7 3.88 20.99 21.87 21.87 27.86 9.876 9.876 15.87 11.99 9.876 1.94 -15.17 -41.09 -19.05 -47.09 -63.14
4.705 3.88 22.93 23.98 24.87 25.92 3.88 15.87 20.99 -2.116 1.94 1.94 -6.172 -47.09 -26.1 -45.15 -61.02
4.71 3.88 24.87 25.92 28.92 23.98 5.996 19.93 26.98 -5.114 0.8818 1.94 1.94 -45.15 -26.1 -39.15 -52.02
4.715 5.996 28.92 25.92 33.86 25.92 9.876 19.93 31.92 -1.058 0.8818 1.94 9.876 -33.15 -17.11 -25.04 -41.09
4.72 3.88 26.98 26.98 37.92 29.98 11.99 17.99 38.97 3.88 0.8818 1.94 20.99 -16.05 -8.112 -10.05 -26.1
4.725 -2.116 18.87 22.93 33.86 31.92 7.936 15.87 44.97 11.99 -1.058 5.996 35.98 1.94 -4.056 0 -8.112
4.73 -5.114 8.994 17.99 27.86 25.92 0 9.876 43.91 17.99 -1.058 7.936 39.86 7.936 -7.054 3.88 3.88
4.735 -10.05 0.8818 14.99 20.99 13.93 -4.056 7.936 41.97 13.93 -8.112 9.876 43.91 16.93 -14.11 10.93 20.99
4.74 -14.11 -9.17 10.93 13.93 -2.116 -12.17 7.936 35.98 5.996 -10.05 11.99 42.85 26.98 -13.05 15.87 35.98
4.745 -21.16 -15.17 7.936 3.88 -13.05 -15.17 9.876 27.86 1.94 -11.11 19.93 41.97 35.98 -7.054 31.92 45.85
4.75 -26.1 -13.05 7.936 2.998 -16.05 -12.17 14.99 28.92 1.94 -4.056 28.92 49.91 51.85 4.938 53.96 55.9
4.755 -28.04 -11.11 3.88 2.998 -10.05 -8.112 16.93 32.98 10.93 1.94 32.98 60.84 66.84 22.93 73.89 60.84
4.76 -29.1 -9.17 0 5.996 -1.058 -1.058 17.99 41.97 23.98 11.99 31.92 75.83 79.89 31.92 91.88 59.96
4.765 -22.04 -3.174 -2.116 13.93 10.93 0.8818 17.99 50.97 36.86 23.98 31.92 87.83 84.83 34.92 98.94 53.96
4.77 -14.11 2.998 0 24.87 24.87 3.88 16.93 54.85 45.85 29.98 25.92 86.94 78.83 33.86 97 38.97
4.775 -7.054 0.8818 5.996 30.86 33.86 10.93 17.99 51.85 48.85 30.86 22.93 76.89 64.9 26.98 83.95 18.87
4.78 1.94 6.878 7.936 36.86 38.97 13.93 16.93 44.97 45.85 35.98 23.98 56.96 48.85 23.98 60.84 1.94
4.785 2.998 10.93 9.876 35.98 47.97 18.87 13.93 32.98 42.85 31.92 27.86 29.98 24.87 14.99 38.97 -23.1
4.79 3.88 18.87 13.93 35.98 51.85 19.93 7.936 19.93 35.98 25.92 23.98 3.88 -2.116 1.94 15.87 -47.09
4.795 10.93 28.92 15.87 36.86 64.9 22.93 -1.058 6.878 28.92 19.93 16.93 -14.11 -22.04 -10.05 -7.054 -70.01
4.8 20.99 36.86 13.93 40.91 74.95 22.93 -4.056 0 19.93 12.87 2.998 -39.15 -51.14 -24.16 -35.09 -91.18
4.805 31.92 48.85 7.936 41.97 77.95 25.92 -13.05 -15.17 7.936 9.876 -11.11 -65.08 -71.07 -25.04 -67.02 -101.1
4.81 40.91 56.96 4.938 43.91 75.83 30.86 -23.1 -25.04 -2.116 14.99 -27.16 -86.06 -82.01 -11.11 -95.06 -99.11
4.815 46.91 62.96 2.998 36.86 71.95 34.92 -33.15 -37.03 -5.114 22.93 -41.09 -99.11 -86.06 4.938 -110 -86.06
4.82 47.97 68.96 -2.116 27.86 63.84 37.92 -37.03 -51.14 -11.11 27.86 -45.15 -105.1 -81.12 19.93 -115.2 -69.13
4.825 45.85 70.89 0.8818 17.99 57.84 35.98 -41.09 -54.14 -15.17 32.98 -47.09 -97.17 -70.01 22.93 -105.1 -46.03
4.83 39.86 74.95 2.998 11.99 49.91 27.86 -37.03 -52.02 -15.17 25.92 -43.03 -84.12 -54.14 6.878 -94.17 -34.04
4.835 27.86 68.96 1.94 5.996 39.86 7.936 -31.04 -45.15 -13.05 13.93 -35.09 -67.02 -39.15 -13.05 -81.12 -27.16
4.84 9.876 58.9 -2.116 0.8818 23.98 -11.11 -25.04 -34.04 -13.05 -3.174 -25.04 -48.15 -25.04 -34.04 -65.08 -22.04
4.845 -9.17 40.91 -5.114 -2.116 3.88 -35.09 -23.1 -26.1 -21.16 -25.04 -17.11 -28.04 -15.17 -46.03 -43.03 -21.16
4.85 -29.1 26.98 -13.05 -13.05 -13.05 -57.14 -21.16 -23.1 -31.04 -47.09 -9.17 -11.11 -13.05 -43.03 -15.17 -11.11
4.855 -43.03 18.87 -19.05 -24.16 -31.04 -69.13 -21.16 -19.05 -41.09 -61.02 0.8818 4.938 -11.11 -33.15 14.99 0
4.86 -47.09 12.87 -23.1 -34.04 -43.03 -71.07 -17.11 -15.17 -45.15 -63.14 3.88 21.87 -3.174 -19.05 46.91 19.93
4.865 -45.15 8.994 -25.04 -41.09 -51.14 -63.14 -11.11 -7.054 -41.09 -51.14 9.876 39.86 7.936 -7.054 65.96 41.97
4.87 -41.09 4.938 -27.16 -45.15 -53.08 -49.03 -7.054 0.8818 -31.04 -33.15 11.99 49.91 25.92 0 72.83 59.96
4.875 -33.15 0.8818 -31.04 -47.09 -53.08 -33.15 -9.17 0 -23.1 -15.17 9.876 49.91 39.86 7.936 70.89 69.84
4.88 -25.04 -3.174 -31.04 -45.15 -49.03 -17.11 -13.05 0 -15.17 -3.174 3.88 41.97 43.91 15.87 65.96 69.84
4.885 -11.11 0.8818 -25.04 -39.15 -39.15 -5.114 -17.11 0.8818 -9.17 -2.116 0 27.86 37.92 19.93 61.9 55.9
4.89 1.94 6.878 -11.11 -25.04 -25.04 0.8818 -13.05 0.8818 -1.058 1.94 1.94 17.99 27.86 21.87 55.9 33.86
4.895 21.87 24.87 3.88 -3.174 -5.114 -2.116 -1.058 0 7.936 7.936 7.936 15.87 21.87 17.99 43.91 5.996
4.9 39.86 46.91 25.92 15.87 7.936 1.94 13.93 13.93 25.92 17.99 17.99 19.93 23.98 11.99 23.98 -19.05
4.905 55.9 70.89 45.85 41.97 27.86 7.936 31.92 31.92 41.97 25.92 23.98 29.98 29.98 0 -2.116 -51.14
4.91 67.9 94.88 61.9 65.96 45.85 17.99 43.91 49.91 53.96 33.86 21.87 33.86 33.86 -9.17 -29.1 -87.12
4.915 81.83 116.9 71.95 85.89 59.96 29.98 47.97 63.84 61.9 35.98 9.876 33.86 29.98 -19.05 -59.08 -119
4.92 94 134.9 81.83 99.99 73.89 37.92 47.97 69.84 63.84 37.92 0.8818 27.86 17.99 -23.1 -87.12 -141.1
4.925 103.9 148.8 85.89 106 81.83 43.91 45.85 69.84 63.84 39.86 -13.05 17.99 5.996 -19.05 -107 -147.1
4.93 112 154.8 83.95 103.9 83.95 45.85 41.97 61.9 63.84 41.97 -19.05 9.876 -2.116 -9.17 -111.1 -133.1
4.935 118 151 73.89 94 83.95 45.85 35.98 47.97 59.96 45.85 -21.16 3.88 0.8818 -2.116 -97.17 -99.11
4.94 118.9 134.9 57.84 75.83 77.95 45.85 21.87 29.98 49.91 47.97 -19.05 0.8818 0.8818 7.936 -75.13 -55.02
4.945 118 116.9 37.92 55.9 69.84 45.85 3.88 5.996 35.98 47.97 -19.05 -9.17 0.8818 15.87 -47.09 -13.05
4.95 115 103 20.99 41.97 61.9 48.85 -9.17 -13.05 19.93 43.91 -16.05 -21.16 -3.174 25.92 -25.04 21.87
4.955 109 88.88 10.93 27.86 51.85 48.85 -20.1 -29.1 10.93 38.97 -12.17 -28.04 -7.054 39.86 -10.05 47.97
4.96 95.94 78.83 5.996 17.99 41.97 47.97 -23.1 -35.09 3.88 33.86 -5.114 -31.04 -7.054 53.96 3.88 71.95
4.965 84.83 72.83 6.878 8.994 31.92 46.91 -16.05 -33.15 6.878 32.98 0.8818 -22.04 -3.174 63.84 28.92 87.83
4.97 75.83 66.84 6.878 2.998 21.87 38.97 -4.056 -29.1 6.878 30.86 16.93 -12.17 -2.116 63.84 52.91 95.94
4.975 65.96 60.84 5.996 -3.174 13.93 29.98 -2.116 -25.04 1.94 29.98 27.86 -5.114 1.94 55.9 65.96 99.99
4.98 61.9 58.9 6.878 -6.172 10.93 25.92 4.938 -25.04 1.94 28.92 37.92 -4.056 3.88 46.91 66.84 95.94
4.985 60.84 50.97 9.876 -4.056 8.994 23.98 10.93 -24.16 -2.116 28.92 39.86 -9.17 3.88 38.97 56.96 87.83
4.99 53.96 50.97 11.99 -1.058 7.936 23.98 11.99 -19.05 -1.058 29.98 33.86 -17.11 3.88 37.92 41.97 79.89
4.995 51.85 50.97 18.87 3.88 6.878 28.92 17.99 -6.172 1.94 29.98 30.86 -15.17 5.996 40.91 35.98 70.89
5 44.97 46.91 24.87 3.88 5.996 27.86 24.87 0.8818 10.93 30.86 29.98 -6.172 11.99 40.91 34.92 60.84
5.005 37.92 40.91 27.86 3.88 1.94 23.98 27.86 9.876 17.99 29.98 29.98 1.94 11.99 31.92 37.92 43.91
5.01 35.98 30.86 28.92 1.94 -1.058 18.87 29.98 15.87 17.99 27.86 31.92 13.93 7.936 20.99 35.98 21.87
5.015 38.97 24.87 28.92 2.998 1.94 12.87 29.98 15.87 11.99 23.98 31.92 20.99 -2.116 8.994 19.93 -1.058
5.02 40.91 20.99 25.92 3.88 0 13.93 27.86 16.93 1.94 19.93 32.98 19.93 -9.17 1.94 0.8818 -25.04
5.025 40.91 22.93 28.92 12.87 4.938 14.99 31.92 19.93 1.94 13.93 35.98 20.99 -19.05 -1.058 -13.05 -45.15
5.03 39.86 30.86 36.86 23.98 12.87 18.87 37.92 29.98 1.94 7.936 35.98 19.93 -19.05 1.94 -19.05 -57.14
5.035 39.86 44.97 43.91 37.92 21.87 23.98 41.97 39.86 1.94 3.88 31.92 27.86 -15.17 -3.174 -21.16 -61.02
5.04 46.91 56.96 52.91 53.96 33.86 29.98 46.91 50.97 12.87 2.998 33.86 32.98 -3.174 -6.172 -18.16 -52.02
5.045 53.96 66.84 54.85 65.96 42.85 30.86 41.97 52.91 21.87 7.936 22.93 33.86 3.88 -2.116 -19.05 -32.1
5.05 61.9 74.95 47.97 69.84 45.85 33.86 31.92 47.97 35.98 17.99 5.996 23.98 17.99 1.94 -27.16 -7.054
5.055 72.83 74.95 37.92 64.9 44.97 37.92 18.87 38.97 44.97 28.92 -5.114 13.93 31.92 18.87 -38.09 15.87
5.06 75.83 66.84 18.87 50.97 38.97 35.98 0.8818 21.87 50.97 34.92 -23.1 0.8818 39.86 34.92 -42.15 43.91
5.065 71.95 48.85 1.94 31.92 25.92 29.98 -9.17 7.936 47.97 33.86 -31.04 -5.114 41.97 39.86 -33.15 61.9
5.07 63.84 32.98 -2.116 12.87 11.99 22.93 -14.11 -2.116 38.97 24.87 -28.04 -8.112 41.97 33.86 -6.172 77.95
5.075 50.97 20.99 -2.116 0.8818 1.94 16.93 -16.05 -5.114 26.98 10.93 -22.04 -10.05 37.92 19.93 22.93 87.83
5.08 39.86 12.87 -1.058 0.8818 0.8818 11.99 -15.17 -11.11 11.99 0 -15.17 -9.17 29.98 7.936 45.85 89.94
5.085 28.92 10.93 -2.116 -3.174 -5.114 6.878 -12.17 -21.16 0.8818 -4.056 -8.112 -8.112 15.87 0.8818 50.97 83.95
5.09 16.93 6.878 -6.172 -9.17 -15.17 -1.058 -17.11 -31.04 -7.054 -13.05 -6.172 -11.11 0 -1.058 41.97 65.96
5.095 5.996 0.8818 -15.17 -21.16 -25.04 -5.114 -21.16 -43.03 -21.16 -21.16 -3.174 -13.05 -17.11 -7.054 25.92 41.97
5.1 -1.058 -3.174 -21.16 -33.15 -35.09 -9.17 -23.1 -51.14 -37.03 -27.16 0.8818 -15.17 -37.03 -11.11 13.93 17.99
5.105 -1.058 -7.054 -21.16 -41.09 -39.15 -5.114 -21.16 -51.14 -47.09 -25.04 0 -15.17 -47.09 -13.05 11.99 3.88
5.11 -2.116 -3.174 -11.11 -37.03 -31.04 0 -13.05 -45.15 -49.03 -17.11 3.88 -11.11 -49.03 -13.05 15.87 0.8818
5.115 5.996 2.998 0 -21.16 -17.11 11.99 -1.058 -29.1 -41.09 -5.114 5.996 -5.114 -41.09 -11.11 17.99 -5.114
5.12 13.93 8.994 15.87 0.8818 -1.058 21.87 7.936 -7.054 -27.16 1.94 5.996 0 -29.1 -7.054 13.93 -13.05
5.125 19.93 14.99 27.86 13.93 5.996 23.98 17.99 11.99 -9.17 7.936 3.88 11.99 -15.17 0.8818 1.94 -23.1
5.13 23.98 14.99 31.92 23.98 11.99 21.87 23.98 27.86 1.94 9.876 1.94 19.93 -3.174 3.88 -9.17 -29.1
5.135 23.98 8.994 29.98 25.92 9.876 19.93 23.98 35.98 15.87 11.99 -2.116 23.98 7.936 15.87 -25.04 -23.1
5.14 25.92 0.8818 21.87 19.93 3.88 19.93 19.93 31.92 27.86 15.87 -3.174 19.93 25.92 27.86 -37.03 -5.114
5.145 25.92 -3.174 13.93 7.936 0.8818 21.87 9.876 19.93 35.98 17.99 -7.054 11.99 41.97 31.92 -43.03 17.99
5.15 21.87 -13.05 3.88 -3.174 -11.11 19.93 0 5.996 35.98 15.87 -7.054 3.88 51.85 25.92 -37.03 43.91
5.155 13.93 -25.04 -3.174 -21.16 -23.1 13.93 -1.058 -3.174 27.86 1.94 -3.174 0 55.9 11.99 -21.16 61.9
5.16 0 -35.09 -11.11 -37.03 -33.15 3.88 -3.174 -11.11 11.99 -9.17 1.94 3.88 53.96 -1.058 0.8818 65.96
5.165 -7.054 -37.03 -15.17 -45.15 -37.03 -2.116 0.8818 -13.05 0.8818 -21.16 9.876 11.99 47.97 -13.05 20.99 59.96
5.17 -13.05 -35.09 -15.17 -43.03 -33.15 -2.116 1.94 -11.11 -7.054 -23.1 15.87 21.87 41.97 -17.11 34.92 49.91
5.175 -9.17 -27.16 -9.17 -31.04 -21.16 1.94 9.876 -5.114 -3.174 -15.17 19.93 29.98 35.98 -15.17 39.86 35.98
5.18 -2.116 -13.05 -3.174 -14.11 -9.17 7.936 15.87 -1.058 1.94 -5.114 19.93 31.92 25.92 -17.11 34.92 15.87
5.185 9.876 -1.058 0 -2.116 -2.116 9.876 17.99 -2.116 9.876 0.8818 17.99 29.98 9.876 -27.16 26.98 -3.174
5.19 13.93 -3.174 1.94 0.8818 1.94 9.876 15.87 -1.058 7.936 -1.058 17.99 19.93 -9.17 -35.09 15.87 -27.16
5.195 11.99 -5.114 -2.116 -4.056 -2.116 9.876 9.876 -9.17 -1.058 -9.17 15.87 3.88 -37.03 -35.09 5.996 -50.09
5.2 3.88 -13.05 -4.056 -16.05 -1.058 11.99 0.8818 -25.04 -19.05 -16.05 7.936 -13.05 -62.08 -25.04 1.94 -64.02
5.205 0 -25.04 -19.05 -31.04 -7.054 15.87 -15.17 -43.03 -35.09 -23.1 0.8818 -37.03 -83.06 -9.17 -11.11 -71.07
5.21 1.94 -29.1 -30.16 -40.03 -9.17 15.87 -29.1 -57.14 -47.09 -22.04 -15.17 -55.02 -92.06 0.8818 -20.1 -66.13
5.215 7.936 -31.04 -38.09 -43.03 -11.11 13.93 -39.15 -63.14 -47.09 -24.16 -27.16 -65.08 -90.12 4.938 -26.1 -54.14
5.22 13.93 -27.16 -39.15 -45.15 -7.054 11.99 -35.09 -57.14 -43.03 -19.05 -25.04 -61.02 -75.13 0.8818 -27.16 -39.15
5.225 17.99 -19.05 -28.04 -37.03 -1.058 11.99 -20.1 -41.09 -34.04 -14.11 -13.05 -47.09 -58.02 -8.112 -19.05 -25.04
5.23 17.99 -7.054 -9.17 -24.16 0 15.87 -4.056 -25.04 -26.1 -9.17 0.8818 -28.04 -36.15 -12.17 -14.11 -19.05
5.235 19.93 -1.058 0 -13.05 7.936 21.87 3.88 -11.11 -21.16 -5.114 9.876 -15.17 -21.16 -13.05 -15.17 -15.17
5.24 23.98 10.93 11.99 -3.174 11.99 23.98 8.994 -1.058 -16.05 -1.058 15.87 -4.056 -9.17 -9.17 -23.1 -10.05
5.245 29.98 18.87 16.93 1.94 13.93 15.87 9.876 0.8818 -11.11 0 7.936 0 0 -11.11 -37.03 -9.17
5.25 31.92 20.99 11.99 -3.174 7.936 5.996 0 -1.058 -13.05 -3.174 0.8818 -1.058 -2.116 -21.16 -49.03 -5.114
5.255 27.86 18.87 -2.116 -7.054 0 0 -4.056 -2.116 -14.11 -7.054 -10.05 -3.174 1.94 -28.04 -52.02 0
5.26 13.93 6.878 -11.11 -19.05 -9.17 -10.05 -12.17 -7.054 -18.16 -12.17 -20.1 -5.114 1.94 -33.15 -50.09 1.94
5.265 0 -3.174 -24.16 -34.04 -27.16 -17.11 -21.16 -15.17 -17.11 -20.1 -26.1 -10.05 -5.114 -31.04 -43.03 -4.056
5.27 -7.054 -15.17 -37.03 -45.15 -39.15 -26.1 -34.04 -21.16 -26.1 -32.1 -32.1 -17.11 -17.11 -27.16 -38.09 -15.17
5.275 -15.17 -25.04 -45.15 -55.02 -51.14 -32.1 -48.15 -32.1 -34.04 -43.03 -38.09 -25.04 -33.15 -24.16 -36.15 -34.04
5.28 -13.05 -33.15 -49.03 -63.14 -57.14 -37.03 -59.08 -45.15 -47.09 -49.03 -45.15 -37.03 -47.09 -27.16 -33.15 -51.14
5.285 -11.11 -31.04 -48.15 -61.02 -59.08 -45.15 -63.14 -53.08 -55.02 -48.15 -51.14 -46.03 -54.14 -29.1 -31.04 -67.02
5.29 -11.11 -31.04 -49.03 -61.02 -57.14 -47.09 -62.08 -59.08 -60.14 -49.03 -59.08 -54.14 -57.14 -27.16 -25.04 -74.07
5.295 -13.05 -31.04 -45.15 -61.02 -51.14 -45.15 -57.14 -59.08 -63.14 -51.14 -61.02 -57.14 -57.14 -25.04 -29.1 -81.12
5.3 -21.16 -29.1 -39.15 -54.14 -45.15 -45.15 -46.03 -53.08 -56.08 -49.03 -53.08 -50.09 -54.14 -22.04 -34.04 -85
5.305 -27.16 -27.16 -30.16 -49.03 -45.15 -45.15 -36.15 -45.15 -50.09 -50.09 -43.03 -47.09 -54.14 -22.04 -45.15 -89.06
5.31 -31.04 -21.16 -25.04 -41.09 -41.09 -47.09 -27.16 -35.09 -45.15 -47.09 -33.15 -43.03 -57.14 -25.04 -55.02 -93.12
5.315 -33.15 -13.05 -24.16 -31.04 -41.09 -51.14 -25.04 -27.16 -41.09 -38.09 -29.1 -47.09 -60.14 -28.04 -62.08 -94.17
5.32 -31.04 -13.05 -30.16 -30.16 -39.15 -53.08 -27.16 -25.04 -39.15 -30.16 -29.1 -59.08 -60.14 -32.1 -68.07 -88
5.325 -27.16 -19.05 -39.15 -35.09 -39.15 -45.15 -35.09 -29.1 -39.15 -29.1 -37.03 -75.13 -63.14 -33.15 -77.07 -75.13
5.33 -23.1 -23.1 -44.09 -38.09 -37.03 -37.03 -41.09 -39.15 -37.03 -28.04 -49.03 -87.12 -62.08 -33.15 -83.06 -60.14
5.335 -15.17 -27.16 -45.15 -40.03 -35.09 -23.1 -45.15 -47.09 -39.15 -35.09 -55.02 -91.18 -59.08 -35.09 -91.18 -38.09
5.34 -7.054 -21.16 -37.03 -33.15 -25.04 -11.11 -43.03 -45.15 -35.09 -37.03 -57.14 -83.06 -47.09 -33.15 -91.18 -17.11
5.345 -2.116 -5.114 -25.04 -18.16 -7.054 0.8818 -35.09 -31.04 -23.1 -31.04 -53.08 -65.08 -27.16 -37.03 -80.07 0
5.35 7.936 6.878 -11.11 1.94 9.876 3.88 -23.1 -9.17 -5.114 -15.17 -45.15 -37.03 -1.058 -35.09 -58.02 19.93
5.355 17.99 20.99 -3.174 11.99 33.86 7.936 -15.17 5.996 7.936 0 -35.09 -9.17 15.87 -27.16 -39.15 27.86
5.36 29.98 24.87 -3.174 17.99 47.97 13.93 -11.11 17.99 19.93 15.87 -29.1 5.996 23.98 -15.17 -20.1 25.92
5.365 39.86 24.87 -7.054 15.87 51.85 17.99 -11.11 17.99 21.87 23.98 -27.16 11.99 15.87 0.8818 -14.11 9.876
5.37 45.85 24.87 -9.17 9.876 45.85 19.93 -15.17 7.936 13.93 21.87 -29.1 7.936 0.8818 5.996 -17.11 -7.054
5.375 47.97 22.93 -9.17 5.996 35.98 21.87 -19.05 0.8818 1.94 11.99 -31.04 0.8818 -21.16 5.996 -19.05 -29.1
5.38 45.85 22.93 -5.114 1.94 23.98 17.99 -21.16 -9.17 -3.174 -2.116 -31.04 -13.05 -37.03 0.8818 -19.05 -49.03
5.385 37.92 22.93 -1.058 0 11.99 11.99 -21.16 -15.17 -11.11 -9.17 -25.04 -19.05 -47.09 -17.11 -13.05 -61.02
5.39 27.86 20.99 -2.116 -2.116 0 1.94 -19.05 -21.16 -19.05 -23.1 -17.11 -21.16 -53.08 -35.09 0.8818 -69.13
5.395 15.87 14.99 -2.116 -1.058 -11.11 -5.114 -15.17 -25.04 -31.04 -37.03 -7.054 -19.05 -61.02 -47.09 7.936 -77.07
5.4 0 8.994 -3.174 -7.054 -27.16 -15.17 -13.05 -31.04 -47.09 -51.14 0.8818 -21.16 -69.13 -51.14 15.87 -79.01
5.405 -11.11 2.998 -11.11 -13.05 -43.03 -27.16 -11.11 -35.09 -67.02 -61.02 -2.116 -21.16 -77.07 -53.08 15.87 -75.13
5.41 -25.04 -1.058 -15.17 -15.17 -51.14 -35.09 -5.114 -33.15 -83.06 -65.08 0 -19.05 -75.13 -51.14 9.876 -59.08
5.415 -37.03 -1.058 -11.11 -11.11 -55.02 -37.03 -2.116 -25.04 -85 -63.14 3.88 -9.17 -61.02 -49.03 5.996 -33.15
5.42 -45.15 0.8818 0.8818 -3.174 -51.14 -35.09 11.99 -7.054 -71.07 -55.02 13.93 9.876 -33.15 -47.09 11.99 -3.174
5.425 -45.15 -1.058 15.87 8.994 -43.03 -29.1 27.86 11.99 -45.15 -41.09 25.92 37.92 -1.058 -43.03 23.98 17.99
5.43 -35.09 8.994 33.86 26.98 -31.04 -19.05 41.97 37.92 -17.11 -27.16 35.98 65.96 21.87 -39.15 35.98 31.92
5.435 -21.16 18.87 45.85 43.91 -17.11 -7.054 55.9 61.9 3.88 -13.05 39.86 83.95 39.86 -33.15 35.98 35.98
5.44 -4.056 28.92 49.91 60.84 -2.116 -2.116 61.9 77.95 23.98 -1.058 34.92 85.89 49.91 -32.1 15.87 28.92
5.445 2.998 36.86 48.85 68.96 6.878 5.996 65.96 84.83 33.86 1.94 24.87 76.89 51.85 -34.04 -11.11 18.87
5.45 1.94 34.92 41.97 67.9 11.99 11.99 65.96 81.83 43.91 5.996 11.99 57.84 45.85 -41.09 -41.09 9.876
5.455 -2.116 24.87 38.97 60.84 12.87 9.876 62.96 70.89 47.97 5.996 6.878 40.91 37.92 -44.09 -57.14 -1.058
5.46 -18.16 10.93 34.92 49.91 4.938 5.996 58.9 54.85 47.97 2.998 4.938 24.87 21.87 -44.09 -60.14 -12.17
5.465 -35.09 -3.174 27.86 35.98 -1.058 1.94 47.97 39.86 41.97 0.8818 3.88 7.936 -2.116 -41.09 -49.03 -37.03
5.47 -41.09 -15.17 20.99 21.87 -8.112 0.8818 30.86 20.99 25.92 -6.172 -1.058 -2.116 -27.16 -33.15 -40.03 -66.13
5.475 -43.03 -27.16 6.878 8.994 -11.11 1.94 10.93 0 3.88 -14.11 -1.058 -20.1 -56.08 -29.1 -42.15 -91.18
5.48 -37.03 -35.09 -7.054 -7.054 -15.17 0 -5.114 -21.16 -15.17 -23.1 -13.05 -43.03 -81.12 -25.04 -49.03 -105.1
5.485 -32.1 -39.15 -19.05 -25.04 -16.05 0.8818 -19.05 -45.15 -35.09 -30.16 -22.04 -61.02 -90.12 -24.16 -56.08 -94.17
5.49 -29.1 -43.03 -28.04 -40.03 -18.16 -1.058 -28.04 -62.08 -46.03 -31.04 -26.1 -68.07 -86.06 -19.05 -51.14 -64.02
5.495 -29.1 -47.09 -33.15 -49.03 -23.1 -1.058 -31.04 -73.01 -53.08 -29.1 -31.04 -65.08 -67.02 -7.054 -39.15 -25.04
5.5 -32.1 -45.15 -31.04 -50.09 -24.16 -3.174 -30.16 -69.13 -50.09 -18.16 -32.1 -49.03 -39.15 8.994 -18.16 10.93
5.505 -32.1 -47.09 -33.15 -48.15 -27.16 0 -28.04 -58.02 -39.15 0 -35.09 -31.04 -9.17 30.86 -1.058 47.97
5.51 -32.1 -51.14 -33.15 -46.03 -30.16 0 -24.16 -44.09 -24.16 11.99 -34.04 -13.05 12.87 48.85 15.87 68.96
5.515 -32.1 -55.02 -37.03 -48.15 -29.1 2.998 -22.04 -32.1 -7.054 26.98 -33.15 -1.058 29.98 54.85 28.92 83.95
5.52 -32.1 -59.08 -41.09 -52.02 -32.1 0 -18.16 -25.04 4.938 32.98 -28.04 1.94 41.97 50.97 34.92 92.94
5.525 -29.1 -61.02 -47.09 -55.02 -31.04 0.8818 -17.11 -25.04 13.93 29.98 -21.16 1.94 49.91 47.97 31.92 97.88
5.53 -25.04 -51.14 -44.09 -48.15 -24.16 -4.056 -16.05 -28.04 20.99 27.86 -18.16 2.998 54.85 47.97 23.98 100.9
5.535 -18.16 -39.15 -39.15 -39.15 -18.16 -6.172 -15.17 -31.04 19.93 22.93 -20.1 3.88 58.9 50.97 6.878 100.9
5.54 -11.11 -23.1 -29.1 -25.04 -9.17 -11.11 -17.11 -25.04 21.87 17.99 -25.04 5.996 61.9 51.85 -7.054 89.94
5.545 -7.054 -7.054 -16.05 -10.05 -1.058 -12.17 -8.112 -9.17 23.98 12.87 -23.1 10.93 64.9 41.97 -20.1 67.9
5.55 -3.174 -1.058 -4.056 -3.174 0 -21.16 1.94 2.998 23.98 2.998 -18.16 8.994 59.96 23.98 -26.1 34.92
5.555 -15.17 -3.174 -1.058 -3.174 -7.054 -29.1 5.996 13.93 21.87 -9.17 -9.17 1.94 43.91 -3.174 -29.1 0.8818
5.56 -30.16 -13.05 0 -5.114 -16.05 -41.09 8.994 10.93 9.876 -24.16 -1.058 -10.05 15.87 -28.04 -34.04 -34.04
5.565 -48.15 -31.04 -6.172 -12.17 -28.04 -51.14 2.998 -2.116 -7.054 -41.09 4.938 -32.1 -19.05 -44.09 -47.09 -64.02
5.57 -69.13 -43.03 -15.17 -23.1 -41.09 -61.02 -5.114 -25.04 -33.15 -51.14 0 -55.02 -61.02 -51.14 -65.08 -91.18
5.575 -84.12 -51.14 -20.1 -32.1 -54.14 -69.13 -17.11 -38.09 -55.02 -57.14 -2.116 -66.13 -95.06 -48.15 -83.06 -108.1
5.58 -94.17 -55.02 -23.1 -36.15 -64.02 -75.13 -21.16 -41.09 -67.02 -61.02 -10.05 -65.08 -117.1 -46.03 -89.06 -120.1
5.585 -101.1 -55.02 -19.05 -45.15 -73.01 -79.01 -15.17 -29.1 -73.01 -63.14 -11.11 -51.14 -119 -47.09 -79.01 -127.2
5.59 -101.1 -51.14 -13.05 -46.03 -77.07 -75.13 -5.114 -13.05 -69.13 -61.02 -3.174 -33.15 -109.2 -47.09 -55.02 -123.1
5.595 -99.11 -51.14 -7.054 -47.09 -77.07 -65.08 0 -5.114 -65.08 -59.08 1.94 -17.11 -93.12 -43.03 -25.04 -103.2
5.6 -93.12 -59.08 -7.054 -47.09 -73.01 -53.08 3.88 -5.114 -63.14 -55.02 7.936 -5.114 -75.13 -37.03 0.8818 -71.07
5.605 -87.12 -63.14 -9.17 -45.15 -67.02 -45.15 5.996 -9.17 -57.14 -49.03 7.936 0 -53.08 -31.04 11.99 -29.1
5.61 -83.06 -65.08 -9.17 -43.03 -59.08 -43.03 3.88 -13.05 -49.03 -43.03 3.88 9.876 -29.1 -25.04 17.99 7.936
5.615 -79.01 -57.14 -7.054 -39.15 -51.14 -49.03 1.94 -9.17 -37.03 -39.15 0 15.87 -5.114 -19.05 19.93 41.97
5.62 -75.13 -43.03 -1.058 -33.15 -43.03 -51.14 0 -3.174 -21.16 -31.04 -2.116 19.93 11.99 -13.05 17.99 61.9
5.625 -65.08 -27.16 0 -23.1 -33.15 -45.15 -2.116 -2.116 -7.054 -19.05 0.8818 19.93 27.86 -5.114 19.93 71.95
5.63 -51.14 -17.11 1.94 -13.05 -23.1 -31.04 -1.058 -2.116 0 -7.054 -1.058 13.93 37.92 -2.116 19.93 71.95
5.635 -37.03 -15.17 0 -5.114 -9.17 -15.17 -9.17 0.8818 5.996 0 -7.054 5.996 37.92 1.94 15.87 69.84
5.64 -27.16 -17.11 0.8818 0.8818 0.8818 -5.114 -15.17 -1.058 9.876 3.88 -15.17 0 33.86 3.88 1.94 63.84
5.645 -23.1 -19.05 -7.054 -2.116 3.88 -5.114 -19.05 0.8818 11.99 1.94 -23.1 0.8818 31.92 3.88 -13.05 55.9
5.65 -27.16 -17.11 -11.11 -2.116 7.936 -9.17 -21.16 -2.116 15.87 0 -29.1 -1.058 31.92 1.94 -35.09 41.97
5.655 -31.04 -9.17 -9.17 0 7.936 -9.17 -17.11 1.94 19.93 0 -29.1 -1.058 33.86 5.996 -53.08 25.92
5.66 -29.1 -3.174 -5.114 3.88 9.876 0.8818 -9.17 3.88 23.98 5.996 -23.1 -3.174 33.86 13.93 -65.08 5.996
5.665 -17.11 -3.174 -1.058 9.876 13.93 9.876 -1.058 5.996 25.92 13.93 -19.05 -5.114 27.86 23.98 -71.07 -11.11
5.67 0.8818 -1.058 0.8818 15.87 22.93 23.98 -2.116 5.996 23.98 18.87 -17.11 -9.17 13.93 25.92 -73.01 -31.04
5.675 9.876 -3.174 -1.058 13.93 24.87 26.98 1.94 3.88 17.99 14.99 -21.16 -14.11 -1.058 14.99 -74.07 -47.09
5.68 11.99 -9.17 -9.17 5.996 15.87 11.99 -5.114 0 9.876 -2.116 -25.04 -19.05 -19.05 -3.174 -69.13 -61.02
5.685 2.998 -17.11 -17.11 -5.114 -1.058 -4.056 -12.17 -1.058 -1.058 -16.05 -28.04 -18.16 -30.16 -28.04 -56.08 -67.02
5.69 -12.17 -29.1 -25.04 -23.1 -20.1 -24.16 -20.1 -8.112 -8.112 -32.1 -26.1 -16.05 -36.15 -44.09 -32.1 -65.08
5.695 -31.04 -43.03 -29.1 -39.15 -43.03 -39.15 -27.16 -15.17 -21.16 -39.15 -17.11 -11.11 -35.09 -47.09 -5.114 -55.02
5.7 -46.03 -49.03 -28.04 -45.15 -52.02 -42.15 -26.1 -18.16 -28.04 -35.09 -4.056 -6.172 -28.04 -32.1 14.99 -36.15
5.705 -50.09 -53.08 -26.1 -41.09 -49.03 -39.15 -21.16 -16.05 -32.1 -29.1 0.8818 1.94 -20.1 -11.11 27.86 -14.11
5.71 -53.08 -53.08 -23.1 -33.15 -41.09 -35.09 -15.17 -9.17 -31.04 -23.1 5.996 5.996 -7.054 0.8818 25.92 1.94
5.715 -54.14 -47.09 -18.16 -27.16 -31.04 -29.1 -5.114 1.94 -19.05 -16.05 9.876 15.87 1.94 0 21.87 18.87
5.72 -55.02 -41.09 -16.05 -27.16 -30.16 -28.04 0.8818 3.88 -11.11 -14.11 7.936 23.98 11.99 1.94 24.87 28.92
5.725 -63.14 -45.15 -19.05 -33.15 -37.03 -31.04 7.936 3.88 -1.058 -15.17 3.88 27.86 17.99 -1.058 35.98 29.98
5.73 -67.02 -47.09 -21.16 -41.09 -47.09 -35.09 9.876 1.94 0 -14.11 0.8818 25.92 16.93 -1.058 47.97 27.86
5.735 -64.02 -53.08 -29.1 -49.03 -53.08 -42.15 2.998 -1.058 -5.114 -15.17 1.94 16.93 7.936 0.8818 50.97 22.93
5.74 -59.08 -61.02 -35.09 -55.02 -59.08 -47.09 -3.174 -3.174 -13.05 -15.17 0.8818 -2.116 -2.116 9.876 39.86 25.92
5.745 -54.14 -65.08 -41.09 -56.08 -57.14 -45.15 -15.17 -11.11 -22.04 -12.17 -4.056 -16.05 -5.114 16.93 15.87 36.86
5.75 -50.09 -69.13 -42.15 -54.14 -53.08 -40.03 -24.16 -22.04 -29.1 -12.17 -16.05 -36.15 -10.05 17.99 -4.056 44.97
5.755 -45.15 -65.08 -40.03 -49.03 -52.02 -34.04 -27.16 -34.04 -33.15 -12.17 -25.04 -50.09 -16.05 12.87 -22.04 48.85
5.76 -44.09 -63.14 -34.04 -44.09 -47.09 -24.16 -28.04 -44.09 -31.04 -12.17 -32.1 -58.02 -18.16 5.996 -30.16 40.91
5.765 -40.03 -53.08 -25.04 -32.1 -41.09 -17.11 -27.16 -41.09 -28.04 -8.112 -32.1 -60.14 -23.1 0.8818 -29.1 20.99
5.77 -29.1 -47.09 -11.11 -21.16 -27.16 -7.054 -17.11 -31.04 -23.1 -5.114 -27.16 -53.08 -23.1 -2.116 -23.1 -5.114
5.775 -14.11 -33.15 -3.174 -7.054 -5.114 2.998 -6.172 -12.17 -15.17 -1.058 -15.17 -36.15 -21.16 0.8818 -20.1 -30.16
5.78 -1.058 -29.1 1.94 0 9.876 17.99 1.94 0 -2.116 2.998 -6.172 -19.05 -16.05 0 -21.16 -47.09
5.785 5.996 -25.04 3.88 11.99 29.98 27.86 9.876 11.99 5.996 9.876 0.8818 -5.114 -9.17 0 -21.16 -51.14
5.79 13.93 -23.1 2.998 19.93 46.91 34.92 16.93 19.93 21.87 18.87 3.88 7.936 -2.116 0.8818 -8.112 -38.09
5.795 20.99 -25.04 0.8818 29.98 53.96 37.92 19.93 22.93 35.98 26.98 9.876 23.98 13.93 1.94 9.876 -14.11
5.8 25.92 -29.1 -2.116 33.86 55.9 33.86 19.93 25.92 41.97 31.92 13.93 35.98 27.86 7.936 37.92 11.99
5.805 26.98 -33.15 -1.058 37.92 55.9 31.92 21.87 32.98 48.85 37.92 20.99 52.91 44.97 15.87 61.9 42.85
5.81 20.99 -41.09 0.8818 35.98 46.91 26.98 20.99 42.85 54.85 33.86 26.98 62.96 60.84 22.93 72.83 72.83
5.815 9.876 -47.09 0 29.98 37.92 19.93 17.99 47.97 57.84 27.86 25.92 67.9 71.95 29.98 71.95 94
5.82 -2.116 -55.02 0.8818 25.92 28.92 12.87 16.93 48.85 58.9 28.92 26.98 64.9 82.89 38.97 66.84 107.9
5.825 -16.05 -65.08 -7.054 15.87 16.93 6.878 14.99 39.86 52.91 24.87 22.93 56.96 84.83 44.97 58.9 112
5.83 -31.04 -79.01 -19.05 5.996 1.94 0.8818 7.936 27.86 41.97 21.87 17.99 41.97 77.95 47.97 55.9 107.9
5.835 -39.15 -87.12 -29.1 -3.174 -4.056 -10.05 0.8818 11.99 25.92 10.93 15.87 28.92 63.84 44.97 50.97 97.88
5.84 -41.09 -95.06 -41.09 -17.11 -14.11 -17.11 -5.114 0.8818 9.876 1.94 13.93 11.99 41.97 33.86 39.86 83.95
5.845 -43.03 -101.1 -51.14 -29.1 -23.1 -21.16 -15.17 -9.17 -1.058 -11.11 7.936 0 19.93 23.98 21.87 65.96
5.85 -45.15 -101.1 -59.08 -37.03 -29.1 -23.1 -25.04 -17.11 -13.05 -21.16 -2.116 -7.054 0 13.93 1.94 45.85
5.855 -49.03 -99.11 -63.14 -41.09 -35.09 -25.04 -31.04 -23.1 -23.1 -25.04 -9.17 -19.05 -13.05 5.996 -11.11 23.98
5.86 -55.02 -105.1 -61.02 -41.09 -41.09 -29.1 -35.09 -25.04 -31.04 -25.04 -21.16 -29.1 -27.16 0 -23.1 -2.116
5.865 -57.14 -105.1 -53.08 -35.09 -45.15 -31.04 -35.09 -27.16 -39.15 -25.04 -29.1 -39.15 -39.15 0.8818 -31.04 -25.04
5.87 -53.08 -101.1 -39.15 -27.16 -43.03 -27.16 -31.04 -27.16 -43.03 -27.16 -29.1 -43.03 -49.03 -3.174 -37.03 -55.02
5.875 -37.03 -89.06 -25.04 -15.17 -33.15 -15.17 -25.04 -25.04 -43.03 -25.04 -25.04 -43.03 -53.08 -9.17 -45.15 -81.12
5.88 -15.17 -73.01 -13.05 -1.058 -13.05 -2.116 -19.05 -17.11 -39.15 -19.05 -21.16 -37.03 -51.14 -15.17 -49.03 -97.17
5.885 1.94 -55.02 -5.114 7.936 3.88 11.99 -11.11 -7.054 -25.04 -5.114 -19.05 -27.16 -41.09 -19.05 -49.03 -103.2
5.89 15.87 -41.09 -3.174 19.93 19.93 19.93 -5.114 0 -11.11 3.88 -19.05 -15.17 -27.16 -19.05 -41.09 -97.17
5.895 17.99 -33.15 -1.058 25.92 27.86 17.99 0.8818 7.936 0 15.87 -19.05 -5.114 -13.05 -15.17 -25.04 -79.01
5.9 5.996 -33.15 0.8818 27.86 23.98 5.996 1.94 11.99 7.936 17.99 -17.11 0 -1.058 -11.11 -5.114 -57.14
5.905 -7.054 -39.15 -2.116 21.87 11.99 -1.058 3.88 11.99 7.936 9.876 -11.11 3.88 0 -5.114 8.994 -31.04
5.91 -23.1 -45.15 -2.116 15.87 -2.116 -9.17 3.88 9.876 1.94 0 -5.114 5.996 1.94 -2.116 23.98 -7.054
5.915 -33.15 -51.14 -3.174 5.996 -7.054 -13.05 1.94 5.996 0 -3.174 0.8818 7.936 3.88 1.94 32.98 9.876
5.92 -41.09 -51.14 -9.17 -2.116 -11.11 -15.17 0.8818 5.996 -6.172 -9.17 -2.116 11.99 7.936 5.996 38.97 29.98
5.925 -43.03 -47.09 -15.17 -1.058 -11.11 -15.17 -2.116 3.88 -7.054 -11.11 -2.116 13.93 13.93 5.996 37.92 49.91
5.93 -46.03 -37.03 -14.11 -5.114 -11.11 -17.11 0.8818 2.998 -2.116 -9.17 1.94 18.87 22.93 7.936 32.98 68.96
5.935 -48.15 -31.04 -10.05 -7.054 -11.11 -23.1 1.94 2.998 0.8818 -13.05 1.94 18.87 26.98 1.94 27.86 78.83
5.94 -47.09 -25.04 -7.054 -5.114 -11.11 -31.04 -1.058 0 1.94 -15.17 0.8818 9.876 23.98 0 23.98 77.95
5.945 -42.15 -25.04 -4.056 -4.056 -14.11 -35.09 -8.112 0 1.94 -20.1 0 2.998 14.99 0 21.87 70.89
5.95 -36.15 -31.04 -12.17 -10.05 -18.16 -37.03 -15.17 -4.056 0.8818 -26.1 -2.116 0 2.998 -8.112 20.99 50.97
5.955 -37.03 -41.09 -25.04 -19.05 -23.1 -35.09 -27.16 -11.11 -5.114 -27.16 -7.054 -11.11 -5.114 -17.11 7.936 25.92
5.96 -37.03 -51.14 -34.04 -28.04 -28.04 -29.1 -39.15 -17.11 -6.172 -26.1 -14.11 -16.05 -7.054 -24.16 -7.054 1.94
5.965 -39.15 -57.14 -39.15 -32.1 -28.04 -25.04 -44.09 -25.04 -7.054 -22.04 -21.16 -21.16 -13.05 -28.04 -29.1 -17.11
5.97 -41.09 -55.02 -39.15 -31.04 -25.04 -19.05 -47.09 -29.1 -7.054 -19.05 -31.04 -29.1 -17.11 -33.15 -41.09 -37.03
5.975 -34.04 -45.15 -28.04 -22.04 -19.05 -16.05 -41.09 -28.04 -4.056 -13.05 -36.15 -32.1 -24.16 -33.15 -46.03 -52.02
5.98 -25.04 -35.09 -20.1 -13.05 -15.17 -16.05 -38.09 -27.16 -8.112 -19.05 -40.03 -34.04 -33.15 -37.03 -50.09 -67.02
5.985 -27.16 -31.04 -23.1 -13.05 -17.11 -19.05 -37.03 -25.04 -19.05 -23.1 -45.15 -39.15 -43.03 -45.15 -59.08 -79.01
5.99 -32.1 -35.09 -30.16 -19.05 -24.16 -23.1 -40.03 -32.1 -26.1 -32.1 -46.03 -44.09 -51.14 -52.02 -73.01 -83.06
5.995 -50.09 -47.09 -45.15 -37.03 -37.03 -32.1 -50.09 -42.15 -36.15 -41.09 -52.02 -50.09 -52.02 -57.14 -87.12 -82.01
6 -67.02 -67.02 -58.02 -57.14 -49.03 -41.09 -61.02 -56.08 -43.03 -53.08 -57.14 -59.08 -54.14 -57.14 -93.12 -80.07
6.005 -86.06 -79.01 -67.02 -71.07 -61.02 -54.14 -72.13 -68.07 -52.02 -59.08 -60.14 -62.08 -54.14 -55.02 -85 -74.07
6.01 -94.17 -87.12 -72.13 -81.12 -68.07 -61.02 -78.13 -76.01 -60.14 -66.13 -62.08 -66.13 -61.02 -54.14 -69.13 -71.07
6.015 -95.06 -95.06 -73.01 -87.12 -73.01 -67.02 -79.01 -79.01 -71.07 -69.13 -59.08 -69.13 -69.13 -51.14 -53.08 -65.08
6.02 -89.06 -101.1 -68.07 -83.06 -75.13 -66.13 -70.01 -79.01 -82.01 -69.13 -54.14 -68.07 -77.07 -51.14 -44.09 -59.08
6.025 -84.12 -103.2 -64.02 -80.07 -73.01 -60.14 -59.08 -74.07 -86.06 -67.02 -48.15 -70.01 -82.01 -49.03 -46.03 -50.09
6.03 -83.06 -101.1 -55.02 -75.13 -71.07 -55.02 -51.14 -69.13 -87.12 -65.08 -41.09 -65.08 -83.06 -49.03 -49.03 -41.09
6.035 -75.13 -101.1 -45.15 -68.07 -60.14 -51.14 -42.15 -61.02 -77.07 -60.14 -33.15 -55.02 -73.01 -44.09 -47.09 -29.1
6.04 -69.13 -99.11 -42.15 -60.14 -48.15 -53.08 -37.03 -45.15 -68.07 -52.02 -26.1 -46.03 -55.02 -38.09 -37.03 -17.11
6.045 -69.13 -95.06 -43.03 -55.02 -37.03 -51.14 -33.15 -35.09 -55.02 -45.15 -23.1 -37.03 -41.09 -31.04 -27.16 -13.05
6.05 -68.07 -97.17 -46.03 -54.14 -28.04 -43.03 -33.15 -28.04 -43.03 -30.16 -22.04 -28.04 -26.1 -18.16 -20.1 -4.056
6.055 -68.07 -95.06 -50.09 -55.02 -26.1 -31.04 -36.15 -30.16 -29.1 -20.1 -26.1 -28.04 -14.11 -10.05 -15.17 0
6.06 -69.13 -91.18 -51.14 -55.02 -29.1 -19.05 -41.09 -33.15 -21.16 -9.17 -33.15 -35.09 -5.114 -5.114 -13.05 1.94
6.065 -64.02 -81.12 -44.09 -51.14 -27.16 -9.17 -42.15 -38.09 -12.17 -1.058 -36.15 -36.15 1.94 -3.174 -9.17 6.878
6.07 -52.02 -65.08 -32.1 -39.15 -23.1 -9.17 -40.03 -38.09 -8.112 -1.058 -38.09 -36.15 0.8818 -9.17 -12.17 2.998
6.075 -41.09 -49.03 -23.1 -25.04 -17.11 -15.17 -39.15 -33.15 -7.054 -7.054 -39.15 -29.1 -2.116 -19.05 -19.05 -7.054
6.08 -31.04 -37.03 -15.17 -9.17 -7.054 -23.1 -30.16 -23.1 -4.056 -15.17 -35.09 -13.05 0.8818 -29.1 -28.04 -27.16
6.085 -27.16 -33.15 -9.17 -1.058 0.8818 -27.16 -23.1 -13.05 -2.116 -25.04 -29.1 -2.116 -1.058 -41.09 -38.09 -49.03
6.09 -31.04 -33.15 -3.174 -2.116 0.8818 -27.16 -9.17 -3.174 -1.058 -33.15 -27.16 7.936 -3.174 -51.14 -41.09 -67.02
6.095 -41.09 -29.1 -2.116 -2.116 -3.174 -27.16 0 0.8818 -1.058 -37.03 -23.1 11.99 -7.054 -57.14 -36.15 -77.07
6.1 -47.09 -25.04 1.94 0.8818 -13.05 -27.16 11.99 0.8818 -7.054 -43.03 -17.11 9.876 -17.11 -63.14 -29.1 -81.12
6.105 -49.03 -15.17 3.88 0.8818 -23.1 -29.1 19.93 -1.058 -19.05 -47.09 -11.11 3.88 -31.04 -65.08 -25.04 -81.12
6.11 -49.03 -9.17 1.94 -1.058 -31.04 -33.15 21.87 -5.114 -35.09 -53.08 -5.114 0.8818 -45.15 -65.08 -29.1 -81.12
6.115 -49.03 -9.17 -3.174 -5.114 -37.03 -35.09 13.93 -11.11 -51.14 -55.02 -1.058 -5.114 -55.02 -63.14 -39.15 -79.01
6.12 -53.08 -13.05 -15.17 -11.11 -41.09 -37.03 0 -19.05 -59.08 -57.14 -1.058 -13.05 -57.14 -59.08 -47.09 -71.07
6.125 -57.14 -23.1 -27.16 -21.16 -43.03 -35.09 -13.05 -29.1 -61.02 -51.14 -3.174 -23.1 -55.02 -51.14 -47.09 -55.02
6.13 -57.14 -31.04 -35.09 -33.15 -45.15 -29.1 -29.1 -43.03 -57.14 -41.09 -3.174 -33.15 -47.09 -39.15 -37.03 -33.15
6.135 -53.08 -39.15 -41.09 -43.03 -45.15 -21.16 -41.09 -55.02 -49.03 -29.1 -5.114 -41.09 -41.09 -21.16 -21.16 -9.17
6.14 -43.03 -43.03 -43.03 -49.03 -43.03 -13.05 -49.03 -65.08 -41.09 -17.11 -9.17 -45.15 -33.15 0.8818 -9.17 5.996
6.145 -37.03 -45.15 -47.09 -49.03 -39.15 -7.054 -51.14 -65.08 -31.04 -9.17 -15.17 -45.15 -23.1 13.93 -3.174 21.87
6.15 -37.03 -45.15 -49.03 -47.09 -33.15 -5.114 -51.14 -59.08 -21.16 -3.174 -23.1 -41.09 -11.11 23.98 -1.058 33.86
6.155 -41.09 -43.03 -51.14 -43.03 -27.16 -5.114 -49.03 -47.09 -13.05 -2.116 -27.16 -35.09 0.8818 25.92 -1.058 41.97
6.16 -47.09 -37.03 -49.03 -41.09 -21.16 -7.054 -47.09 -39.15 -5.114 0.8818 -27.16 -31.04 3.88 22.93 0.8818 48.85
6.165 -47.09 -31.04 -43.03 -39.15 -19.05 -4.056 -41.09 -35.09 -3.174 2.998 -19.05 -25.04 7.936 20.99 12.87 48.85
6.17 -41.09 -25.04 -33.15 -37.03 -17.11 0.8818 -31.04 -33.15 -3.174 1.94 -7.054 -15.17 7.936 19.93 23.98 39.86
6.175 -30.16 -13.05 -19.05 -27.16 -12.17 2.998 -14.11 -27.16 -5.114 2.998 1.94 0.8818 5.996 26.98 40.91 24.87
6.18 -20.1 0.8818 -7.054 -11.11 -2.116 12.87 0.8818 -15.17 -3.174 2.998 13.93 15.87 6.878 30.86 48.85 -1.058
6.185 -9.17 16.93 1.94 7.936 9.876 19.93 17.99 1.94 3.88 3.88 21.87 35.98 11.99 27.86 45.85 -21.16
6.19 0.8818 40.91 17.99 36.86 32.98 28.92 34.92 27.86 22.93 9.876 25.92 49.91 20.99 19.93 34.92 -43.03
6.195 18.87 68.96 31.92 60.84 54.85 37.92 46.91 49.91 38.97 15.87 24.87 55.9 24.87 9.876 19.93 -61.02
6.2 35.98 92.94 45.85 73.89 69.84 43.91 53.96 61.9 49.91 21.87 23.98 51.85 23.98 -2.116 3.88 -69.13
6.205 50.97 110.9 53.96 82.89 77.95 49.91 61.9 63.84 52.91 24.87 22.93 43.91 20.99 -4.056 0.8818 -66.13
6.21 59.96 118.9 55.9 84.83 75.83 50.97 61.9 59.96 50.97 21.87 20.99 33.86 17.99 -5.114 0.8818 -57.14
6.215 59.96 118.9 51.85 79.89 67.9 47.97 57.84 51.85 43.91 15.87 19.93 21.87 13.93 -3.174 3.88 -45.15
6.22 58.9 115 40.91 73.89 64.9 45.85 48.85 37.92 43.91 12.87 16.93 11.99 11.99 0 3.88 -25.04
6.225 54.85 103 26.98 59.96 65.96 42.85 35.98 26.98 37.92 14.99 11.99 0 16.93 3.88 0 -9.17
6.23 49.91 92.94 13.93 43.91 59.96 37.92 17.99 9.876 31.92 17.99 1.94 -7.054 15.87 3.88 -13.05 0
6.235 48.85 84.83 9.876 27.86 53.96 34.92 7.936 0.8818 25.92 19.93 1.94 -14.11 15.87 5.996 -20.1 11.99
