    T[sec] Fp1 Fp2  F7  F3  F4  F8  T3  C3  C4  T4  T5  P3  P4  T6  O1  O2
41 322.2 322.2 322.2 322.2 322.2 322.2 322.2 322.2 322.2 322.2 322.2 322.2 322.2 322.2 322.2 322.2
0.625 -19.03 -1.101 0.9438 -2.045 -23.12 -11.01 -25.01 -15.1 -25.01 -25.01 -31.15 -75.03 -27.06 -41.06 -93.12 -67.01
0.63 -11.01 4.876 1.888 2.989 -14 -6.135 -27.06 -23.12 -23.12 -19.03 -42 -94.07 -23.12 -52.07 -116.1 -94.07
0.635 0 14.94 1.888 9.91 -2.045 -2.045 -13.06 -20.13 -17.15 -7.079 -45.15 -97.06 -12.11 -53.01 -125.1 -108.1
0.64 9.91 24.85 11.96 23.91 9.91 9.91 3.933 -1.101 -7.079 3.933 -31.15 -87.15 -2.045 -43.1 -113.1 -103
0.645 24.85 30.99 21.87 31.93 29.89 24.85 22.97 15.89 3.933 20.92 -9.124 -61.03 12.9 -26.11 -88.09 -82.11
0.65 28.94 24.85 14.94 24.85 32.88 21.87 21.87 20.92 11.96 25.96 -1.101 -44.04 20.92 -13.06 -59.15 -58.04
0.655 17.93 6.921 -2.045 3.933 21.87 9.91 -1.101 0 14 14 -3.146 -41.06 14 -7.079 -37.12 -37.12
0.66 1.888 -13.06 -20.13 -16.04 0.9438 -7.079 -35.08 -27.06 1.888 0 -16.04 -49.08 0 -5.034 -23.12 -23.12
0.665 -21.08 -35.08 -42 -37.12 -20.13 -28 -62.13 -58.04 -9.124 -20.13 -32.09 -53.01 -17.15 -10.07 -16.04 -13.06
0.67 -37.12 -49.08 -53.01 -49.08 -39.01 -41.06 -67.01 -69.06 -25.01 -33.03 -41.06 -47.03 -33.03 -13.06 -11.01 -3.146
0.675 -39.01 -47.03 -52.07 -46.09 -44.04 -38.07 -46.09 -53.01 -31.15 -33.03 -34.13 -22.02 -36.02 -8.022 -3.146 5.978
0.68 -35.08 -45.15 -49.08 -41.06 -40.11 -28 -18.09 -25.01 -27.06 -25.01 -18.09 10.85 -30.04 -1.101 5.978 23.91
0.685 -27.06 -39.01 -43.1 -33.03 -29.1 -19.03 3.933 0 -17.15 -13.06 -1.101 49.87 -17.15 15.89 25.96 43.89
0.69 -21.08 -35.08 -39.01 -27.06 -17.15 -10.07 25.96 24.85 -3.146 1.888 3.933 84.94 0 38.85 44.99 63.87
0.695 -15.1 -33.03 -35.08 -26.11 -3.146 -1.101 43.89 40.9 5.978 12.9 5.978 102.9 10.85 62.92 52.85 77.87
0.7 -5.034 -29.1 -29.1 -25.01 5.978 1.888 49.87 47.98 17.93 25.96 -2.045 99.89 23.91 73.93 51.91 75.98
0.705 3.933 -17.15 -23.12 -16.04 15.89 11.96 50.97 50.97 28 30.99 -9.124 81.96 29.89 65.91 38.85 53.96
0.71 14 -5.034 -17.15 -6.135 19.98 14 40.9 40.9 31.93 23.91 -23.12 39.96 25.96 29.89 14.94 9.91
0.715 15.89 -1.101 -13.06 -1.101 14 9.91 17.93 21.87 23.91 5.978 -37.12 -3.146 11.96 -15.1 -13.06 -41.06
0.72 9.91 -1.101 -11.01 -2.045 1.888 -2.045 0 0 7.865 -7.079 -45.15 -49.08 -3.146 -61.03 -45.15 -85.1
0.725 0.9438 -1.101 -9.124 0.9438 -7.079 -11.01 -19.03 -13.06 -5.034 -21.08 -45.15 -81.01 -17.15 -81.01 -75.03 -109
0.73 -13.06 -5.034 -11.01 -5.034 -19.03 -21.08 -27.06 -21.08 -19.03 -25.01 -37.12 -95.01 -23.12 -69.06 -101.1 -107.1
0.735 -23.12 -11.01 -15.1 -13.06 -25.01 -27.06 -25.01 -19.03 -25.01 -23.12 -27.06 -97.06 -19.03 -39.01 -119.1 -95.01
0.74 -27.06 -19.03 -19.03 -21.08 -25.01 -29.1 -21.08 -17.15 -25.01 -15.1 -17.15 -95.01 -13.06 -11.01 -127.1 -81.01
0.745 -25.01 -25.01 -21.08 -27.06 -21.08 -25.01 -21.08 -19.03 -21.08 -11.01 -11.01 -89.03 -7.079 1.888 -125.1 -71.1
0.75 -23.12 -31.15 -21.08 -33.03 -19.03 -23.12 -25.01 -27.06 -13.06 -7.079 -5.034 -75.03 -3.146 7.865 -105.1 -55.06
0.755 -21.08 -35.08 -15.1 -35.08 -19.03 -19.03 -28 -32.09 -7.079 -7.079 -2.045 -46.09 0.9438 14 -67.01 -27.06
0.76 -21.08 -39.01 -11.01 -39.01 -21.08 -21.08 -28 -34.13 -3.146 -9.124 5.978 -10.07 -1.101 23.91 -23.12 5.978
0.765 -25.01 -41.06 -9.124 -37.12 -29.1 -23.12 -23.12 -27.06 -7.079 -17.15 11.96 23.91 -5.034 37.91 17.93 45.93
0.77 -29.1 -35.08 -9.124 -34.13 -35.08 -27.06 -8.022 -11.01 -16.04 -23.12 11.96 54.9 -14 47.98 47.98 75.98
0.775 -27.06 -25.01 -11.01 -26.11 -33.03 -23.12 1.888 1.888 -26.11 -26.11 9.91 72.99 -24.07 49.87 65.91 89.98
0.78 -17.15 -11.01 -7.079 -13.06 -21.08 -9.124 5.978 7.865 -33.03 -19.03 9.91 75.98 -23.12 45.93 73.93 95.96
0.785 -2.045 6.921 0.9438 4.876 -1.101 7.865 15.89 14.94 -18.09 -1.101 17.93 77.87 -6.135 47.98 84 104
0.79 18.88 28.94 5.978 22.97 26.9 31.93 17.93 20.92 4.876 24.85 25.96 73.93 12.9 53.96 95.96 115
0.795 33.98 36.97 11.96 31.93 42 39.96 17.93 19.98 29.89 42 31.93 57.89 31.93 56 98 115.9
0.8 32.88 30.99 9.91 29.89 38.85 32.88 10.85 11.96 43.89 38.85 28 32.88 35.87 42.94 84.94 92.97
0.805 16.99 16.99 0.9438 14 16.99 8.966 0 0.9438 31.93 14.94 9.91 0 15.89 4.876 48.92 40.9
0.81 0.9438 -1.101 -13.06 0.9438 -5.034 -13.06 -7.079 -7.079 1.888 -15.1 -5.034 -43.1 -13.06 -41.06 0.9438 -31.15
0.815 -16.04 -5.034 -19.03 -6.135 -21.08 -28 -16.04 -14 -24.07 -37.12 -17.15 -77.08 -40.11 -90.13 -50.02 -106
0.82 -25.01 -7.079 -15.1 -10.07 -29.1 -30.04 -19.03 -20.13 -47.03 -49.08 -19.03 -98 -50.02 -118.1 -88.09 -163.1
0.825 -31.15 -7.079 -5.034 -7.079 -27.06 -29.1 -23.12 -23.12 -49.08 -45.15 -19.03 -107.1 -49.08 -125.1 -111.1 -199.1
0.83 -29.1 -5.034 -2.045 -8.022 -22.02 -21.08 -28 -24.07 -39.01 -33.03 -17.15 -105.1 -36.02 -111.1 -115.1 -207
0.835 -30.04 -11.01 -2.045 -13.06 -19.03 -21.08 -33.03 -28 -27.06 -24.07 -24.07 -101.1 -27.06 -91.08 -113.1 -194.1
0.84 -29.1 -17.15 0.9438 -15.1 -21.08 -19.03 -35.08 -31.15 -21.08 -17.15 -27.06 -87.15 -17.15 -67.01 -103 -165
0.845 -21.08 -13.06 0.9438 -8.022 -15.1 -12.11 -21.08 -22.02 -13.06 -6.135 -20.13 -60.09 -6.135 -46.09 -84 -123
0.85 -8.022 -1.101 4.876 -1.101 -5.034 -4.09 0.9438 -3.146 0 0.9438 -1.101 -22.02 4.876 -25.01 -59.15 -72.04
0.855 2.989 8.966 16.99 16.99 5.978 2.989 28.94 18.88 9.91 14.94 20.92 15.89 20.92 -7.079 -33.03 -20.13
0.86 14.94 24.85 26.9 30.99 14 12.9 52.85 45.93 20.92 26.9 42 50.97 32.88 1.888 -7.079 20.92
0.865 19.98 34.92 29.89 36.97 17.93 18.88 70 64.97 28 30.99 56.94 72.99 34.92 12.9 4.876 49.87
0.87 21.87 40.9 29.89 39.96 19.98 17.93 73.93 77.87 28 29.89 56 77.87 29.89 17.93 17.93 70
0.875 22.97 44.99 23.91 39.96 21.87 17.93 67.96 80.85 23.91 26.9 52.85 70 23.91 25.96 28 82.9
0.88 25.96 44.99 17.93 38.85 22.97 17.93 52.85 66.85 17.93 21.87 45.93 53.96 18.88 28 42 87.93
0.885 19.98 40.9 19.98 31.93 17.93 7.865 33.98 43.89 11.96 7.865 43.89 37.91 14 23.91 56 91.87
0.89 14 30.99 21.87 26.9 11.96 0 15.89 22.97 3.933 -3.146 43.89 28.94 4.876 18.88 68.9 93.91
0.895 0 20.92 21.87 16.99 -1.101 -16.04 4.876 6.921 -6.135 -21.08 43.89 23.91 -8.022 10.85 70.94 84.94
0.9 -23.12 6.921 19.98 3.933 -23.12 -33.03 3.933 0 -25.01 -37.12 37.91 21.87 -29.1 1.888 53.96 67.96
0.905 -38.07 2.989 14 1.888 -40.11 -42 9.91 6.921 -41.06 -44.04 28 20.92 -39.01 1.888 24.85 38.85
0.91 -44.04 -5.034 5.978 -1.101 -44.04 -40.11 12.9 15.89 -49.08 -42 14 6.921 -45.15 -6.135 -8.022 4.876
0.915 -39.01 -9.124 -2.045 -3.146 -41.06 -33.03 5.978 15.89 -47.03 -33.03 0 -11.01 -45.15 -15.1 -43.1 -29.1
0.92 -28 -3.146 -1.101 0 -30.04 -21.08 -3.146 2.989 -38.07 -24.07 -13.06 -41.06 -34.13 -31.15 -67.01 -68.11
0.925 -17.15 -1.101 -5.034 1.888 -16.04 -15.1 -23.12 -16.04 -28 -16.04 -27.06 -67.01 -28 -49.08 -81.01 -105.1
0.93 -11.01 -1.101 -9.124 0.9438 -9.124 -9.124 -39.01 -37.12 -19.03 -13.06 -43.1 -85.1 -21.08 -69.06 -87.15 -131
0.935 -3.146 -1.101 -9.124 -1.101 -1.101 -5.034 -42 -43.1 -10.07 -6.135 -55.06 -84 -14 -79.12 -95.01 -143.1
0.94 1.888 0.9438 -11.01 0.9438 3.933 0 -30.04 -39.01 0 3.933 -61.03 -70 0 -73.15 -105.1 -135.1
0.945 15.89 4.876 -7.079 3.933 15.89 14 -15.1 -23.12 7.865 19.98 -57.1 -47.03 5.978 -53.01 -109 -113.1
0.95 25.96 8.966 -3.146 11.96 28 28 0.9438 -4.09 23.91 35.87 -39.01 -20.13 21.87 -27.06 -99.1 -79.12
0.955 33.98 10.85 -2.045 15.89 33.98 35.87 18.88 8.966 39.96 45.93 -15.1 1.888 33.98 -3.146 -83.06 -47.03
0.96 31.93 8.966 1.888 19.98 33.98 35.87 29.89 23.91 47.98 45.93 3.933 14 39.96 5.978 -57.1 -19.03
0.965 25.96 8.966 5.978 19.98 29.89 31.93 39.96 37.91 45.93 37.91 19.98 29.89 39.96 7.865 -33.03 0.9438
0.97 21.87 6.921 3.933 15.89 23.91 23.91 43.89 45.93 35.87 25.96 23.91 37.91 33.98 3.933 -15.1 11.96
0.975 21.87 6.921 3.933 9.91 21.87 19.98 37.91 43.89 21.87 19.98 21.87 39.96 28 1.888 -2.045 31.93
0.98 28 4.876 1.888 3.933 23.91 21.87 25.96 33.98 14 17.93 14 37.91 23.91 5.978 17.93 51.91
0.985 33.98 0.9438 0 -2.045 28 25.96 11.96 17.93 14 21.87 7.865 29.89 23.91 11.96 39.96 70
0.99 39.96 0.9438 0.9438 -3.146 33.98 28 0.9438 3.933 17.93 25.96 0 21.87 23.91 11.96 53.96 75.98
0.995 39.96 -3.146 -3.146 -5.034 33.98 29.89 0.9438 0.9438 23.91 29.89 -5.034 9.91 25.96 5.978 49.87 63.87
1 37.91 -3.146 -5.034 -4.09 31.93 31.93 0.9438 -2.045 28 28 -15.1 0.9438 25.96 -3.146 29.89 37.91
1.005 33.98 0.9438 -1.101 -1.101 29.89 31.93 6.921 2.989 25.96 21.87 -23.12 -17.15 21.87 -17.15 0 7.865
1.01 29.89 2.989 1.888 5.978 23.91 31.93 11.96 9.91 19.98 11.96 -25.01 -33.03 14 -27.06 -17.15 -13.06
1.015 25.96 12.9 14 16.99 17.93 25.96 11.96 12.9 9.91 -1.101 -21.08 -47.03 2.989 -32.09 -28 -32.09
1.02 15.89 16.99 19.98 21.87 7.865 11.96 0 6.921 0.9438 -10.07 -13.06 -52.07 -8.022 -36.02 -30.04 -48.13
1.025 1.888 6.921 14 11.96 -1.101 -3.146 -9.124 -1.101 -17.15 -29.1 -11.01 -55.06 -27.06 -43.1 -35.08 -59.15
1.03 -13.06 -3.146 -1.101 -2.045 -17.15 -25.01 -18.09 -12.11 -37.12 -44.04 -15.1 -54.11 -42 -48.13 -42 -66.07
1.035 -31.15 -19.03 -12.11 -14 -33.03 -40.11 -22.02 -17.15 -55.06 -54.11 -21.08 -54.11 -54.11 -50.02 -56 -68.11
1.04 -41.06 -35.08 -23.12 -27.06 -43.1 -47.03 -19.03 -21.08 -65.12 -57.1 -25.01 -53.01 -57.1 -41.06 -63.08 -55.06
1.045 -39.01 -39.01 -16.04 -29.1 -44.04 -40.11 -9.124 -13.06 -59.15 -49.08 -17.15 -40.11 -50.02 -21.08 -49.08 -27.06
1.05 -29.1 -31.15 0 -22.02 -36.02 -26.11 2.989 -1.101 -43.1 -33.03 0.9438 -15.1 -35.08 0 -23.12 1.888
1.055 -13.06 -19.03 7.865 -13.06 -21.08 -7.079 15.89 11.96 -19.03 -9.124 15.89 11.96 -13.06 31.93 1.888 42
1.06 0 -9.124 12.9 -6.135 1.888 6.921 22.97 23.91 1.888 10.85 23.91 42 7.865 58.99 20.92 78.97
1.065 14 -5.034 5.978 -3.146 16.99 19.98 20.92 24.85 21.87 29.89 17.93 56.94 30.99 73.93 25.96 98
1.07 21.87 -9.124 -5.034 -9.124 28 21.87 9.91 17.93 35.87 33.98 0 49.87 37.91 70 15.89 98
1.075 22.97 -13.06 -12.11 -11.01 31.93 21.87 -1.101 4.876 37.91 28 -14 29.89 33.98 57.89 11.96 81.96
1.08 16.99 -17.15 -10.07 -16.04 21.87 16.99 -4.09 0 32.88 17.93 -24.07 4.876 23.91 38.85 12.9 58.99
1.085 5.978 -19.03 -5.034 -15.1 7.865 7.865 -11.01 -7.079 15.89 3.933 -25.01 -5.034 7.865 23.91 28 47.98
1.09 0.9438 -15.1 0 -10.07 -2.045 0 -8.022 -8.022 4.876 0 -11.01 -2.045 1.888 21.87 46.88 51.91
1.095 1.888 -19.03 1.888 -12.11 -1.101 1.888 -10.07 -9.124 -2.045 3.933 1.888 2.989 2.989 32.88 56 66.85
1.1 -1.101 -21.08 -5.034 -14 0 1.888 -11.01 -13.06 2.989 10.85 7.865 9.91 9.91 45.93 52.85 79.91
1.105 0.9438 -25.01 -10.07 -16.04 3.933 0.9438 -14 -19.03 7.865 17.93 8.966 8.966 18.88 50.97 35.87 74.88
1.11 6.921 -17.15 -12.11 -16.04 9.91 5.978 -12.11 -18.09 14.94 19.98 11.96 -1.101 21.87 45.93 14.94 49.87
1.115 7.865 -13.06 -7.079 -11.01 11.96 9.91 -5.034 -11.01 14 14 9.91 -3.146 17.93 28 -1.101 11.96
1.12 10.85 -1.101 -2.045 0 11.96 12.9 0.9438 0 10.85 5.978 18.88 -6.135 11.96 12.9 -6.135 -10.07
1.125 8.966 0.9438 -1.101 1.888 5.978 7.865 6.921 4.876 1.888 -3.146 24.85 -3.146 -2.045 1.888 -1.101 -19.03
1.13 1.888 2.989 0 1.888 -2.045 0 1.888 5.978 -1.101 -13.06 23.91 -7.079 -9.124 -1.101 0 -11.01
1.135 -2.045 2.989 1.888 1.888 -6.135 -1.101 -6.135 1.888 -9.124 -19.03 17.93 -18.09 -18.09 -1.101 7.865 1.888
1.14 -3.146 -1.101 1.888 0 -12.11 -12.11 -24.07 -15.1 -17.15 -24.07 1.888 -37.12 -25.01 -4.09 0.9438 8.966
1.145 -11.01 -1.101 -3.146 -1.101 -19.03 -21.08 -39.01 -33.03 -23.12 -33.03 -11.01 -61.03 -33.03 -13.06 -5.034 0
1.15 -21.08 -1.101 -4.09 -1.101 -28 -32.09 -44.04 -40.11 -33.03 -39.01 -19.03 -71.1 -39.01 -23.12 -13.06 -13.06
1.155 -33.03 -1.101 -6.135 0 -36.02 -42 -41.06 -39.01 -43.1 -49.08 -19.03 -72.04 -48.13 -29.1 -7.079 -23.12
1.16 -45.15 -1.101 -11.01 0.9438 -47.03 -55.06 -33.03 -35.08 -57.1 -59.15 -9.124 -59.15 -61.03 -35.08 -2.045 -27.06
1.165 -53.01 0.9438 -10.07 -4.09 -57.1 -60.09 -24.07 -27.06 -69.06 -68.11 1.888 -38.07 -70 -34.13 14.94 -16.04
1.17 -55.06 -5.034 -6.135 -7.079 -63.08 -59.15 -18.09 -24.07 -77.08 -70 11.96 -18.09 -76.13 -28 24.85 0
1.175 -47.03 -3.146 -3.146 -7.079 -55.06 -47.03 -15.1 -19.03 -73.15 -63.08 17.93 -3.146 -73.15 -15.1 23.91 9.91
1.18 -33.03 2.989 -2.045 -1.101 -37.12 -25.01 -7.079 -10.07 -57.1 -44.04 15.89 6.921 -54.11 0.9438 20.92 22.97
1.185 -13.06 0.9438 0 -1.101 -11.01 -1.101 0.9438 0 -33.03 -14 11.96 19.98 -22.02 24.85 16.99 38.85
1.19 1.888 2.989 0.9438 1.888 9.91 15.89 1.888 3.933 0.9438 9.91 11.96 31.93 3.933 42 17.93 49.87
1.195 19.98 2.989 -7.079 0.9438 29.89 29.89 8.966 10.85 28 35.87 14 43.89 33.98 47.98 19.98 56
1.2 29.89 -1.101 -13.06 -1.101 37.91 35.87 6.921 11.96 47.98 47.98 14 45.93 49.87 37.91 19.98 47.98
1.205 33.98 -7.079 -13.06 -1.101 37.91 33.98 3.933 7.865 53.96 51.91 11.96 35.87 53.96 15.89 14 25.96
1.21 31.93 -5.034 -7.079 -1.101 33.98 28 -1.101 1.888 49.87 43.89 7.865 17.93 47.98 -7.079 9.91 0.9438
1.215 28 0.9438 -2.045 0 25.96 19.98 -3.146 0.9438 39.96 31.93 3.933 0.9438 37.91 -27.06 9.91 -21.08
1.22 17.93 4.876 5.978 5.978 15.89 11.96 -9.124 -5.034 25.96 15.89 0 -17.15 23.91 -35.08 17.93 -27.06
1.225 5.978 8.966 7.865 5.978 5.978 0 -13.06 -13.06 11.96 -2.045 -2.045 -27.06 7.865 -27.06 25.96 -17.15
1.23 -5.034 0.9438 -2.045 0 -1.101 -7.079 -21.08 -23.12 0.9438 -13.06 -3.146 -29.1 -1.101 -13.06 31.93 0
1.235 -15.1 -9.124 -17.15 -7.079 -13.06 -15.1 -31.15 -34.13 -11.01 -21.08 -11.01 -25.01 -11.01 0 29.89 19.98
1.24 -19.03 -21.08 -33.03 -19.03 -17.15 -17.15 -39.01 -41.06 -17.15 -19.03 -21.08 -17.15 -11.01 15.89 25.96 33.98
1.245 -9.124 -23.12 -39.01 -23.12 -7.079 -7.079 -32.09 -36.02 -13.06 -3.146 -27.06 -2.045 0.9438 31.93 21.87 39.96
1.25 5.978 -9.124 -29.1 -10.07 7.865 9.91 -12.11 -18.09 -2.045 17.93 -23.12 12.9 17.93 45.93 25.96 40.9
1.255 28 4.876 -7.079 1.888 29.89 31.93 9.91 5.978 21.87 39.96 -9.124 35.87 37.91 57.89 29.89 39.96
1.26 42 30.99 7.865 22.97 45.93 45.93 36.97 31.93 42.94 56 1.888 56.94 51.91 62.92 35.87 40.9
1.265 47.98 44.99 17.93 38.85 49.87 49.87 50.97 47.98 52.85 56.94 11.96 62.92 54.9 58.99 31.93 38.85
1.27 42 48.92 15.89 43.89 45.93 43.89 45.93 47.98 49.87 45.93 11.96 49.87 47.98 45.93 21.87 31.93
1.275 35.87 48.92 9.91 45.93 37.91 31.93 33.98 40.9 42.94 32.88 5.978 21.87 38.85 30.99 0 18.88
1.28 31.93 42.94 3.933 42 31.93 23.91 17.93 30.99 30.99 24.85 -2.045 -13.06 30.99 14.94 -19.03 3.933
1.285 28 40.9 5.978 39.96 28 19.98 5.978 15.89 21.87 17.93 0.9438 -47.03 23.91 5.978 -35.08 -9.124
1.29 25.96 40.9 11.96 38.85 26.9 17.93 4.876 6.921 17.93 14.94 -1.101 -66.07 18.88 5.978 -39.01 -17.15
1.295 17.93 36.97 19.98 32.88 20.92 15.89 3.933 0.9438 9.91 10.85 8.966 -60.09 10.85 14 -29.1 -8.022
1.3 5.978 24.85 19.98 21.87 9.91 11.96 5.978 -2.045 7.865 7.865 15.89 -33.03 5.978 23.91 -7.079 5.978
1.305 -1.101 10.85 14.94 7.865 -1.101 1.888 12.9 4.876 6.921 7.865 24.85 4.876 3.933 35.87 9.91 33.98
1.31 -7.079 -1.101 10.85 0.9438 -2.045 -2.045 22.97 16.99 3.933 9.91 32.88 44.99 4.876 42.94 23.91 47.98
1.315 -5.034 -3.146 7.865 -1.101 -5.034 0.9438 35.87 29.89 5.978 14 35.87 71.89 7.865 37.91 21.87 45.93
1.32 0.9438 -1.101 10.85 1.888 -1.101 -2.045 47.98 42.94 11.96 18.88 38.85 79.91 14 23.91 11.96 25.96
1.325 1.888 0.9438 12.9 1.888 3.933 -1.101 46.88 42.94 14.94 15.89 37.91 70.94 12.9 5.978 4.876 5.978
1.33 -2.045 -3.146 7.865 0.9438 1.888 0.9438 31.93 29.89 14 5.978 25.96 47.98 5.978 -3.146 7.865 -3.146
1.335 -6.135 -9.124 0 -11.01 -1.101 -8.022 3.933 7.865 4.876 -2.045 11.96 15.89 -3.146 -1.101 18.88 2.989
1.34 -23.12 -23.12 -8.022 -24.07 -17.15 -25.01 -18.09 -17.15 -3.146 -18.09 -1.101 -9.124 -19.03 5.978 31.93 28.94
1.345 -35.08 -31.15 -15.1 -33.03 -29.1 -34.13 -37.12 -38.07 -21.08 -30.04 -17.15 -27.06 -30.04 22.97 38.85 57.89
1.35 -41.06 -33.03 -16.04 -36.02 -37.12 -39.01 -38.07 -39.01 -29.1 -30.04 -27.06 -37.12 -33.03 35.87 39.96 74.88
1.355 -32.09 -25.01 -13.06 -29.1 -29.1 -28 -25.01 -25.01 -30.04 -20.13 -27.06 -29.1 -27.06 39.96 36.97 70.94
1.36 -17.15 -15.1 -7.079 -15.1 -15.1 -11.01 -5.034 -7.079 -17.15 -1.101 -25.01 -17.15 -9.124 31.93 29.89 57.89
1.365 0.9438 2.989 0 1.888 1.888 4.876 10.85 12.9 1.888 15.89 -11.01 -1.101 6.921 25.96 22.97 39.96
1.37 11.96 10.85 1.888 9.91 16.99 21.87 28 30.99 21.87 30.99 -4.09 14 25.96 19.98 7.865 29.89
1.375 23.91 22.97 -2.045 21.87 29.89 31.93 33.98 37.91 37.91 39.96 0.9438 23.91 39.96 19.98 -7.079 23.91
1.38 31.93 32.88 -1.101 32.88 36.97 35.87 36.97 42.94 47.98 42 0.9438 28.94 48.92 20.92 -29.1 19.98
1.385 33.98 40.9 1.888 37.91 36.97 31.93 34.92 38.85 46.88 42 -1.101 20.92 47.98 14 -41.06 11.96
1.39 31.93 36.97 -11.01 31.93 28 19.98 19.98 28 37.91 29.89 -5.034 7.865 39.96 5.978 -45.15 -2.045
1.395 14 18.88 -31.15 10.85 10.85 0 0.9438 4.876 19.98 12.9 -18.09 -4.09 22.97 1.888 -39.01 -12.11
1.4 -7.079 -9.124 -53.01 -14 -15.1 -23.12 -40.11 -30.04 1.888 -12.11 -35.08 -30.04 -4.09 -3.146 -33.03 -21.08
1.405 -41.06 -41.06 -65.12 -47.03 -47.03 -51.12 -79.12 -71.1 -31.15 -51.12 -47.03 -57.1 -45.15 -9.124 -31.15 -25.01
1.41 -71.1 -59.15 -61.03 -63.08 -73.15 -75.03 -103 -98 -64.02 -84 -45.15 -75.03 -82.11 -14 -29.1 -19.03
1.415 -87.15 -59.15 -39.01 -59.15 -91.08 -87.15 -101.1 -98 -92.02 -108.1 -31.15 -83.06 -106 -24.07 -25.01 -16.04
1.42 -89.03 -45.15 -11.01 -41.06 -91.08 -83.06 -75.03 -77.08 -109 -113.1 -5.034 -79.12 -113.1 -35.08 -17.15 -19.03
1.425 -75.03 -23.12 9.91 -14 -79.12 -71.1 -32.09 -35.08 -104.1 -95.01 19.98 -56 -100 -40.11 -7.079 -20.13
1.43 -53.01 0.9438 23.91 4.876 -57.1 -49.08 0.9438 0 -82.11 -63.08 43.89 -26.11 -73.15 -32.09 0.9438 -18.09
1.435 -27.06 10.85 25.96 19.98 -27.06 -21.08 25.96 25.96 -49.08 -17.15 57.89 -2.045 -31.15 -11.01 3.933 -3.146
1.44 -2.045 22.97 25.96 28.94 3.933 7.865 38.85 38.85 -7.079 23.91 56 24.85 7.865 14 11.96 14.94
1.445 29.89 30.99 25.96 31.93 42 43.89 42.94 42.94 29.89 67.96 45.93 42.94 53.96 37.91 19.98 37.91
1.45 57.89 38.85 25.96 37.91 73.93 71.89 49.87 49.87 70 99.89 31.93 56 89.98 53.96 29.89 53.96
1.455 73.93 40.9 21.87 35.87 87.93 81.96 57.89 60.88 98 110 17.93 57.89 105.9 53.96 33.98 51.91
1.46 70 32.88 7.865 28 77.87 70 59.93 63.87 101.9 91.87 0 47.98 95.96 42 21.87 31.93
1.465 45.93 16.99 -7.079 11.96 45.93 37.91 43.89 56 79.91 51.91 -13.06 21.87 61.98 23.91 -1.101 1.888
1.47 9.91 0.9438 -27.06 -3.146 3.933 1.888 15.89 31.93 37.91 1.888 -31.15 -15.1 14 0 -39.01 -27.06
1.475 -17.15 -15.1 -37.12 -17.15 -25.01 -21.08 -11.01 -2.045 -3.146 -33.03 -45.15 -65.12 -23.12 -19.03 -73.15 -55.06
1.48 -35.08 -23.12 -39.01 -25.01 -39.01 -31.15 -35.08 -25.01 -37.12 -49.08 -49.08 -105.1 -45.15 -43.1 -95.01 -75.03
1.485 -31.15 -23.12 -31.15 -23.12 -31.15 -21.08 -39.01 -37.12 -47.03 -41.06 -41.06 -127.1 -43.1 -55.06 -99.1 -79.12
1.49 -15.1 -17.15 -19.03 -14 -11.01 -5.034 -28 -33.03 -35.08 -19.03 -27.06 -125.1 -25.01 -53.01 -88.09 -69.06
1.495 0.9438 -13.06 -11.01 -10.07 0 0 -14 -19.03 -13.06 0.9438 -11.01 -103 -5.034 -33.03 -70 -45.15
1.5 -2.045 -15.1 -5.034 -9.124 1.888 -2.045 -9.124 -11.01 0.9438 1.888 0.9438 -71.1 -2.045 -7.079 -47.03 -19.03
1.505 -7.079 -17.15 0.9438 -14 -5.034 -7.079 -10.07 -11.01 0.9438 -2.045 5.978 -39.01 -3.146 14 -20.13 1.888
1.51 -21.08 -19.03 1.888 -16.04 -19.03 -17.15 -11.01 -12.11 -7.079 -14 14 -7.079 -15.1 33.98 2.989 23.91
1.515 -29.1 -21.08 7.865 -17.15 -23.12 -17.15 -9.124 -9.124 -17.15 -17.15 21.87 15.89 -17.15 47.98 33.98 43.89
1.52 -19.03 -11.01 12.9 -11.01 -9.124 -2.045 -2.045 1.888 -9.124 -2.045 25.96 43.89 -3.146 56 59.93 61.98
1.525 -2.045 -1.101 16.99 -2.045 9.91 10.85 14.94 14.94 3.933 16.99 26.9 64.97 14 57.89 70 73.93
1.53 21.87 12.9 17.93 14 33.98 28 29.89 31.93 25.96 35.87 19.98 70 35.87 53.96 67.96 73.93
1.535 37.91 26.9 20.92 26.9 45.93 36.97 35.87 38.85 42 45.93 8.966 56.94 46.88 35.87 46.88 57.89
1.54 39.96 38.85 26.9 35.87 43.89 34.92 35.87 37.91 43.89 39.96 0.9438 28.94 38.85 6.921 21.87 23.91
1.545 35.87 42.94 33.98 37.91 37.91 31.93 37.91 31.93 31.93 25.96 -2.045 0 21.87 -23.12 0.9438 -9.124
1.55 28 42.94 42 43.89 30.99 31.93 43.89 31.93 22.97 18.88 0.9438 -16.04 12.9 -48.13 -16.04 -41.06
1.555 25.96 48.92 45.93 44.99 28.94 33.98 50.97 40.9 18.88 18.88 9.91 -20.13 12.9 -58.04 -27.06 -59.15
1.56 31.93 48.92 47.98 45.93 29.89 35.87 56 47.98 21.87 25.96 14 -19.03 17.93 -53.01 -33.03 -65.12
1.565 33.98 52.85 44.99 47.98 30.99 32.88 56.94 53.96 30.99 28.94 19.98 -17.15 25.96 -36.02 -42 -65.12
1.57 28 50.97 39.96 46.88 28 21.87 49.87 50.97 28.94 17.93 26.9 -18.09 20.92 -17.15 -53.01 -60.09
1.575 15.89 40.9 28 35.87 14 3.933 29.89 37.91 15.89 1.888 25.96 -29.1 5.978 -1.101 -63.08 -55.06
1.58 -1.101 20.92 10.85 16.99 -1.101 -6.135 5.978 18.88 -1.101 -10.07 21.87 -37.12 -4.09 11.96 -62.13 -38.07
1.585 -12.11 -1.101 -5.034 0.9438 -12.11 -18.09 -2.045 1.888 -13.06 -19.03 14 -40.11 -14 21.87 -46.09 -15.1
1.59 -22.02 -15.1 -21.08 -13.06 -19.03 -22.02 -8.022 -5.034 -20.13 -19.03 2.989 -29.1 -18.09 32.88 -21.08 10.85
1.595 -22.02 -23.12 -31.15 -23.12 -24.07 -16.04 -4.09 -3.146 -19.03 -15.1 -3.146 -8.022 -12.11 37.91 4.876 31.93
1.6 -18.09 -15.1 -26.11 -18.09 -20.13 -8.022 1.888 -1.101 -10.07 -6.135 -3.146 14 -4.09 42 36.97 46.88
1.605 -7.079 -3.146 -19.03 -7.079 -9.124 -2.045 15.89 11.96 -3.146 -1.101 0 42 -2.045 47.98 65.91 49.87
1.61 3.933 8.966 -11.01 2.989 5.978 14 31.93 26.9 4.876 7.865 10.85 70.94 8.966 57.89 87.93 50.97
1.615 19.98 18.88 -8.022 11.96 24.85 28.94 38.85 35.87 18.88 24.85 11.96 87.93 25.96 62.92 94.85 47.98
1.62 33.98 18.88 -17.15 14 39.96 39.96 39.96 39.96 29.89 43.89 7.865 91.87 37.91 57.89 84 45.93
1.625 39.96 14.94 -23.12 8.966 48.92 45.93 34.92 34.92 42.94 54.9 0 84.94 48.92 38.85 61.98 35.87
1.63 39.96 4.876 -25.01 5.978 44.99 45.93 28 25.96 46.88 54.9 -4.09 64.97 50.97 10.85 36.97 17.93
1.635 35.87 2.989 -17.15 3.933 37.91 37.91 17.93 15.89 45.93 45.93 -3.146 42 43.89 -17.15 14 -1.101
1.64 31.93 8.966 1.888 14 33.98 34.92 17.93 15.89 39.96 37.91 4.876 26.9 38.85 -36.02 5.978 -21.08
1.645 33.98 18.88 14.94 24.85 33.98 34.92 23.91 20.92 37.91 35.87 20.92 20.92 36.97 -37.12 6.921 -27.06
1.65 37.91 30.99 25.96 33.98 35.87 35.87 29.89 28 39.96 35.87 31.93 19.98 39.96 -19.03 7.865 -25.01
1.655 37.91 36.97 32.88 35.87 35.87 36.97 34.92 34.92 42 42.94 38.85 20.92 42 -1.101 1.888 -17.15
1.66 31.93 32.88 28.94 29.89 31.93 32.88 33.98 34.92 45.93 44.99 33.98 15.89 39.96 11.96 -5.034 -7.079
1.665 23.91 20.92 19.98 17.93 23.91 21.87 25.96 28 39.96 35.87 29.89 14 33.98 19.98 -21.08 -2.045
1.67 15.89 12.9 15.89 12.9 14 11.96 28 24.85 29.89 26.9 29.89 15.89 23.91 21.87 -22.02 9.91
1.675 9.91 10.85 19.98 10.85 9.91 5.978 34.92 28 17.93 16.99 37.91 25.96 14 23.91 -2.045 29.89
1.68 7.865 14.94 25.96 17.93 7.865 5.978 43.89 35.87 9.91 11.96 47.98 37.91 7.865 33.98 25.96 53.96
1.685 9.91 24.85 29.89 28.94 9.91 7.865 54.9 45.93 7.865 9.91 57.89 49.87 7.865 45.93 68.9 77.87
1.69 9.91 30.99 28 32.88 9.91 9.91 50.97 47.98 9.91 9.91 59.93 49.87 5.978 53.96 96.9 91.87
1.695 9.91 30.99 17.93 25.96 7.865 5.978 31.93 33.98 9.91 5.978 51.91 37.91 5.978 49.87 99.89 85.89
1.7 5.978 20.92 3.933 14 1.888 1.888 7.865 14 5.978 1.888 35.87 21.87 3.933 31.93 84 65.91
1.705 3.933 6.921 -7.079 -2.045 0 0 -9.124 -3.146 1.888 1.888 14 7.865 3.933 7.865 51.91 35.87
1.71 5.978 -1.101 -19.03 -9.124 3.933 3.933 -21.08 -17.15 1.888 9.91 -7.079 0 9.91 -11.01 11.96 1.888
1.715 11.96 -9.124 -29.1 -17.15 15.89 15.89 -23.12 -23.12 11.96 23.91 -29.1 0 19.98 -27.06 -19.03 -25.01
1.72 25.96 -11.01 -37.12 -17.15 33.98 33.98 -19.03 -21.08 28 42 -49.08 5.978 37.91 -33.03 -43.1 -51.12
1.725 42 -5.034 -45.15 -9.124 51.91 51.91 -9.124 -12.11 47.98 59.93 -63.08 17.93 56 -27.06 -49.08 -65.12
1.73 57.89 -1.101 -51.12 0.9438 63.87 61.98 1.888 0.9438 65.91 71.89 -69.06 33.98 71.89 -13.06 -39.01 -57.1
1.735 65.91 8.966 -57.1 6.921 70 63.87 22.97 16.99 75.98 75.98 -67.01 54.9 79.91 1.888 -17.15 -25.01
1.74 63.87 10.85 -59.15 6.921 63.87 56 36.97 34.92 74.88 67.96 -59.15 68.9 73.93 23.91 -2.045 14
1.745 49.87 8.966 -57.1 1.888 47.98 35.87 39.96 42 59.93 47.98 -49.08 67.96 53.96 43.89 9.91 56
1.75 28 0.9438 -53.01 -2.045 23.91 11.96 31.93 39.96 38.85 22.97 -35.08 52.85 26.9 56 7.865 75.98
1.755 3.933 -3.146 -47.03 -12.11 0 -5.034 11.96 19.98 8.966 0 -21.08 25.96 -1.101 53.96 0.9438 67.96
1.76 -7.079 -13.06 -35.08 -19.03 -13.06 -21.08 -5.034 -2.045 -15.1 -19.03 -3.146 -2.045 -19.03 37.91 0.9438 42
1.765 -15.1 -17.15 -17.15 -13.06 -20.13 -23.12 -12.11 -10.07 -28 -22.02 14 -7.079 -24.07 17.93 2.989 15.89
1.77 -15.1 -11.01 -2.045 -5.034 -16.04 -13.06 -4.09 -7.079 -27.06 -12.11 37.91 -2.045 -18.09 2.989 14.94 3.933
1.775 -9.124 -5.034 17.93 0.9438 -7.079 0.9438 1.888 -2.045 -15.1 -2.045 53.96 3.933 -7.079 -2.045 25.96 7.865
1.78 -2.045 -5.034 26.9 0 -1.101 3.933 5.978 7.865 0 11.96 57.89 9.91 1.888 0.9438 22.97 11.96
1.785 -4.09 -15.1 22.97 -12.11 -1.101 0.9438 -4.09 -2.045 12.9 9.91 43.89 -2.045 1.888 0.9438 5.978 1.888
1.79 -17.15 -35.08 11.96 -29.1 -13.06 -15.1 -33.03 -23.12 5.978 -7.079 15.89 -23.12 -3.146 -11.01 -17.15 -17.15
1.795 -32.09 -49.08 -1.101 -42 -34.13 -40.11 -64.02 -54.11 -9.124 -32.09 -7.079 -51.12 -22.02 -38.07 -39.01 -48.13
1.8 -50.02 -57.1 -4.09 -47.03 -57.1 -58.04 -79.12 -76.13 -41.06 -56 -25.01 -70 -43.1 -68.11 -44.04 -72.04
1.805 -57.1 -53.01 -1.101 -43.1 -69.06 -63.08 -71.1 -81.01 -63.08 -67.01 -27.06 -69.06 -63.08 -87.15 -31.15 -77.08
1.81 -51.12 -35.08 7.865 -27.06 -60.09 -50.02 -40.11 -59.15 -71.1 -64.02 -11.01 -48.13 -67.01 -87.15 -1.101 -60.09
1.815 -39.01 -13.06 19.98 -8.022 -44.04 -29.1 -1.101 -20.13 -63.08 -49.08 5.978 -13.06 -57.1 -68.11 18.88 -42
1.82 -19.03 -1.101 29.89 1.888 -21.08 -9.124 28 14 -41.06 -27.06 25.96 17.93 -39.01 -49.08 29.89 -31.15
1.825 -1.101 10.85 23.91 9.91 -2.045 0 47.98 47.98 -16.04 -10.07 33.98 48.92 -15.1 -31.15 28.94 -32.09
1.83 6.921 14.94 4.876 12.9 3.933 5.978 51.91 59.93 1.888 3.933 26.9 58.99 1.888 -23.12 18.88 -29.1
1.835 14.94 10.85 -14 7.865 14.94 8.966 44.99 54.9 7.865 16.99 4.876 53.96 16.99 -4.09 5.978 -16.04
1.84 20.92 4.876 -34.13 2.989 21.87 19.98 28 37.91 14.94 33.98 -14 32.88 29.89 11.96 1.888 5.978
1.845 25.96 0.9438 -49.08 -2.045 32.88 29.89 14 15.89 24.85 42.94 -33.03 10.85 39.96 42 -1.101 36.97
1.85 29.89 0.9438 -51.12 -3.146 37.91 33.98 -2.045 -1.101 33.98 47.98 -41.06 -5.034 43.89 57.89 0 56
1.855 25.96 -5.034 -47.03 -10.07 38.85 33.98 -7.079 -14 39.96 43.89 -37.12 -13.06 43.89 62.92 2.989 60.88
1.86 21.87 -13.06 -39.01 -21.08 24.85 22.97 -10.07 -19.03 39.96 30.99 -23.12 -4.09 37.91 49.87 3.933 48.92
1.865 11.96 -21.08 -31.15 -23.12 9.91 9.91 -3.146 -7.079 28 15.89 -2.045 11.96 23.91 31.93 1.888 31.93
1.87 6.921 -15.1 -16.04 -17.15 3.933 2.989 11.96 8.966 15.89 6.921 23.91 42.94 15.89 16.99 8.966 20.92
1.875 6.921 -9.124 2.989 -8.022 2.989 4.876 36.97 30.99 5.978 8.966 49.87 70 10.85 6.921 17.93 18.88
1.88 11.96 0.9438 25.96 0 7.865 11.96 49.87 47.98 1.888 15.89 65.91 84 9.91 3.933 28 19.98
1.885 18.88 10.85 48.92 12.9 16.99 18.88 48.92 49.87 8.966 21.87 65.91 75.98 9.91 0.9438 35.87 15.89
1.89 20.92 20.92 64.97 22.97 20.92 19.98 29.89 39.96 11.96 19.98 51.91 49.87 11.96 1.888 32.88 7.865
1.895 17.93 22.97 67.96 21.87 19.98 17.93 0 11.96 11.96 11.96 29.89 14 9.91 -5.034 29.89 0
1.9 17.93 20.92 61.98 23.91 14.94 15.89 -22.02 -11.01 9.91 4.876 5.978 -14 6.921 -10.07 26.9 -5.034
1.905 15.89 12.9 49.87 15.89 10.85 7.865 -40.11 -36.02 2.989 -1.101 -11.01 -37.12 2.989 -23.12 16.99 -17.15
1.91 9.91 2.989 33.98 0 3.933 1.888 -49.08 -53.01 0.9438 -3.146 -31.15 -51.12 -3.146 -39.01 0.9438 -39.01
1.915 0 -7.079 9.91 -10.07 -1.101 -5.034 -53.01 -63.08 -4.09 -12.11 -49.08 -63.08 -12.11 -63.08 -34.13 -65.12
1.92 -11.01 -21.08 -7.079 -26.11 -17.15 -17.15 -59.15 -65.12 -16.04 -24.07 -65.12 -80.07 -24.07 -81.01 -77.08 -89.03
1.925 -21.08 -29.1 -19.03 -31.15 -29.1 -25.01 -59.15 -63.08 -29.1 -35.08 -73.15 -89.03 -35.08 -85.1 -109 -97.06
1.93 -23.12 -17.15 -19.03 -18.09 -29.1 -21.08 -40.11 -44.04 -34.13 -35.08 -65.12 -78.02 -35.08 -71.1 -113.1 -83.06
1.935 -11.01 0.9438 -7.079 2.989 -17.15 -7.079 -4.09 -10.07 -29.1 -23.12 -45.15 -44.04 -23.12 -43.1 -95.01 -49.08
1.94 0 26.9 1.888 28 0.9438 3.933 33.98 25.96 -15.1 -7.079 -17.15 -2.045 -7.079 -13.06 -59.15 -9.124
1.945 14 44.99 7.865 39.96 9.91 14 67.96 64.97 -2.045 1.888 1.888 43.89 1.888 3.933 -21.08 19.98
1.95 17.93 38.85 0 31.93 14 11.96 73.93 79.91 7.865 3.933 15.89 65.91 5.978 15.89 0 39.96
1.955 7.865 12.9 -17.15 1.888 5.978 1.888 49.87 61.98 5.978 -2.045 19.98 61.98 0 21.87 17.93 49.87
1.96 -1.101 -17.15 -43.1 -29.1 -1.101 -5.034 5.978 19.98 0.9438 -5.034 14 39.96 -5.034 25.96 31.93 57.89
1.965 -11.01 -47.03 -61.03 -59.15 -11.01 -11.01 -33.03 -23.12 -9.124 -11.01 5.978 11.96 -11.01 33.98 45.93 63.87
1.97 -17.15 -65.12 -69.06 -73.15 -17.15 -15.1 -65.12 -59.15 -15.1 -15.1 -1.101 -3.146 -17.15 37.91 56 59.93
1.975 -17.15 -71.1 -73.15 -77.08 -19.03 -17.15 -77.08 -75.03 -17.15 -19.03 -17.15 -17.15 -17.15 33.98 53.96 45.93
1.98 -17.15 -65.12 -73.15 -72.04 -21.08 -19.03 -72.04 -71.1 -17.15 -21.08 -35.08 -29.1 -19.03 17.93 37.91 15.89
1.985 -15.1 -59.15 -71.1 -66.07 -21.08 -21.08 -56 -59.15 -19.03 -21.08 -49.08 -41.06 -19.03 -3.146 11.96 -13.06
1.99 -9.124 -51.12 -65.12 -55.06 -13.06 -13.06 -37.12 -39.01 -21.08 -15.1 -53.01 -49.08 -15.1 -31.15 -9.124 -41.06
1.995 -1.101 -37.12 -55.06 -38.07 0.9438 -1.101 -12.11 -21.08 -17.15 -3.146 -43.1 -45.15 -5.034 -49.08 -24.07 -55.06
2 5.978 -27.06 -41.06 -25.01 9.91 7.865 1.888 -4.09 -9.124 7.865 -25.01 -33.03 1.888 -52.07 -30.04 -53.01
2.005 14 -19.03 -29.1 -15.1 19.98 17.93 14 5.978 0 17.93 -5.034 -11.01 11.96 -45.15 -29.1 -41.06
2.01 19.98 -11.01 -21.08 -9.124 21.87 19.98 23.91 20.92 12.9 24.85 3.933 6.921 19.98 -24.07 -24.07 -25.01
2.015 19.98 -3.146 -15.1 -4.09 19.98 17.93 22.97 28.94 18.88 20.92 8.966 20.92 19.98 -8.022 -18.09 -11.01
2.02 17.93 -1.101 -13.06 -3.146 14 9.91 17.93 21.87 15.89 9.91 3.933 21.87 14 -3.146 -17.15 -1.101
2.025 14 0.9438 -8.022 0.9438 5.978 2.989 9.91 12.9 8.966 0.9438 -1.101 16.99 1.888 -4.09 -15.1 2.989
2.03 5.978 4.876 -4.09 1.888 -2.045 -2.045 -2.045 1.888 0 -8.022 -2.045 8.966 -7.079 -11.01 -11.01 10.85
2.035 0.9438 0.9438 -5.034 -3.146 -5.034 -11.01 -7.079 -5.034 -13.06 -21.08 -3.146 7.865 -17.15 -15.1 -1.101 15.89
2.04 -4.09 -1.101 -6.135 -8.022 -11.01 -14 -13.06 -9.124 -21.08 -21.08 -2.045 15.89 -23.12 -7.079 6.921 28.94
2.045 -6.135 -7.079 -8.022 -13.06 -7.079 -8.022 -10.07 -2.045 -17.15 -13.06 -6.135 25.96 -13.06 8.966 25.96 38.85
2.05 -2.045 -7.079 -9.124 -11.01 0 3.933 -5.034 0.9438 -1.101 1.888 -13.06 31.93 1.888 33.98 43.89 51.91
2.055 14.94 -3.146 -5.034 -3.146 21.87 28 0 -2.045 18.88 30.99 -23.12 26.9 26.9 53.96 51.91 67.96
2.06 30.99 -1.101 -5.034 -1.101 39.96 42 0.9438 0 45.93 49.87 -36.02 9.91 46.88 64.97 56 71.89
2.065 39.96 0.9438 -7.079 1.888 47.98 43.89 -5.034 -9.124 56 51.91 -47.03 -1.101 51.91 59.93 49.87 63.87
2.07 31.93 -1.101 -12.11 1.888 37.91 28.94 -12.11 -16.04 50.97 37.91 -49.08 -14 37.91 43.89 42 46.88
2.075 16.99 -7.079 -17.15 -9.124 16.99 7.865 -16.04 -17.15 24.85 8.966 -41.06 -14 7.865 20.92 36.97 15.89
2.08 -1.101 -17.15 -15.1 -24.07 -4.09 -7.079 -9.124 -14 -1.101 -12.11 -25.01 -2.045 -16.04 -1.101 33.98 -2.045
2.085 -18.09 -23.12 -11.01 -27.06 -20.13 -17.15 1.888 0.9438 -22.02 -28 1.888 10.85 -29.1 -10.07 32.88 -11.01
2.09 -23.12 -23.12 1.888 -25.01 -23.12 -14 14.94 10.85 -28 -27.06 21.87 28.94 -29.1 -17.15 29.89 -2.045
2.095 -17.15 -17.15 7.865 -21.08 -13.06 -9.124 21.87 21.87 -19.03 -15.1 35.87 35.87 -19.03 -15.1 28 11.96
2.1 -8.022 -9.124 14 -14 -5.034 -7.079 19.98 22.97 -9.124 -9.124 40.9 28 -4.09 -12.11 23.91 19.98
2.105 -8.022 -11.01 17.93 -9.124 -9.124 -11.01 4.876 9.91 -8.022 -12.11 29.89 6.921 -4.09 -17.15 7.865 7.865
2.11 -19.03 -11.01 11.96 -13.06 -19.03 -25.01 -13.06 -7.079 -19.03 -27.06 11.96 -21.08 -17.15 -31.15 -5.034 -19.03
2.115 -28 -13.06 10.85 -13.06 -33.03 -30.04 -32.09 -26.11 -31.15 -39.01 0 -53.01 -33.03 -44.04 -23.12 -52.07
2.12 -34.13 -13.06 8.966 -14 -37.12 -28 -43.1 -37.12 -41.06 -41.06 -16.04 -71.1 -41.06 -51.12 -28 -72.04
2.125 -29.1 -11.01 9.91 -9.124 -29.1 -17.15 -43.1 -37.12 -39.01 -35.08 -29.1 -75.03 -33.03 -41.06 -25.01 -67.01
2.13 -13.06 -5.034 10.85 -6.135 -11.01 0 -41.06 -29.1 -20.13 -18.09 -38.07 -58.04 -15.1 -19.03 -15.1 -42
2.135 -2.045 -7.079 2.989 -9.124 0 4.876 -43.1 -34.13 0 -2.045 -48.13 -34.13 0.9438 -1.101 -5.034 -12.11
2.14 3.933 -19.03 -5.034 -19.03 7.865 5.978 -57.1 -49.08 5.978 0 -63.08 -21.08 1.888 17.93 -3.146 1.888
2.145 3.933 -27.06 -15.1 -28 1.888 1.888 -66.07 -64.02 6.921 1.888 -72.04 -18.09 0 28.94 -8.022 14
2.15 -2.045 -27.06 -19.03 -29.1 -1.101 -1.101 -67.01 -68.11 -1.101 -4.09 -71.1 -24.07 -3.146 34.92 -16.04 19.98
2.155 -3.146 -13.06 -9.124 -15.1 -7.079 -7.079 -51.12 -57.1 -5.034 -7.079 -49.08 -29.1 -11.01 42 -21.08 29.89
2.16 -3.146 4.876 7.865 5.978 -7.079 -7.079 -17.15 -26.11 -11.01 -9.124 -13.06 -25.01 -9.124 54.9 -14 43.89
2.165 -5.034 26.9 29.89 24.85 -7.079 -9.124 10.85 1.888 -15.1 -15.1 23.91 -13.06 -11.01 63.87 -4.09 53.96
2.17 -13.06 36.97 47.98 33.98 -11.01 -13.06 31.93 23.91 -19.03 -23.12 59.93 -3.146 -19.03 57.89 1.888 49.87
2.175 -23.12 30.99 51.91 30.99 -21.08 -17.15 36.97 31.93 -27.06 -35.08 79.91 -1.101 -31.15 35.87 7.865 31.93
2.18 -31.15 20.92 51.91 20.92 -27.06 -17.15 28.94 25.96 -33.03 -41.06 85.89 -1.101 -41.06 1.888 14 5.978
2.185 -25.01 18.88 56 19.98 -21.08 -7.079 23.91 23.91 -31.15 -33.03 85.89 0 -35.08 -29.1 15.89 -11.01
2.19 -3.146 32.88 65.91 31.93 0.9438 7.865 31.93 31.93 -15.1 -5.034 85.89 19.98 -7.079 -55.06 17.93 -23.12
2.195 23.91 54.9 84 53.96 28 31.93 49.87 49.87 9.91 29.89 89.98 47.98 28 -67.01 17.93 -27.06
2.2 49.87 70.94 98 71.89 53.96 49.87 65.91 67.96 43.89 63.87 87.93 67.96 61.98 -63.08 11.96 -29.1
2.205 59.93 72.99 99.89 73.93 65.91 57.89 73.93 73.93 70 81.96 75.98 70 79.91 -53.01 3.933 -37.12
2.21 56 60.88 91.87 63.87 61.98 56 70 70 77.87 77.87 56 53.96 75.98 -41.06 0 -45.15
2.215 43.89 44.99 77.87 47.98 49.87 45.93 59.93 60.88 70 61.98 33.98 31.93 59.93 -27.06 5.978 -47.03
2.22 33.98 36.97 65.91 37.91 35.87 33.98 51.91 51.91 51.91 39.96 21.87 15.89 43.89 -9.124 19.98 -33.03
2.225 25.96 36.97 56 33.98 25.96 21.87 48.92 50.97 34.92 26.9 23.91 14 30.99 7.865 33.98 -5.034
2.23 17.93 36.97 43.89 32.88 15.89 9.91 42.94 46.88 18.88 14.94 28 18.88 22.97 33.98 38.85 19.98
2.235 5.978 24.85 23.91 19.98 1.888 -1.101 23.91 33.98 5.978 5.978 21.87 15.89 7.865 53.96 23.91 37.91
2.24 -9.124 -1.101 0.9438 0 -10.07 -18.09 -4.09 3.933 -2.045 0 0 -1.101 -2.045 64.97 0 40.9
2.245 -30.04 -25.01 -31.15 -28 -28 -34.13 -39.01 -29.1 -16.04 -14 -29.1 -24.07 -20.13 64.97 -34.13 32.88
2.25 -47.03 -51.12 -53.01 -51.12 -43.1 -45.15 -69.06 -61.03 -31.15 -29.1 -59.15 -49.08 -35.08 51.91 -61.03 23.91
2.255 -50.02 -57.1 -57.1 -58.04 -46.09 -46.09 -77.08 -76.13 -37.12 -33.03 -71.1 -59.15 -37.12 32.88 -66.07 18.88
2.26 -48.13 -53.01 -41.06 -51.12 -44.04 -46.09 -66.07 -70 -43.1 -33.03 -57.1 -57.1 -37.12 14.94 -58.04 12.9
2.265 -41.06 -43.1 -13.06 -41.06 -39.01 -43.1 -45.15 -57.1 -41.06 -31.15 -25.01 -49.08 -31.15 0.9438 -39.01 3.933
2.27 -34.13 -27.06 14 -25.01 -33.03 -35.08 -19.03 -37.12 -36.02 -26.11 8.966 -39.01 -28 -13.06 -21.08 -2.045
2.275 -27.06 -13.06 45.93 -8.022 -27.06 -23.12 -3.146 -16.04 -33.03 -22.02 34.92 -32.09 -26.11 -23.12 -9.124 -15.1
2.28 -23.12 -1.101 65.91 1.888 -25.01 -15.1 3.933 -3.146 -27.06 -19.03 47.98 -29.1 -21.08 -35.08 -1.101 -31.15
2.285 -15.1 8.966 75.98 17.93 -16.04 -2.045 11.96 6.921 -16.04 -15.1 52.85 -25.01 -14 -46.09 0.9438 -45.15
2.29 -6.135 18.88 71.89 28.94 -8.022 -1.101 14.94 16.99 -5.034 -10.07 50.97 -16.04 -7.079 -67.01 7.865 -62.13
2.295 -1.101 22.97 61.98 28 -1.101 1.888 15.89 17.93 0 -5.034 43.89 -9.124 -1.101 -83.06 11.96 -83.06
2.3 0 14.94 43.89 20.92 2.989 4.876 12.9 14.94 4.876 1.888 38.85 -2.045 0 -89.03 11.96 -97.06
2.305 8.966 2.989 29.89 10.85 9.91 9.91 7.865 2.989 9.91 11.96 29.89 -1.101 10.85 -73.15 3.933 -95.01
2.31 17.93 -1.101 19.98 3.933 19.98 19.98 0.9438 -1.101 14 25.96 15.89 1.888 21.87 -41.06 -5.034 -73.15
2.315 28.94 0.9438 10.85 6.921 32.88 32.88 -7.079 -5.034 28.94 38.85 5.978 7.865 33.98 0.9438 -18.09 -29.1
2.32 37.91 6.921 1.888 6.921 36.97 39.96 -12.11 -11.01 40.9 44.99 -1.101 9.91 44.99 36.97 -25.01 8.966
2.325 32.88 10.85 -9.124 4.876 36.97 36.97 -18.09 -16.04 53.96 43.89 -11.01 11.96 44.99 67.96 -26.11 45.93
2.33 25.96 6.921 -19.03 0.9438 30.99 31.93 -18.09 -17.15 52.85 34.92 -17.15 19.98 36.97 86.99 -15.1 74.88
2.335 14.94 0.9438 -30.04 -2.045 22.97 20.92 -15.1 -15.1 42.94 24.85 -17.15 29.89 28 99.89 1.888 98
2.34 7.865 -3.146 -37.12 -9.124 14 11.96 -13.06 -11.01 29.89 17.93 -21.08 35.87 23.91 110 14 112
2.345 6.921 -5.034 -43.1 -10.07 11.96 3.933 -7.079 -2.045 21.87 14 -27.06 34.92 22.97 115.9 25.96 119.9
2.35 1.888 -11.01 -55.06 -10.07 4.876 1.888 -12.11 0 10.85 9.91 -40.11 20.92 15.89 104 25.96 107.9
2.355 -3.146 -19.03 -69.06 -17.15 -1.101 -9.124 -25.01 -11.01 1.888 0.9438 -59.15 -9.124 1.888 81.96 11.96 77.87
2.36 -18.09 -29.1 -79.12 -30.04 -18.09 -20.13 -40.11 -30.04 -5.034 -16.04 -72.04 -50.02 -11.01 45.93 -7.079 38.85
2.365 -33.03 -39.01 -77.08 -45.15 -32.09 -30.04 -51.12 -50.02 -18.09 -33.03 -80.07 -83.06 -32.09 10.85 -30.04 5.978
2.37 -41.06 -37.12 -61.03 -45.15 -41.06 -33.03 -53.01 -59.15 -35.08 -43.1 -73.15 -99.1 -47.03 -15.1 -43.1 -11.01
2.375 -35.08 -23.12 -31.15 -32.09 -39.01 -29.1 -43.1 -50.02 -41.06 -42 -50.02 -90.13 -44.04 -37.12 -41.06 -19.03
2.38 -24.07 -1.101 -1.101 -9.124 -27.06 -25.01 -25.01 -33.03 -40.11 -30.04 -25.01 -65.12 -32.09 -53.01 -29.1 -32.09
2.385 -9.124 16.99 19.98 14 -13.06 -17.15 -7.079 -11.01 -31.15 -11.01 -1.101 -35.08 -17.15 -65.12 -9.124 -61.03
2.39 0.9438 36.97 39.96 37.91 -1.101 0 6.921 4.876 -15.1 3.933 14 -5.034 -1.101 -74.09 3.933 -94.07
2.395 12.9 46.88 53.96 50.97 14.94 14.94 25.96 20.92 3.933 23.91 29.89 15.89 9.91 -74.09 14.94 -124.1
2.4 23.91 52.85 63.87 57.89 29.89 33.98 43.89 35.87 21.87 37.91 39.96 31.93 21.87 -69.06 15.89 -135.1
2.405 38.85 58.99 65.91 64.97 42.94 50.97 65.91 59.93 42.94 50.97 45.93 50.97 38.85 -54.11 12.9 -114
2.41 47.98 64.97 63.87 68.9 50.97 58.99 78.97 75.98 56.94 56.94 49.87 64.97 50.97 -34.13 8.966 -72.04
2.415 51.91 66.85 53.96 67.96 51.91 53.96 77.87 84 63.87 56 45.93 67.96 57.89 -11.01 1.888 -25.01
2.42 47.98 60.88 42 62.92 45.93 42 62.92 74.88 60.88 48.92 33.98 60.88 56.94 7.865 -2.045 7.865
2.425 35.87 46.88 28 45.93 33.98 28 34.92 50.97 48.92 34.92 17.93 42 44.99 28 3.933 35.87
2.43 17.93 26.9 11.96 23.91 17.93 14 5.978 19.98 31.93 15.89 0.9438 17.93 25.96 45.93 11.96 56
2.435 1.888 2.989 -1.101 0 0 0 -11.01 0 11.96 0.9438 -19.03 -2.045 7.865 59.93 19.98 71.89
2.44 -7.079 -11.01 -21.08 -15.1 -7.079 -7.079 -19.03 -13.06 -1.101 -15.1 -35.08 -9.124 -3.146 67.96 21.87 87.93
2.445 -13.06 -19.03 -43.1 -23.12 -15.1 -13.06 -15.1 -13.06 -13.06 -21.08 -45.15 -13.06 -9.124 71.89 15.89 98
2.45 -13.06 -21.08 -57.1 -25.01 -13.06 -11.01 -7.079 -7.079 -17.15 -17.15 -47.03 -13.06 -9.124 67.96 0 93.91
2.455 -9.124 -19.03 -61.03 -21.08 -7.079 -1.101 0.9438 0.9438 -11.01 -7.079 -45.15 -13.06 -1.101 53.96 -13.06 70
2.46 0.9438 -15.1 -55.06 -15.1 -2.045 5.978 0 -2.045 -2.045 1.888 -39.01 -13.06 1.888 28 -27.06 33.98
2.465 7.865 -9.124 -47.03 -11.01 9.91 15.89 0 -2.045 11.96 14 -31.15 -13.06 9.91 0.9438 -27.06 0.9438
2.47 17.93 -3.146 -37.12 -4.09 17.93 23.91 2.989 1.888 21.87 19.98 -17.15 -7.079 17.93 -29.1 -12.11 -25.01
2.475 25.96 2.989 -27.06 -1.101 25.96 25.96 14.94 15.89 26.9 21.87 0.9438 1.888 23.91 -49.08 8.966 -35.08
2.48 31.93 16.99 -13.06 9.91 31.93 28 35.87 33.98 23.91 23.91 19.98 21.87 28 -53.01 35.87 -33.03
2.485 35.87 28.94 0 22.97 35.87 29.89 54.9 51.91 20.92 25.96 43.89 37.91 33.98 -48.13 58.99 -31.15
2.49 33.98 42.94 21.87 36.97 35.87 29.89 64.97 63.87 20.92 23.91 59.93 39.96 31.93 -42 63.87 -35.08
2.495 28 44.99 39.96 39.96 28 23.91 59.93 57.89 15.89 19.98 61.98 31.93 21.87 -39.01 47.98 -43.1
2.5 12.9 40.9 50.97 39.96 14 7.865 43.89 39.96 8.966 7.865 51.91 11.96 8.966 -36.02 20.92 -44.04
2.505 -1.101 34.92 50.97 28 -2.045 0.9438 25.96 19.98 1.888 0.9438 37.91 0.9438 -4.09 -32.09 -4.09 -36.02
2.51 -9.124 24.85 45.93 23.91 -7.079 -7.079 17.93 11.96 -7.079 -7.079 28 -5.034 -15.1 -23.12 -25.01 -15.1
2.515 -8.022 20.92 46.88 22.97 -10.07 -5.034 26.9 17.93 -13.06 -5.034 25.96 -2.045 -12.11 0.9438 -33.03 4.876
2.52 0 24.85 50.97 26.9 -2.045 1.888 40.9 31.93 -6.135 -2.045 31.93 14 -4.09 21.87 -32.09 24.85
2.525 5.978 28.94 51.91 31.93 3.933 15.89 45.93 45.93 0 9.91 37.91 28 7.865 42 -27.06 33.98
2.53 17.93 30.99 51.91 32.88 12.9 17.93 42.94 45.93 14 16.99 37.91 32.88 18.88 56.94 -24.07 42
2.535 17.93 18.88 33.98 23.91 10.85 11.96 18.88 28 15.89 10.85 25.96 20.92 17.93 58.99 -27.06 42
2.54 5.978 2.989 5.978 1.888 0 0.9438 -5.034 -2.045 7.865 -2.045 3.933 -1.101 5.978 49.87 -31.15 37.91
2.545 -4.09 -13.06 -16.04 -15.1 -7.079 -14 -31.15 -23.12 0 -10.07 -15.1 -30.04 -6.135 32.88 -33.03 30.99
2.55 -13.06 -27.06 -33.03 -28 -17.15 -18.09 -47.03 -42 -15.1 -18.09 -35.08 -50.02 -18.09 15.89 -21.08 14.94
2.555 -13.06 -29.1 -35.08 -27.06 -13.06 -11.01 -47.03 -45.15 -19.03 -13.06 -43.1 -57.1 -17.15 0 0.9438 1.888
2.56 -1.101 -17.15 -25.01 -15.1 1.888 5.978 -29.1 -30.04 -8.022 -2.045 -36.02 -40.11 -2.045 -5.034 30.99 -2.045
2.565 22.97 0.9438 -11.01 2.989 21.87 33.98 -3.146 -5.034 12.9 24.85 -18.09 -15.1 21.87 -10.07 60.88 -4.09
2.57 45.93 20.92 0 22.97 47.98 56 20.92 18.88 42.94 51.91 -8.022 10.85 48.92 -15.1 72.99 -11.01
2.575 66.85 36.97 1.888 34.92 65.91 71.89 45.93 39.96 64.97 68.9 -4.09 31.93 67.96 -22.02 62.92 -24.07
2.58 71.89 40.9 -3.146 37.91 70.94 70 53.96 48.92 76.92 67.96 -8.022 40.9 68.9 -35.08 28.94 -52.07
2.585 63.87 34.92 -11.01 31.93 61.98 56 45.93 39.96 70 56 -17.15 37.91 56 -47.03 -5.034 -81.01
2.59 49.87 26.9 -11.01 24.85 47.98 36.97 29.89 28.94 49.87 34.92 -15.1 32.88 36.97 -51.12 -31.15 -94.07
2.595 30.99 14.94 -12.11 14 28 14.94 9.91 11.96 24.85 14.94 0.9438 32.88 18.88 -46.09 -39.01 -88.09
2.6 9.91 0.9438 -13.06 1.888 7.865 0.9438 0 1.888 3.933 -2.045 25.96 39.96 3.933 -29.1 -27.06 -59.15
2.605 1.888 -9.124 -13.06 -5.034 -2.045 -13.06 6.921 1.888 -5.034 -6.135 53.96 50.97 -1.101 -2.045 -5.034 -17.15
2.61 -15.1 -19.03 -15.1 -20.13 -16.04 -25.01 14.94 11.96 -11.01 -12.11 71.89 54.9 -12.11 20.92 12.9 15.89
2.615 -33.03 -37.12 -21.08 -35.08 -35.08 -37.12 14 15.89 -23.12 -27.06 73.93 43.89 -27.06 39.96 23.91 37.91
2.62 -54.11 -53.01 -18.09 -50.02 -56 -53.01 0 3.933 -36.02 -47.03 57.89 9.91 -44.04 53.96 22.97 48.92
2.625 -76.13 -67.01 -20.13 -64.02 -80.07 -75.03 -40.11 -25.01 -55.06 -73.15 25.96 -39.01 -70 51.91 1.888 48.92
2.63 -97.06 -73.15 -21.08 -73.15 -99.1 -95.01 -89.03 -69.06 -81.01 -99.1 -9.124 -103 -95.01 31.93 -29.1 43.89
2.635 -106 -73.15 -22.02 -73.15 -109 -107.1 -129.1 -113.1 -103 -115.1 -49.08 -161.1 -112 6.921 -68.11 32.88
2.64 -104.1 -65.12 -20.13 -65.12 -107.1 -103 -143.1 -139.1 -120 -113.1 -79.12 -193 -116.1 -20.13 -100 10.85
2.645 -91.08 -53.01 -15.1 -51.12 -89.03 -85.1 -131 -137 -115.1 -97.06 -95.01 -193 -103 -49.08 -113.1 -15.1
2.65 -67.01 -31.15 -5.034 -30.04 -67.01 -57.1 -98 -111.1 -94.07 -71.1 -97.06 -159 -81.01 -66.07 -95.01 -47.03
2.655 -39.01 -13.06 1.888 -10.07 -39.01 -27.06 -68.11 -81.01 -62.13 -43.1 -87.15 -109 -51.12 -68.11 -68.11 -67.01
2.66 -15.1 -1.101 11.96 0 -15.1 -5.034 -53.01 -57.1 -31.15 -21.08 -75.03 -61.03 -27.06 -59.15 -39.01 -71.1
2.665 0 8.966 14 12.9 0.9438 1.888 -44.04 -49.08 -2.045 -3.146 -61.03 -29.1 -7.079 -39.01 -20.13 -55.06
2.67 11.96 16.99 9.91 18.88 9.91 7.865 -40.11 -43.1 5.978 7.865 -45.15 -9.124 1.888 -15.1 -10.07 -29.1
2.675 17.93 22.97 3.933 21.87 17.93 9.91 -25.01 -31.15 15.89 19.98 -23.12 3.933 14 0 -1.101 -3.146
2.68 17.93 22.97 -2.045 23.91 19.98 9.91 1.888 -5.034 17.93 23.91 1.888 28 17.93 14 9.91 5.978
2.685 11.96 20.92 -1.101 23.91 14 1.888 35.87 23.91 14 14 33.98 56 11.96 17.93 31.93 7.865
2.69 0.9438 14.94 -7.079 17.93 -2.045 -9.124 57.89 51.91 1.888 -3.146 61.98 79.91 0.9438 9.91 53.96 0
2.695 -17.15 2.989 -15.1 7.865 -19.03 -27.06 59.93 61.98 -13.06 -31.15 75.98 89.98 -23.12 -2.045 65.91 -1.101
2.7 -35.08 -5.034 -27.06 -1.101 -39.01 -43.1 37.91 47.98 -35.08 -53.01 71.89 79.91 -43.1 -7.079 61.98 -1.101
2.705 -43.1 -15.1 -41.06 -13.06 -47.03 -47.03 9.91 19.98 -49.08 -59.15 47.98 53.96 -51.12 -9.124 42 0
2.71 -37.12 -19.03 -53.01 -21.08 -39.01 -35.08 -9.124 -1.101 -51.12 -45.15 17.93 21.87 -43.1 -3.146 9.91 7.865
2.715 -19.03 -17.15 -59.15 -20.13 -19.03 -11.01 -16.04 -14 -33.03 -14 -7.079 -1.101 -18.09 3.933 -17.15 11.96
2.72 1.888 -13.06 -57.1 -16.04 3.933 11.96 -12.11 -14 -2.045 16.99 -23.12 -19.03 8.966 14 -43.1 15.89
2.725 28 -7.079 -43.1 -5.034 29.89 42 -1.101 -7.079 25.96 47.98 -25.01 -25.01 35.87 23.91 -49.08 23.91
2.73 49.87 2.989 -21.08 4.876 51.91 64.97 4.876 1.888 56.94 70.94 -15.1 -21.08 60.88 35.87 -37.12 35.87
2.735 65.91 20.92 0 20.92 68.9 74.88 6.921 5.978 74.88 78.97 -1.101 -8.022 72.99 45.93 -15.1 49.87
2.74 71.89 34.92 23.91 33.98 71.89 73.93 3.933 5.978 77.87 73.93 1.888 -1.101 73.93 45.93 -2.045 49.87
2.745 70 46.88 40.9 43.89 64.97 60.88 1.888 3.933 68.9 56 0 1.888 63.87 32.88 3.933 29.89
2.75 56.94 54.9 44.99 49.87 48.92 36.97 -1.101 2.989 47.98 28 -3.146 -8.022 37.91 4.876 0.9438 -3.146
2.755 33.98 54.9 42 47.98 23.91 11.96 -2.045 1.888 14 0 -13.06 -17.15 3.933 -29.1 -7.079 -47.03
2.76 14.94 46.88 36.97 40.9 2.989 1.888 2.989 1.888 -7.079 -16.04 -13.06 -16.04 -16.04 -52.07 -1.101 -73.15
2.765 0.9438 30.99 26.9 31.93 -6.135 -5.034 11.96 1.888 -23.12 -23.12 -4.09 0.9438 -30.04 -58.04 18.88 -71.1
2.77 0.9438 18.88 15.89 17.93 -9.124 -5.034 15.89 9.91 -23.12 -17.15 5.978 37.91 -27.06 -39.01 56 -47.03
2.775 0.9438 10.85 11.96 11.96 0.9438 1.888 26.9 23.91 -7.079 -1.101 22.97 81.96 -8.022 -9.124 92.97 -13.06
2.78 14 6.921 5.978 2.989 7.865 16.99 39.96 40.9 7.865 21.87 36.97 122.9 14.94 3.933 110.9 8.966
2.785 23.91 4.876 0 1.888 25.96 28 51.91 56 31.93 42 47.98 143.9 39.96 14 107.9 19.98
2.79 35.87 4.876 2.989 3.933 42 35.87 62.92 66.85 49.87 54.9 54.9 149.9 53.96 14.94 96.9 28.94
2.795 40.9 0.9438 3.933 2.989 46.88 40.9 59.93 61.98 56 54.9 53.96 126.9 57.89 11.96 79.91 36.97
2.8 35.87 0.9438 1.888 -2.045 39.96 33.98 31.93 35.87 51.91 42 39.96 84 45.93 17.93 56 49.87
2.805 25.96 0.9438 0 -1.101 29.89 22.97 -1.101 0.9438 38.85 21.87 19.98 28 21.87 20.92 28 63.87
2.81 12.9 -1.101 0.9438 0 8.966 2.989 -41.06 -34.13 14 -5.034 0 -35.08 -1.101 16.99 -16.04 66.85
2.815 -1.101 4.876 0 2.989 -4.09 -8.022 -62.13 -57.1 -8.022 -31.15 -20.13 -98 -30.04 4.876 -70 57.89
2.82 -8.022 16.99 0 14.94 -14 -20.13 -63.08 -64.02 -37.12 -51.12 -30.04 -145 -49.08 -10.07 -118.1 30.99
2.825 -17.15 30.99 7.865 29.89 -17.15 -26.11 -39.01 -50.02 -54.11 -59.15 -23.12 -163.1 -59.15 -28 -141.1 -2.045
2.83 -19.03 44.99 19.98 43.89 -21.08 -25.01 -7.079 -21.08 -65.12 -63.08 -9.124 -151 -63.08 -47.03 -135.1 -29.1
2.835 -14 50.97 35.87 52.85 -18.09 -16.04 25.96 7.865 -63.08 -52.07 14 -112 -57.1 -61.03 -101.1 -52.07
2.84 -3.146 54.9 46.88 56 -7.079 0.9438 58.99 44.99 -53.01 -34.13 40.9 -61.03 -41.06 -66.07 -54.11 -68.11
2.845 7.865 48.92 56 51.91 0 14 84 73.93 -29.1 -7.079 65.91 -11.01 -17.15 -65.12 -3.146 -75.03
2.85 28 44.99 61.98 46.88 19.98 32.88 99.89 96.9 -2.045 19.98 84.94 28.94 6.921 -59.15 38.85 -70
2.855 40.9 30.99 59.93 37.91 42 43.89 92.97 98 31.93 44.99 94.85 53.96 36.97 -41.06 72.99 -63.08
2.86 43.89 14.94 47.98 15.89 43.89 42 63.87 79.91 51.91 53.96 84 61.98 56 -25.01 93.91 -49.08
2.865 32.88 -3.146 30.99 -1.101 32.88 25.96 17.93 35.87 56 45.93 58.99 52.85 54.9 -8.022 101 -39.01
2.87 2.989 -31.15 4.876 -32.09 4.876 -4.09 -32.09 -11.01 33.98 14.94 25.96 32.88 30.99 0.9438 98 -23.12
2.875 -31.15 -63.08 -19.03 -63.08 -31.15 -45.15 -81.01 -65.12 0.9438 -23.12 -5.034 5.978 -7.079 14 84 -3.146
2.88 -70 -87.15 -46.09 -91.08 -70 -80.07 -111.1 -102.1 -45.15 -67.01 -35.08 -14 -53.01 28.94 70 15.89
2.885 -105.1 -105.1 -62.13 -105.1 -100 -104.1 -125.1 -125.1 -88.09 -101.1 -55.06 -28 -93.12 46.88 65.91 47.98
2.89 -123 -105.1 -65.12 -105.1 -117 -113.1 -123 -131 -117 -121.1 -59.15 -33.03 -119.1 67.96 70 84
2.895 -117 -83.06 -49.08 -82.11 -112 -100 -102.1 -117 -124.1 -118.1 -51.12 -20.13 -122.1 87.93 85.89 115.9
2.9 -87.15 -41.06 -17.15 -34.13 -83.06 -67.01 -68.11 -88.09 -110.1 -88.09 -27.06 1.888 -96.11 104 99.89 147.9
2.905 -33.03 12.9 19.98 21.87 -33.03 -13.06 -15.1 -39.01 -69.06 -37.12 3.933 43.89 -49.08 113.9 112 174
2.91 28 76.92 57.89 86.99 25.96 43.89 44.99 22.97 -10.07 26.9 42 89.98 12.9 115.9 113.9 188
2.915 91.87 130.9 81.96 136.9 89.98 101.9 107 90.92 51.91 92.97 73.93 121.9 78.97 105.9 101.9 180
2.92 138 157 91.87 157.9 138 141.9 143.9 133.9 113.9 141.9 91.87 132 132 79.91 75.98 140
2.925 160 157 85.89 152 161.9 155.9 149.9 149.9 155.9 166 89.98 115.9 160 37.91 35.87 70
2.93 155.9 132.9 73.93 126 157.9 146 126 132 169.9 160 71.89 79.91 161.9 -7.079 -9.124 -9.124
2.935 133.9 96.9 56 89.98 132 118 87.93 95.96 157.9 127.9 45.93 37.91 138 -51.12 -63.08 -89.03
2.94 99.89 58.99 33.98 53.96 91.87 77.87 47.98 56 121.9 85.89 17.93 0 98 -79.12 -107.1 -147.1
2.945 59.93 28.94 11.96 21.87 51.91 37.91 15.89 23.91 75.98 39.96 -1.101 -19.03 51.91 -87.15 -133.1 -171.1
2.95 17.93 2.989 -5.034 0.9438 9.91 -2.045 -3.146 1.888 29.89 0 -17.15 -29.1 9.91 -75.03 -133.1 -167.1
2.955 -17.15 -21.08 -25.01 -25.01 -21.08 -33.03 -23.12 -13.06 -7.079 -29.1 -31.15 -31.15 -19.03 -51.12 -111.1 -139.1
2.96 -55.06 -53.01 -45.15 -57.1 -57.1 -65.12 -45.15 -33.03 -39.01 -57.1 -41.06 -29.1 -47.03 -23.12 -76.13 -99.1
2.965 -89.03 -91.08 -63.08 -91.08 -89.03 -93.12 -69.06 -59.15 -65.12 -79.12 -49.08 -31.15 -69.06 -2.045 -38.07 -55.06
2.97 -119.1 -129.1 -79.12 -125.1 -115.1 -115.1 -95.01 -83.06 -85.1 -99.1 -59.15 -39.01 -89.03 17.93 -7.079 -11.01
2.975 -137 -155.1 -90.13 -147.1 -131 -125.1 -111.1 -102.1 -100 -109 -67.01 -53.01 -103 31.93 12.9 20.92
2.98 -139.1 -161.1 -94.07 -156 -131 -123 -118.1 -114 -110.1 -111.1 -71.1 -60.09 -111.1 39.96 33.98 46.88
2.985 -127.1 -149.1 -89.03 -143.1 -115.1 -109 -113.1 -111.1 -109 -101.1 -69.06 -65.12 -103 47.98 49.87 65.91
2.99 -97.06 -115.1 -72.04 -110.1 -87.15 -81.01 -88.09 -90.13 -98 -77.08 -63.08 -52.07 -83.06 49.87 65.91 76.92
2.995 -59.15 -69.06 -48.13 -66.07 -51.12 -47.03 -54.11 -58.04 -72.04 -44.04 -51.12 -32.09 -55.06 47.98 74.88 86.99
3 -17.15 -25.01 -21.08 -23.12 -13.06 -9.124 -13.06 -21.08 -39.01 -11.01 -35.08 -9.124 -21.08 43.89 73.93 91.87
3.005 18.88 14.94 3.933 18.88 17.93 20.92 26.9 14.94 -3.146 16.99 -19.03 10.85 7.865 40.9 71.89 98
3.01 44.99 50.97 28 57.89 43.89 54.9 62.92 49.87 25.96 46.88 0.9438 29.89 35.87 34.92 60.88 105.9
3.015 65.91 80.85 49.87 85.89 67.96 75.98 85.89 73.93 56 67.96 15.89 33.98 56 31.93 49.87 101.9
3.02 76.92 98.94 70.94 105.9 81.96 90.92 93.91 85.89 80.85 84.94 29.89 29.89 73.93 26.9 31.93 84.94
3.025 80.85 112.9 87.93 116.9 85.89 90.92 85.89 82.9 94.85 86.99 37.91 14.94 84.94 16.99 11.96 47.98
3.03 75.98 115 98 115.9 77.87 77.87 65.91 70 91.87 75.98 35.87 -11.01 81.96 -3.146 -17.15 -5.034
3.035 67.96 112.9 107.9 107.9 64.97 61.98 45.93 53.96 78.97 57.89 28 -49.08 70.94 -31.15 -54.11 -65.12
3.04 49.87 104.9 107 96.9 46.88 43.89 30.99 39.96 53.96 34.92 15.89 -82.11 46.88 -69.06 -86.04 -119.1
3.045 31.93 96.9 101.9 87.93 25.96 23.91 29.89 35.87 25.96 11.96 11.96 -109 19.98 -97.06 -105.1 -155.1
3.05 12.9 88.88 94.85 86.99 11.96 9.91 43.89 46.88 6.921 0.9438 14.94 -112 0 -112 -106 -167.1
3.055 1.888 80.85 75.98 79.91 0 -2.045 57.89 60.88 -2.045 -11.01 21.87 -99.1 -8.022 -113.1 -93.12 -159
3.06 -12.11 66.85 52.85 64.97 -8.022 -5.034 59.93 65.91 -10.07 -21.08 21.87 -78.02 -15.1 -97.06 -80.07 -132.1
3.065 -24.07 40.9 21.87 37.91 -19.03 -21.08 43.89 48.92 -16.04 -25.01 11.96 -61.03 -20.13 -71.1 -71.1 -101.1
3.07 -35.08 6.921 -4.09 0.9438 -33.03 -33.03 9.91 16.99 -24.07 -33.03 -4.09 -54.11 -29.1 -42 -66.07 -63.08
3.075 -45.15 -25.01 -31.15 -31.15 -47.03 -45.15 -27.06 -19.03 -37.12 -43.1 -29.1 -55.06 -39.01 -13.06 -63.08 -31.15
3.08 -51.12 -51.12 -44.04 -54.11 -56 -49.08 -56 -49.08 -45.15 -48.13 -45.15 -46.09 -44.04 11.96 -46.09 0.9438
3.085 -53.01 -65.12 -45.15 -65.12 -56 -51.12 -65.12 -63.08 -50.02 -53.01 -41.06 -31.15 -50.02 39.96 -10.07 25.96
3.09 -53.01 -65.12 -41.06 -61.03 -55.06 -49.08 -61.03 -59.15 -51.12 -49.08 -27.06 0.9438 -49.08 59.93 29.89 56
3.095 -46.09 -57.1 -35.08 -56 -45.15 -42 -53.01 -50.02 -44.04 -40.11 -13.06 30.99 -42 80.85 73.93 91.87
3.1 -40.11 -59.15 -38.07 -55.06 -37.12 -34.13 -55.06 -53.01 -36.02 -30.04 -17.15 49.87 -31.15 94.85 101.9 122.9
3.105 -35.08 -65.12 -49.08 -61.03 -29.1 -27.06 -67.01 -67.01 -27.06 -19.03 -43.1 57.89 -19.03 98 107.9 146
3.11 -28 -67.01 -61.03 -65.12 -21.08 -20.13 -76.13 -75.03 -15.1 -8.022 -79.12 56 -7.079 88.88 96.9 149.9
3.115 -22.02 -59.15 -63.08 -62.13 -15.1 -14 -70 -70 -3.146 0 -107.1 48.92 0.9438 66.85 73.93 135.9
3.12 -13.06 -37.12 -59.15 -43.1 -7.079 -9.124 -47.03 -45.15 -2.045 0 -115.1 43.89 3.933 43.89 42 101.9
3.125 -2.045 0.9438 -40.11 -6.135 0 -2.045 -6.135 -4.09 6.921 6.921 -97.06 38.85 9.91 25.96 16.99 60.88
3.13 14 32.88 -16.04 26.9 15.89 11.96 28.94 30.99 10.85 14 -63.08 24.85 9.91 17.93 -7.079 20.92
3.135 28 64.97 0 57.89 29.89 28 57.89 56 14 21.87 -29.1 -2.045 14 15.89 -37.12 -13.06
3.14 43.89 80.85 20.92 78.97 45.93 49.87 76.92 68.9 26.9 37.91 0.9438 -26.11 25.96 5.978 -65.12 -54.11
3.145 61.98 90.92 42.94 90.92 65.91 71.89 87.93 76.92 44.99 61.98 25.96 -43.1 43.89 -9.124 -92.02 -102.1
3.15 84 104.9 70 105.9 87.93 93.91 104 91.87 71.89 89.98 56 -33.03 75.98 -43.1 -109 -151
3.155 110 121 98 121.9 112 115.9 119.9 113.9 104 118 87.93 -1.101 110 -73.15 -106 -185.1
3.16 132 136.9 118 138 133.9 129.9 129.9 132 135.9 143.9 112 39.96 138 -85.1 -88.09 -187
3.165 141.9 143 119.9 140 143.9 133.9 127.9 135.9 152 155.9 119.9 79.91 152 -69.06 -59.15 -147.1
3.17 133.9 129 101.9 124 138 119.9 110 121.9 152 147.9 107.9 107.9 147.9 -25.01 -23.12 -71.1
3.175 107.9 96.9 70 89.98 112 89.98 81.96 91.87 133.9 118 84 119.9 124 23.91 11.96 14
3.18 70 56.94 31.93 47.98 71.89 51.91 49.87 57.89 98 73.93 57.89 118 85.89 65.91 47.98 87.93
3.185 25.96 18.88 0 9.91 25.96 9.91 19.98 23.91 51.91 21.87 31.93 104 39.96 84 73.93 124
3.19 -9.124 -7.079 -19.03 -13.06 -13.06 -21.08 -5.034 0.9438 1.888 -21.08 1.888 75.98 -3.146 71.89 89.98 124
3.195 -41.06 -29.1 -41.06 -35.08 -49.08 -49.08 -34.13 -28 -37.12 -61.03 -33.03 35.87 -47.03 43.89 93.91 99.89
3.2 -67.01 -53.01 -63.08 -55.06 -75.03 -71.1 -67.01 -61.03 -71.1 -85.1 -87.15 -7.079 -79.12 14 84 70
3.205 -87.15 -73.15 -89.03 -74.09 -91.08 -87.15 -94.07 -90.13 -93.12 -99.1 -145 -47.03 -95.01 0 71.89 54.9
3.21 -99.1 -89.03 -109 -88.09 -97.06 -91.08 -106 -108.1 -101.1 -95.01 -183.1 -63.08 -97.06 8.966 63.87 58.99
3.215 -97.06 -95.01 -121.1 -91.08 -89.03 -83.06 -97.06 -107.1 -95.01 -77.08 -189.1 -45.15 -83.06 35.87 61.98 71.89
3.22 -77.08 -85.1 -117 -77.08 -69.06 -57.1 -65.12 -79.12 -71.1 -45.15 -155.1 1.888 -57.1 68.9 65.91 90.92
3.225 -41.06 -61.03 -99.1 -51.12 -33.03 -19.03 -19.03 -37.12 -35.08 -1.101 -92.02 58.99 -19.03 90.92 70 96.9
3.23 -2.045 -27.06 -73.15 -17.15 3.933 19.98 29.89 11.96 5.978 39.96 -25.01 110 19.98 87.93 59.93 79.91
3.235 39.96 4.876 -41.06 12.9 45.93 57.89 76.92 64.97 50.97 76.92 22.97 138.9 60.88 63.87 28 42
3.24 71.89 32.88 -13.06 40.9 75.98 81.96 99.89 99.89 84.94 98.94 50.97 129.9 92.97 23.91 -23.12 -17.15
3.245 85.89 46.88 1.888 49.87 87.93 84 98 105.9 104 104 51.91 81.96 107.9 -21.08 -95.01 -89.03
3.25 81.96 46.88 14.94 45.93 84 75.98 71.89 85.89 107 92.97 34.92 15.89 104.9 -63.08 -163.1 -156
3.255 63.87 30.99 16.99 32.88 65.91 56 25.96 39.96 92.97 70.94 15.89 -45.15 84.94 -96.11 -207 -202.1
3.26 39.96 8.966 14 11.96 42 31.93 -19.03 -7.079 65.91 42 -3.146 -89.03 53.96 -119.1 -213.1 -219.1
3.265 9.91 -3.146 14.94 0 14 5.978 -50.02 -46.09 31.93 14 -11.01 -96.11 21.87 -127.1 -175.1 -198
3.27 -9.124 -15.1 20.92 -10.07 -5.034 -9.124 -58.04 -64.02 -2.045 -9.124 -8.022 -71.1 -7.079 -112 -103 -147.1
3.275 -25.01 -17.15 25.96 -13.06 -25.01 -25.01 -43.1 -53.01 -23.12 -27.06 0.9438 -19.03 -23.12 -75.03 -13.06 -81.01
3.28 -31.15 -13.06 31.93 -8.022 -33.03 -29.1 -21.08 -31.15 -32.09 -30.04 5.978 25.96 -28 -18.09 63.87 0
3.285 -29.1 -11.01 21.87 -6.135 -32.09 -29.1 -4.09 -6.135 -29.1 -27.06 12.9 65.91 -23.12 35.87 124 66.85
3.29 -27.06 -19.03 1.888 -15.1 -29.1 -27.06 -5.034 -3.146 -17.15 -23.12 3.933 79.91 -17.15 79.91 160 121.9
3.295 -26.11 -29.1 -20.13 -28 -28 -31.15 -25.01 -17.15 -12.11 -22.02 -8.022 72.99 -18.09 104 168.9 154.9
3.3 -31.15 -41.06 -39.01 -44.04 -33.03 -35.08 -57.1 -51.12 -17.15 -27.06 -29.1 53.96 -29.1 104 163 166.9
3.305 -39.01 -45.15 -45.15 -47.03 -38.07 -37.12 -74.09 -74.09 -30.04 -36.02 -49.08 34.92 -39.01 87.93 154 160.9
3.31 -37.12 -39.01 -37.12 -40.11 -39.01 -35.08 -69.06 -77.08 -39.01 -41.06 -53.01 23.91 -43.1 73.93 136.9 146.9
3.315 -30.04 -25.01 -22.02 -22.02 -30.04 -25.01 -39.01 -49.08 -40.11 -38.07 -50.02 20.92 -36.02 61.98 110.9 122.9
3.32 -21.08 -13.06 -13.06 -9.124 -23.12 -15.1 -11.01 -17.15 -29.1 -29.1 -39.01 14 -25.01 42 71.89 87.93
3.325 -13.06 -3.146 -11.01 -2.045 -14 -11.01 6.921 4.876 -17.15 -21.08 -26.11 -2.045 -15.1 14 23.91 38.85
3.33 -11.01 -3.146 -17.15 -4.09 -15.1 -15.1 3.933 9.91 -14 -22.02 -15.1 -25.01 -16.04 -24.07 -21.08 -16.04
3.335 -15.1 -9.124 -27.06 -11.01 -19.03 -19.03 -1.101 -2.045 -25.01 -27.06 -1.101 -57.1 -25.01 -69.06 -59.15 -75.03
3.34 -17.15 -9.124 -24.07 -12.11 -17.15 -21.08 -10.07 -12.11 -37.12 -27.06 10.85 -73.15 -33.03 -100 -79.12 -115.1
3.345 -9.124 -5.034 -10.07 -8.022 -11.01 -11.01 -6.135 -14 -35.08 -15.1 28 -64.02 -25.01 -107.1 -87.15 -134
3.35 0 -1.101 0 0.9438 0 0 5.978 -1.101 -21.08 -2.045 45.93 -37.12 -9.124 -95.01 -93.12 -135.1
3.355 15.89 -1.101 18.88 2.989 15.89 14 19.98 15.89 0.9438 22.97 56 -9.124 14.94 -70 -101.1 -130.1
3.36 25.96 2.989 26.9 -2.045 28 23.91 17.93 21.87 24.85 38.85 50.97 0.9438 34.92 -53.01 -121.1 -132.1
3.365 25.96 -7.079 23.91 -7.079 28 23.91 -5.034 0 35.87 39.96 25.96 -19.03 37.91 -41.06 -135.1 -139.1
3.37 17.93 -15.1 17.93 -18.09 21.87 19.98 -41.06 -29.1 34.92 32.88 -2.045 -52.07 30.99 -33.03 -143.1 -139.1
3.375 7.865 -19.03 9.91 -22.02 14 9.91 -68.11 -66.07 26.9 20.92 -30.04 -82.11 16.99 -27.06 -135.1 -125.1
3.38 -1.101 -21.08 7.865 -21.08 1.888 0 -75.03 -79.12 15.89 7.865 -49.08 -91.08 5.978 -19.03 -113.1 -99.1
3.385 -13.06 -13.06 11.96 -9.124 -7.079 -7.079 -55.06 -65.12 7.865 -1.101 -42 -68.11 0.9438 -6.135 -79.12 -60.09
3.39 -27.06 -9.124 17.93 -1.101 -23.12 -25.01 -25.01 -37.12 0 -15.1 -25.01 -24.07 -9.124 2.989 -33.03 -22.02
3.395 -43.1 -11.01 21.87 -3.146 -45.15 -47.03 -11.01 -11.01 -13.06 -35.08 -2.045 15.89 -25.01 9.91 7.865 5.978
3.4 -63.08 -15.1 21.87 -10.07 -65.12 -71.1 -6.135 -2.045 -39.01 -61.03 17.93 49.87 -49.08 18.88 47.98 34.92
3.405 -77.08 -27.06 14 -24.07 -81.01 -87.15 -18.09 -14 -67.01 -83.06 23.91 65.91 -73.15 19.98 75.98 50.97
3.41 -85.1 -41.06 3.933 -37.12 -85.1 -91.08 -33.03 -31.15 -87.15 -95.01 17.93 65.91 -89.03 14 87.93 59.93
3.415 -79.12 -45.15 0 -45.15 -79.12 -81.01 -40.11 -42 -93.12 -91.08 11.96 51.91 -91.08 3.933 81.96 56
3.42 -63.08 -43.1 3.933 -39.01 -63.08 -57.1 -37.12 -43.1 -85.1 -71.1 11.96 28 -77.08 -5.034 63.87 45.93
3.425 -35.08 -25.01 15.89 -19.03 -37.12 -25.01 -23.12 -29.1 -63.08 -41.06 19.98 1.888 -53.01 -13.06 43.89 35.87
3.43 -5.034 -1.101 29.89 3.933 -9.124 -2.045 -3.146 -9.124 -35.08 -11.01 29.89 -19.03 -25.01 -17.15 25.96 28
3.435 15.89 20.92 37.91 29.89 11.96 17.93 7.865 5.978 -5.034 5.978 31.93 -45.15 -1.101 -17.15 5.978 14
3.44 29.89 38.85 31.93 45.93 25.96 23.91 14 15.89 7.865 11.96 19.98 -67.01 7.865 -25.01 -17.15 -11.01
3.445 28 42.94 14 42 25.96 11.96 3.933 11.96 14 1.888 -1.101 -89.03 9.91 -45.15 -55.06 -59.15
3.45 11.96 32.88 -5.034 21.87 7.865 -1.101 -11.01 0.9438 1.888 -9.124 -29.1 -107.1 1.888 -73.15 -99.1 -117
3.455 -3.146 12.9 -23.12 -2.045 -7.079 -15.1 -35.08 -20.13 -11.01 -23.12 -53.01 -117 -9.124 -95.01 -143.1 -165
3.46 -17.15 -1.101 -27.06 -13.06 -21.08 -19.03 -49.08 -41.06 -27.06 -23.12 -65.12 -113.1 -17.15 -93.12 -175.1 -177.1
3.465 -17.15 -11.01 -19.03 -17.15 -17.15 -5.034 -47.03 -46.09 -25.01 -9.124 -65.12 -95.01 -13.06 -67.01 -189.1 -151
3.47 -1.101 -7.079 -5.034 -5.034 0 14 -27.06 -32.09 -5.034 15.89 -59.15 -61.03 1.888 -27.06 -181.1 -97.06
3.475 19.98 2.989 1.888 7.865 29.89 39.96 -2.045 -7.079 21.87 42 -47.03 -19.03 29.89 9.91 -155.1 -39.01
3.48 43.89 20.92 10.85 28.94 53.96 58.99 29.89 18.88 49.87 66.85 -35.08 16.99 56 36.97 -112 2.989
3.485 56 38.85 14.94 42.94 61.98 62.92 51.91 47.98 66.85 72.99 -19.03 46.88 67.96 46.88 -60.09 32.88
3.49 57.89 54.9 17.93 51.91 59.93 57.89 63.87 61.98 67.96 70 -7.079 63.87 65.91 45.93 -7.079 53.96
3.495 51.91 62.92 24.85 60.88 49.87 48.92 68.9 65.91 58.99 60.88 -3.146 68.9 56 48.92 38.85 76.92
3.5 43.89 68.9 30.99 64.97 43.89 42.94 58.99 59.93 48.92 48.92 -3.146 60.88 45.93 56.94 74.88 107
3.505 42 66.85 31.93 59.93 39.96 37.91 43.89 47.98 39.96 37.91 -11.01 43.89 37.91 61.98 89.98 129.9
3.51 37.91 56.94 28 51.91 40.9 33.98 28.94 32.88 34.92 28 -19.03 28 29.89 63.87 91.87 141.9
3.515 31.93 40.9 14 33.98 30.99 19.98 6.921 11.96 26.9 14 -19.03 14 17.93 51.91 77.87 126
3.52 15.89 16.99 1.888 7.865 14 3.933 -7.079 -3.146 9.91 0.9438 -9.124 7.865 1.888 31.93 61.98 95.96
3.525 -2.045 -3.146 -8.022 -12.11 -6.135 -12.11 -21.08 -19.03 -5.034 -18.09 0.9438 4.876 -15.1 8.966 50.97 60.88
3.53 -24.07 -29.1 -25.01 -37.12 -32.09 -37.12 -35.08 -31.15 -26.11 -41.06 0.9438 3.933 -37.12 -5.034 39.96 28
3.535 -47.03 -55.06 -39.01 -61.03 -57.1 -55.06 -45.15 -39.01 -47.03 -55.06 -5.034 0 -55.06 -13.06 28 9.91
3.54 -62.13 -69.06 -46.09 -71.1 -70 -62.13 -52.07 -48.13 -57.1 -60.09 -20.13 -5.034 -59.15 -13.06 10.85 0
3.545 -65.12 -71.1 -43.1 -70 -69.06 -58.04 -61.03 -55.06 -63.08 -57.1 -37.12 -18.09 -57.1 -6.135 -7.079 -16.04
3.55 -54.11 -51.12 -27.06 -52.07 -54.11 -42 -58.04 -62.13 -54.11 -46.09 -42 -35.08 -49.08 -8.022 -39.01 -40.11
3.555 -29.1 -15.1 -3.146 -14 -29.1 -14 -43.1 -51.12 -37.12 -25.01 -39.01 -52.07 -31.15 -18.09 -83.06 -72.04
3.56 1.888 24.85 14.94 29.89 0.9438 10.85 -12.11 -24.07 -11.01 0 -30.04 -55.06 -7.079 -37.12 -124.1 -102.1
3.565 25.96 68.9 31.93 65.91 28 35.87 28 14 7.865 17.93 -13.06 -43.1 14 -57.1 -157.1 -121.1
3.57 48.92 96.9 35.87 93.91 50.97 49.87 77.87 65.91 28.94 35.87 8.966 -13.06 35.87 -65.12 -161.1 -117
3.575 56 102.9 32.88 96.9 58.99 52.85 118 112 43.89 46.88 42 30.99 51.91 -52.07 -132.1 -88.09
3.58 56 90.92 31.93 84 53.96 51.91 132 135.9 47.98 51.91 75.98 77.87 57.89 -25.01 -75.03 -39.01
3.585 47.98 72.99 31.93 67.96 50.97 45.93 129 132 52.85 53.96 101.9 118 56 7.865 -1.101 15.89
3.59 42 54.9 39.96 51.91 42.94 45.93 104.9 112.9 50.97 51.91 110 135.9 49.87 39.96 63.87 71.89
3.595 33.98 36.97 42 33.98 35.87 31.93 65.91 75.98 45.93 42 93.91 121.9 42 51.91 105.9 110
3.6 21.87 14.94 36.97 14.94 23.91 18.88 16.99 28 34.92 24.85 57.89 86.99 25.96 56.94 122.9 130.9
3.605 1.888 -9.124 22.97 -10.07 1.888 0 -34.13 -25.01 14.94 0.9438 15.89 28.94 5.978 50.97 110.9 132.9
3.61 -21.08 -47.03 1.888 -47.03 -23.12 -29.1 -95.01 -85.1 -9.124 -25.01 -17.15 -37.12 -21.08 47.98 87.93 127.9
3.615 -51.12 -79.12 -8.022 -78.02 -51.12 -52.07 -143.1 -136.1 -40.11 -54.11 -39.01 -100 -53.01 54.9 66.85 122.9
3.62 -71.1 -99.1 -16.04 -92.02 -71.1 -66.07 -169.1 -170 -65.12 -76.13 -45.15 -148 -77.08 60.88 52.85 118.9
3.625 -81.01 -95.01 -15.1 -89.03 -79.12 -69.06 -161.1 -171.1 -81.01 -83.06 -37.12 -169.1 -91.08 63.87 47.98 110
3.63 -73.15 -73.15 -7.079 -63.08 -73.15 -61.03 -119.1 -138.1 -83.06 -79.12 -27.06 -157.1 -89.03 56 47.98 94.85
3.635 -53.01 -37.12 0.9438 -25.01 -55.06 -45.15 -55.06 -76.13 -75.03 -63.08 -11.01 -117 -75.03 39.96 47.98 70
3.64 -23.12 -1.101 3.933 7.865 -27.06 -17.15 9.91 -7.079 -51.12 -35.08 0 -59.15 -45.15 21.87 42 35.87
3.645 5.978 36.97 9.91 42 3.933 9.91 70 51.91 -19.03 -2.045 15.89 0 -9.124 3.933 29.89 0
3.65 43.89 66.85 15.89 67.96 42 45.93 107.9 99.89 17.93 39.96 29.89 59.93 29.89 -1.101 9.91 -25.01
3.655 77.87 86.99 21.87 84 77.87 77.87 121.9 121.9 59.93 77.87 37.91 101.9 70 -1.101 -13.06 -45.15
3.66 104 94.85 23.91 85.89 101.9 98 113.9 119.9 95.96 104 33.98 119.9 99.89 -2.045 -47.03 -53.01
3.665 112 86.99 14 79.91 107.9 101.9 85.89 98 115.9 112 14 113.9 113.9 3.933 -79.12 -53.01
3.67 104 68.9 -1.101 59.93 99.89 89.98 45.93 59.93 115.9 99.89 -15.1 87.93 107.9 3.933 -105.1 -49.08
3.675 84 44.99 -31.15 35.87 79.91 67.96 -2.045 14 95.96 75.98 -55.06 49.87 85.89 -2.045 -115.1 -37.12
3.68 61.98 16.99 -61.03 5.978 57.89 45.93 -41.06 -27.06 65.91 47.98 -87.15 9.91 57.89 -7.079 -97.06 -21.08
3.685 39.96 -3.146 -83.06 -13.06 37.91 28 -71.1 -59.15 33.98 17.93 -101.1 -15.1 28 -13.06 -53.01 0
3.69 23.91 -21.08 -87.15 -29.1 21.87 14 -77.08 -73.15 5.978 0.9438 -89.03 -29.1 3.933 -11.01 7.865 33.98
3.695 11.96 -29.1 -77.08 -36.02 7.865 5.978 -60.09 -66.07 -5.034 -13.06 -55.06 -24.07 -7.079 0 76.92 75.98
3.7 1.888 -35.08 -59.15 -38.07 -2.045 -2.045 -30.04 -44.04 -11.01 -17.15 -9.124 -8.022 -15.1 25.96 130.9 119.9
3.705 -3.146 -43.1 -43.1 -43.1 -7.079 -5.034 -3.146 -19.03 -11.01 -13.06 31.93 7.865 -13.06 53.96 160 155.9
3.71 -11.01 -45.15 -30.04 -44.04 -13.06 -13.06 14 -1.101 -5.034 -4.09 67.96 26.9 -7.079 79.91 164.9 180
3.715 -17.15 -49.08 -24.07 -49.08 -15.1 -15.1 19.98 14 -3.146 -1.101 89.98 42.94 1.888 101.9 157 188
3.72 -19.03 -57.1 -19.03 -53.01 -13.06 -13.06 17.93 19.98 -1.101 3.933 104 53.96 1.888 110 141.9 180
3.725 -15.1 -53.01 -10.07 -47.03 -11.01 -9.124 24.85 23.91 -1.101 6.921 112 63.87 4.876 112.9 132 154
3.73 -13.06 -45.15 0.9438 -36.02 -9.124 -9.124 30.99 30.99 0.9438 0.9438 110 70 -1.101 101 118 119.9
3.735 -17.15 -35.08 15.89 -23.12 -15.1 -15.1 35.87 33.98 -3.146 -9.124 105.9 70 -9.124 79.91 99.89 77.87
3.74 -23.12 -23.12 31.93 -11.01 -25.01 -27.06 33.98 33.98 -12.11 -23.12 91.87 66.85 -22.02 56.94 74.88 42
3.745 -29.1 -7.079 45.93 -2.045 -31.15 -36.02 28.94 28.94 -24.07 -33.03 77.87 58.99 -33.03 36.97 43.89 14.94
3.75 -25.01 4.876 59.93 3.933 -31.15 -31.15 28 28 -31.15 -25.01 70 56 -31.15 28 11.96 -2.045
3.755 -9.124 22.97 76.92 24.85 -11.01 -4.09 46.88 40.9 -18.09 -1.101 70 58.99 -7.079 23.91 -12.11 -4.09
3.76 19.98 42.94 92.97 49.87 21.87 32.88 78.97 70 8.966 42.94 67.96 64.97 30.99 14 -43.1 -18.09
3.765 59.93 64.97 98 71.89 63.87 73.93 110 99.89 53.96 84 65.91 59.93 75.98 -1.101 -75.03 -49.08
3.77 91.87 76.92 88.88 87.93 96.9 104.9 124.9 121.9 95.96 110.9 47.98 42 105.9 -34.13 -103 -90.13
3.775 105.9 78.97 62.92 80.85 110.9 112 102.9 110.9 115 112.9 19.98 8.966 112.9 -69.06 -121.1 -135.1
3.78 99.89 58.99 25.96 59.93 99.89 95.96 57.89 71.89 107.9 91.87 -7.079 -23.12 93.91 -89.03 -113.1 -157.1
3.785 77.87 32.88 -5.034 30.99 79.91 75.98 8.966 23.91 84.94 63.87 -29.1 -47.03 64.97 -78.02 -78.02 -137
3.79 54.9 4.876 -36.02 0.9438 56 51.91 -15.1 -13.06 58.99 42 -32.09 -40.11 42 -41.06 -18.09 -80.07
3.795 32.88 -17.15 -54.11 -20.13 35.87 32.88 -22.02 -25.01 40.9 29.89 -14 -5.034 28.94 9.91 39.96 0.9438
3.8 20.92 -33.03 -50.02 -32.09 21.87 25.96 -5.034 -17.15 32.88 28 10.85 38.85 29.89 59.93 98.94 88.88
3.805 14 -37.12 -35.08 -34.13 14 15.89 10.85 1.888 30.99 25.96 42 89.98 28.94 102.9 140.9 166
3.81 5.978 -33.03 -17.15 -29.1 3.933 1.888 23.91 17.93 25.96 17.93 70 127.9 23.91 126 166 211.9
3.815 -1.101 -25.01 0 -22.02 -2.045 -7.079 22.97 20.92 12.9 2.989 81.96 138.9 8.966 129.9 171.9 225.9
3.82 -19.03 -25.01 2.989 -21.08 -20.13 -30.04 6.921 11.96 -1.101 -18.09 73.93 118 -13.06 116.9 157.9 205
3.825 -41.06 -31.15 0 -27.06 -45.15 -55.06 -9.124 -5.034 -31.15 -47.03 47.98 70 -39.01 87.93 118 160
3.83 -59.15 -37.12 0.9438 -31.15 -61.03 -68.11 -24.07 -21.08 -56 -64.02 15.89 6.921 -56 51.91 70 102.9
3.835 -65.12 -35.08 6.921 -30.04 -67.01 -66.07 -30.04 -30.04 -66.07 -64.02 -7.079 -46.09 -61.03 19.98 28.94 58.99
3.84 -55.06 -21.08 25.96 -13.06 -51.12 -43.1 -25.01 -27.06 -61.03 -43.1 -19.03 -77.08 -45.15 0 1.888 33.98
3.845 -17.15 4.876 51.91 12.9 -9.124 -1.101 -6.135 -8.022 -28 -2.045 -17.15 -66.07 -5.034 2.989 1.888 28.94
3.85 28 46.88 81.96 53.96 42 56 15.89 9.91 18.88 59.93 -9.124 -20.13 42.94 10.85 12.9 23.91
3.855 85.89 88.88 98 89.98 99.89 105.9 53.96 43.89 79.91 118 0 43.89 101.9 11.96 17.93 5.978
3.86 133.9 122.9 108.9 121 143.9 146 101 82.9 135.9 164.9 11.96 115.9 150.9 -1.101 11.96 -33.03
3.865 166 146.9 112.9 141.9 168 168 146.9 127.9 174 185 33.98 169.9 182.9 -24.07 0.9438 -79.12
3.87 174 160.9 112 154 171.9 169.9 189.9 175.9 188 183.9 67.96 203.9 188 -49.08 -13.06 -111.1
3.875 166 166.9 110.9 160 160 160 224 213.9 185.9 172.9 112 222.9 178.9 -49.08 -4.09 -103
3.88 143.9 154.9 102.9 152.9 140 140 227.9 228.9 169.9 154.9 149.9 222.9 160.9 -19.03 20.92 -59.15
3.885 112 129 81.96 126 112 107.9 197.9 213.9 147.9 126 166 205.9 135.9 25.96 59.93 0.9438
3.89 71.89 88.88 45.93 84.94 73.93 65.91 144.9 171 118 87.93 154 172.9 104 70 96.9 49.87
3.895 23.91 36.97 0 32.88 23.91 11.96 76.92 104.9 75.98 37.91 115.9 121 59.93 87.93 112.9 77.87
3.9 -25.01 -17.15 -37.12 -23.12 -25.01 -39.01 0 28 21.87 -19.03 67.96 57.89 1.888 77.87 110 81.96
3.905 -73.15 -67.01 -63.08 -71.1 -77.08 -87.15 -55.06 -35.08 -35.08 -79.12 29.89 0.9438 -55.06 43.89 98 70
3.91 -109 -101.1 -73.15 -103 -115.1 -117 -97.06 -87.15 -93.12 -125.1 7.865 -51.12 -109 5.978 84 47.98
3.915 -127.1 -117 -67.01 -115.1 -135.1 -129.1 -119.1 -117 -133.1 -151 -2.045 -87.15 -145 -19.03 73.93 25.96
3.92 -131 -117 -55.06 -113.1 -137 -123 -125.1 -127.1 -153.1 -157.1 -7.079 -109 -161.1 -35.08 63.87 3.933
3.925 -119.1 -101.1 -39.01 -95.01 -123 -105.1 -115.1 -123 -153.1 -145 -19.03 -113.1 -155.1 -39.01 51.91 -9.124
3.93 -93.12 -73.15 -21.08 -65.12 -97.06 -79.12 -91.08 -99.1 -133.1 -117 -29.1 -99.1 -127.1 -33.03 37.91 -21.08
3.935 -55.06 -33.03 -2.045 -21.08 -57.1 -41.06 -47.03 -59.15 -99.1 -71.1 -25.01 -65.12 -83.06 -19.03 23.91 -21.08
3.94 -9.124 10.85 28 23.91 -9.124 -2.045 9.91 -1.101 -48.13 -13.06 -3.146 -17.15 -25.01 0.9438 14 -9.124
3.945 31.93 56.94 57.89 70 35.87 37.91 71.89 56 2.989 37.91 25.96 28 28 15.89 8.966 3.933
3.95 65.91 94.85 75.98 101.9 71.89 67.96 121.9 110 51.91 79.91 56 71.89 73.93 28 1.888 11.96
3.955 80.85 110.9 79.91 112.9 88.88 77.87 140.9 140 86.99 98 67.96 91.87 98.94 25.96 -2.045 3.933
3.96 74.88 104.9 70 101 84.94 71.89 126.9 138 98 93.91 58.99 98 98.94 14 -20.13 -13.06
3.965 61.98 88.88 53.96 79.91 71.89 63.87 98 112 87.93 85.89 39.96 93.91 87.93 -2.045 -39.01 -37.12
3.97 56.94 70.94 44.99 62.92 62.92 61.98 68.9 81.96 77.87 81.96 32.88 87.93 82.9 -5.034 -48.13 -51.12
3.975 56.94 52.85 38.85 50.97 62.92 63.87 50.97 56 78.97 85.89 34.92 81.96 82.9 0.9438 -43.1 -47.03
3.98 53.96 32.88 28 29.89 56 57.89 33.98 37.91 77.87 79.91 37.91 70 77.87 7.865 -33.03 -31.15
3.985 33.98 -1.101 6.921 1.888 33.98 28 3.933 9.91 71.89 45.93 30.99 37.91 56 15.89 -13.06 -13.06
3.99 -7.079 -37.12 -22.02 -39.01 -9.124 -19.03 -43.1 -29.1 29.89 -11.01 6.921 -7.079 0 15.89 2.989 -3.146
3.995 -63.08 -83.06 -55.06 -83.06 -67.01 -75.03 -105.1 -87.15 -29.1 -85.1 -25.01 -61.03 -63.08 14 23.91 0
4 -106 -107.1 -71.1 -112 -109 -110.1 -158.1 -142 -95.01 -134 -51.12 -97.06 -122.1 15.89 47.98 11.96
4.005 -117 -103 -63.08 -108.1 -118.1 -114 -175.1 -174.1 -138.1 -144.1 -59.15 -99.1 -142 25.96 73.93 29.89
4.01 -103 -75.03 -43.1 -79.12 -99.1 -95.01 -159 -169.1 -143.1 -121.1 -49.08 -77.08 -129.1 37.91 95.96 47.98
4.015 -74.09 -41.06 -22.02 -44.04 -72.04 -70 -121.1 -138.1 -114 -86.04 -35.08 -42 -96.11 44.99 102.9 53.96
4.02 -62.13 -21.08 -17.15 -22.02 -57.1 -64.02 -91.08 -106 -83.06 -67.01 -34.13 -26.11 -72.04 28.94 81.96 37.91
4.025 -73.15 -25.01 -25.01 -23.12 -71.1 -79.12 -85.1 -91.08 -71.1 -73.15 -49.08 -37.12 -73.15 -3.146 43.89 5.978
4.03 -89.03 -35.08 -30.04 -33.03 -87.15 -88.09 -83.06 -88.09 -78.02 -88.09 -65.12 -54.11 -85.1 -35.08 0 -27.06
4.035 -90.13 -35.08 -22.02 -33.03 -91.08 -80.07 -77.08 -86.04 -85.1 -84 -76.13 -68.11 -89.03 -51.12 -26.11 -48.13
4.04 -66.07 -15.1 0 -15.1 -62.13 -46.09 -50.02 -69.06 -75.03 -49.08 -66.07 -56 -61.03 -42 -40.11 -44.04
4.045 -18.09 12.9 26.9 11.96 -13.06 1.888 -3.146 -28 -33.03 -1.101 -40.11 -22.02 -11.01 -7.079 -38.07 -22.02
4.05 23.91 40.9 46.88 39.96 33.98 34.92 39.96 18.88 18.88 52.85 -9.124 14.94 42 25.96 -37.12 -2.045
4.055 56 52.85 51.91 51.91 59.93 51.91 63.87 53.96 65.91 81.96 3.933 45.93 79.91 51.91 -53.01 11.96
4.06 56.94 42.94 49.87 44.99 61.98 46.88 65.91 66.85 85.89 81.96 16.99 52.85 86.99 68.9 -81.01 5.978
4.065 40.9 26.9 44.99 30.99 42.94 32.88 49.87 56.94 74.88 58.99 19.98 42.94 68.9 62.92 -116.1 -13.06
4.07 21.87 18.88 43.89 23.91 23.91 17.93 33.98 39.96 49.87 35.87 23.91 19.98 39.96 42 -147.1 -47.03
4.075 14 26.9 56 32.88 14.94 16.99 37.91 36.97 26.9 22.97 31.93 9.91 20.92 11.96 -157.1 -87.15
4.08 12.9 46.88 67.96 50.97 15.89 20.92 56.94 50.97 19.98 20.92 47.98 11.96 18.88 -11.01 -139.1 -121.1
4.085 21.87 62.92 73.93 67.96 25.96 25.96 79.91 73.93 21.87 28 65.91 25.96 25.96 -41.06 -95.01 -141.1
4.09 29.89 70.94 70.94 77.87 33.98 29.89 99.89 95.96 29.89 31.93 86.99 47.98 33.98 -57.1 -32.09 -137
4.095 35.87 70.94 64.97 77.87 33.98 31.93 101.9 104 37.91 33.98 96.9 65.91 35.87 -59.15 25.96 -109
4.1 29.89 58.99 53.96 63.87 28 25.96 81.96 89.98 35.87 28 91.87 71.89 28 -47.03 81.96 -59.15
4.105 20.92 42.94 42.94 46.88 20.92 15.89 54.9 61.98 26.9 14 76.92 67.96 14.94 -29.1 121.9 -5.034
4.11 6.921 26.9 26.9 28.94 8.966 3.933 24.85 25.96 9.91 0 50.97 57.89 0.9438 -7.079 136.9 37.91
4.115 -5.034 10.85 11.96 7.865 -1.101 -5.034 -2.045 0 -1.101 -13.06 19.98 49.87 -9.124 7.865 138 75.98
4.12 -18.09 0.9438 0 0 -14 -19.03 -10.07 -15.1 -15.1 -27.06 0 42 -20.13 23.91 126.9 98
4.125 -28 -3.146 -1.101 -6.135 -28 -29.1 -12.11 -19.03 -28 -37.12 -17.15 37.91 -28 33.98 108.9 110
4.13 -35.08 -5.034 -1.101 -7.079 -39.01 -37.12 -13.06 -17.15 -39.01 -43.1 -25.01 35.87 -39.01 42 85.89 107.9
4.135 -41.06 -3.146 0 -1.101 -45.15 -41.06 -9.124 -11.01 -44.04 -45.15 -27.06 29.89 -49.08 42 64.97 93.91
4.14 -43.1 -1.101 7.865 0 -47.03 -39.01 -1.101 -5.034 -46.09 -43.1 -23.12 23.91 -49.08 33.98 42 70
4.145 -39.01 6.921 17.93 7.865 -39.01 -29.1 7.865 3.933 -41.06 -33.03 -15.1 21.87 -41.06 25.96 23.91 42
4.15 -23.12 18.88 31.93 19.98 -21.08 -11.01 29.89 28 -25.01 -11.01 0.9438 29.89 -19.03 19.98 7.865 19.98
4.155 -2.045 34.92 43.89 37.91 1.888 9.91 59.93 59.93 0.9438 11.96 17.93 45.93 7.865 19.98 -3.146 0
4.16 28 54.9 51.91 56 31.93 31.93 81.96 85.89 25.96 37.91 35.87 57.89 39.96 17.93 -23.12 -15.1
4.165 53.96 68.9 57.89 70 53.96 47.98 87.93 95.96 49.87 56 49.87 53.96 61.98 7.865 -51.12 -45.15
4.17 65.91 72.99 57.89 71.89 61.98 51.91 75.98 84 57.89 57.89 49.87 33.98 65.91 -9.124 -85.1 -85.1
4.175 63.87 66.85 56 65.91 57.89 47.98 52.85 57.89 51.91 51.91 42 5.978 56 -37.12 -111.1 -127.1
4.18 56 56.94 56 56 47.98 45.93 29.89 33.98 39.96 42 31.93 -15.1 42 -61.03 -121.1 -153.1
4.185 49.87 48.92 57.89 50.97 42 47.98 22.97 22.97 31.93 39.96 23.91 -20.13 37.91 -67.01 -104.1 -153.1
4.19 47.98 44.99 57.89 48.92 42 49.87 26.9 28.94 35.87 43.89 23.91 -8.022 39.96 -55.06 -66.07 -126
4.195 45.93 38.85 47.98 42 42 47.98 35.87 37.91 43.89 43.89 23.91 7.865 45.93 -31.15 -17.15 -87.15
4.2 33.98 18.88 25.96 20.92 31.93 31.93 33.98 39.96 45.93 37.91 21.87 24.85 39.96 -5.034 28.94 -44.04
4.205 11.96 -7.079 -1.101 -7.079 9.91 3.933 15.89 23.91 35.87 16.99 11.96 30.99 21.87 11.96 65.91 -2.045
4.21 -13.06 -43.1 -31.15 -45.15 -13.06 -19.03 -11.01 -5.034 7.865 -5.034 -1.101 23.91 -2.045 33.98 89.98 33.98
4.215 -33.03 -67.01 -50.02 -71.1 -33.03 -39.01 -38.07 -36.02 -14 -24.07 -23.12 11.96 -20.13 57.89 104.9 77.87
4.22 -43.1 -73.15 -56 -70 -43.1 -43.1 -58.04 -56 -34.13 -30.04 -43.1 0.9438 -32.09 81.96 110.9 118
4.225 -35.08 -61.03 -51.12 -55.06 -35.08 -33.03 -65.12 -63.08 -41.06 -25.01 -55.06 -9.124 -31.15 104 105.9 143.9
4.23 -23.12 -39.01 -38.07 -31.15 -21.08 -19.03 -60.09 -61.03 -28 -14 -61.03 -22.02 -20.13 113.9 93.91 152.9
4.235 -15.1 -23.12 -22.02 -13.06 -11.01 -10.07 -52.07 -52.07 -16.04 -7.079 -59.15 -35.08 -14 110 64.97 136.9
4.24 -11.01 -13.06 -7.079 -7.079 -11.01 -7.079 -41.06 -45.15 -9.124 -13.06 -51.12 -47.03 -15.1 89.98 28 99.89
4.245 -13.06 -3.146 8.966 -1.101 -13.06 -10.07 -23.12 -28 -6.135 -17.15 -35.08 -44.04 -17.15 57.89 -10.07 47.98
4.25 -13.06 0.9438 25.96 0.9438 -13.06 -12.11 0 -5.034 -9.124 -18.09 -11.01 -29.1 -17.15 19.98 -45.15 0
4.255 -5.034 16.99 37.91 14 -9.124 -7.079 23.91 21.87 -13.06 -11.01 7.865 -5.034 -13.06 -15.1 -67.01 -51.12
4.26 0 32.88 48.92 30.99 -1.101 1.888 56 48.92 -4.09 1.888 29.89 17.93 0 -45.15 -73.15 -85.1
4.265 7.865 44.99 46.88 43.89 8.966 7.865 68.9 63.87 -1.101 6.921 45.93 30.99 5.978 -65.12 -65.12 -109
4.27 7.865 46.88 37.91 45.93 7.865 5.978 61.98 57.89 5.978 1.888 49.87 29.89 1.888 -71.1 -57.1 -125.1
4.275 -1.101 38.85 30.99 37.91 0 0 42 39.96 2.989 -7.079 45.93 14 -3.146 -72.04 -52.07 -139.1
4.28 -16.04 22.97 17.93 24.85 -14 -14 14.94 11.96 -9.124 -28 31.93 -3.146 -26.11 -74.09 -61.03 -160.1
4.285 -33.03 4.876 10.85 4.876 -35.08 -34.13 -6.135 -7.079 -28 -49.08 17.93 -23.12 -46.09 -79.12 -79.12 -182
4.29 -46.09 -7.079 0 -8.022 -50.02 -48.13 -18.09 -19.03 -51.12 -60.09 5.978 -35.08 -60.09 -82.11 -91.08 -194.1
4.295 -50.02 -25.01 0 -23.12 -51.12 -45.15 -17.15 -17.15 -58.04 -55.06 3.933 -23.12 -57.1 -78.02 -82.11 -173
4.3 -43.1 -31.15 -3.146 -27.06 -39.01 -31.15 -5.034 -7.079 -49.08 -31.15 11.96 3.933 -41.06 -49.08 -49.08 -109
4.305 -19.03 -23.12 -1.101 -19.03 -14 -3.146 8.966 5.978 -18.09 -1.101 29.89 48.92 -5.034 0.9438 9.91 -5.034
4.31 7.865 -11.01 8.966 -6.135 10.85 18.88 28 24.85 14.94 35.87 42 93.91 28.94 57.89 71.89 99.89
4.315 28 -1.101 15.89 0 29.89 31.93 33.98 35.87 47.98 56 45.93 119.9 56 113.9 124 189.9
4.32 33.98 2.989 11.96 0.9438 31.93 28.94 28.94 35.87 65.91 56.94 33.98 119.9 70 146 152 238.9
4.325 15.89 -11.01 -6.135 -13.06 14 6.921 7.865 14.94 56.94 33.98 5.978 86.99 53.96 149.9 146.9 239.9
4.33 -15.1 -43.1 -39.01 -49.08 -15.1 -25.01 -27.06 -19.03 19.98 -3.146 -23.12 23.91 11.96 127.9 115.9 203.9
4.335 -55.06 -83.06 -66.07 -85.1 -51.12 -60.09 -76.13 -66.07 -18.09 -41.06 -61.03 -41.06 -30.04 99.89 74.88 154.9
4.34 -83.06 -111.1 -80.07 -109 -79.12 -83.06 -126 -115.1 -64.02 -74.09 -91.08 -112 -72.04 67.96 23.91 104.9
4.345 -95.01 -119.1 -73.15 -115.1 -91.08 -91.08 -155.1 -149.1 -93.12 -89.03 -113.1 -165 -97.06 39.96 -13.06 63.87
4.35 -87.15 -103 -52.07 -96.11 -87.15 -79.12 -156 -156 -100 -88.09 -117 -181.1 -102.1 11.96 -40.11 29.89
4.355 -69.06 -69.06 -24.07 -61.03 -71.1 -61.03 -122.1 -134 -92.02 -78.02 -101.1 -157.1 -92.02 -17.15 -52.07 -3.146
4.36 -49.08 -29.1 -2.045 -19.03 -49.08 -39.01 -63.08 -83.06 -77.08 -63.08 -65.12 -105.1 -73.15 -53.01 -53.01 -53.01
4.365 -27.06 6.921 23.91 17.93 -25.01 -15.1 7.865 -15.1 -53.01 -40.11 -15.1 -30.04 -51.12 -87.15 -55.06 -102.1
4.37 -1.101 38.85 43.89 50.97 0.9438 3.933 71.89 49.87 -29.1 -11.01 29.89 36.97 -19.03 -113.1 -68.11 -150.1
4.375 19.98 66.85 57.89 73.93 23.91 25.96 115.9 104 0.9438 14 65.91 84 7.865 -121.1 -97.06 -185.1
4.38 45.93 80.85 63.87 84.94 45.93 47.98 129 129 25.96 43.89 77.87 101 37.91 -115.1 -130.1 -202.1
4.385 63.87 78.97 61.98 76.92 61.98 59.93 112.9 121 51.91 61.98 67.96 82.9 59.93 -95.01 -152.1 -199.1
4.39 67.96 64.97 49.87 57.89 63.87 59.93 73.93 87.93 67.96 65.91 43.89 43.89 67.96 -71.1 -151 -179
4.395 53.96 36.97 28 25.96 53.96 43.89 24.85 37.91 65.91 51.91 19.98 1.888 59.93 -47.03 -121.1 -141.1
4.4 29.89 0.9438 5.978 -3.146 29.89 17.93 -19.03 -9.124 47.98 25.96 1.888 -25.01 37.91 -25.01 -67.01 -85.1
4.405 0 -25.01 -5.034 -29.1 0 -5.034 -53.01 -47.03 17.93 -2.045 0.9438 -43.1 9.91 -1.101 -7.079 -19.03
4.41 -23.12 -43.1 -11.01 -43.1 -21.08 -29.1 -65.12 -65.12 -7.079 -21.08 -2.045 -45.15 -11.01 17.93 42 43.89
4.415 -39.01 -47.03 -9.124 -45.15 -39.01 -41.06 -61.03 -61.03 -27.06 -33.03 0 -37.12 -29.1 45.93 77.87 99.89
4.42 -49.08 -43.1 -5.034 -39.01 -47.03 -45.15 -47.03 -49.08 -37.12 -39.01 0 -25.01 -37.12 67.96 98 138
4.425 -55.06 -41.06 -3.146 -37.12 -53.01 -47.03 -41.06 -43.1 -37.12 -43.1 -1.101 -15.1 -41.06 79.91 101.9 154
4.43 -61.03 -47.03 -9.124 -43.1 -57.1 -53.01 -51.12 -50.02 -39.01 -49.08 -13.06 -13.06 -43.1 79.91 98.94 147.9
4.435 -69.06 -57.1 -21.08 -55.06 -65.12 -63.08 -73.15 -70 -45.15 -59.15 -29.1 -21.08 -49.08 65.91 88.88 127.9
4.44 -75.03 -69.06 -31.15 -67.01 -71.1 -71.1 -99.1 -95.01 -57.1 -67.01 -41.06 -35.08 -57.1 47.98 79.91 101.9
4.445 -73.15 -69.06 -31.15 -67.01 -73.15 -71.1 -105.1 -102.1 -67.01 -69.06 -43.1 -43.1 -63.08 31.93 76.92 74.88
4.45 -61.03 -51.12 -18.09 -51.12 -65.12 -59.15 -81.01 -86.04 -68.11 -59.15 -29.1 -43.1 -61.03 19.98 71.89 46.88
4.455 -43.1 -27.06 -3.146 -25.01 -49.08 -39.01 -37.12 -47.03 -59.15 -45.15 -5.034 -31.15 -51.12 7.865 63.87 17.93
4.46 -21.08 -1.101 8.966 0.9438 -27.06 -18.09 7.865 1.888 -40.11 -29.1 15.89 -10.07 -35.08 -3.146 45.93 -6.135
4.465 -7.079 8.966 16.99 14 -9.124 -2.045 42 33.98 -22.02 -15.1 33.98 -1.101 -21.08 -17.15 18.88 -32.09
4.47 0 18.88 19.98 21.87 1.888 0 57.89 53.96 -11.01 -7.079 43.89 1.888 -11.01 -35.08 -11.01 -57.1
4.475 11.96 24.85 26.9 25.96 15.89 8.966 63.87 62.92 -4.09 0 47.98 -1.101 0.9438 -45.15 -45.15 -69.06
4.48 25.96 34.92 39.96 32.88 28 22.97 65.91 62.92 2.989 15.89 49.87 -6.135 9.91 -44.04 -79.12 -79.12
4.485 39.96 46.88 56 43.89 39.96 37.91 65.91 61.98 17.93 31.93 53.96 -15.1 23.91 -41.06 -109 -85.1
4.49 47.98 58.99 67.96 54.9 47.98 48.92 60.88 56.94 33.98 42.94 49.87 -18.09 33.98 -36.02 -133.1 -90.13
4.495 43.89 58.99 64.97 52.85 42 45.93 38.85 42 42 34.92 35.87 -25.01 34.92 -36.02 -150.1 -97.06
4.5 25.96 40.9 42 33.98 21.87 23.91 0 7.865 31.93 11.96 5.978 -35.08 19.98 -41.06 -155.1 -101.1
4.505 0.9438 12.9 11.96 2.989 0 -4.09 -38.07 -29.1 7.865 -16.04 -23.12 -40.11 -4.09 -40.11 -132.1 -83.06
4.51 -28 -15.1 -12.11 -23.12 -30.04 -36.02 -67.01 -60.09 -22.02 -46.09 -45.15 -36.02 -34.13 -29.1 -81.01 -52.07
4.515 -51.12 -39.01 -29.1 -45.15 -51.12 -57.1 -71.1 -71.1 -51.12 -63.08 -47.03 -21.08 -57.1 -11.01 -15.1 0.9438
4.52 -60.09 -51.12 -36.02 -49.08 -58.04 -58.04 -52.07 -61.03 -59.15 -60.09 -35.08 2.989 -63.08 10.85 54.9 58.99
4.525 -57.1 -55.06 -32.09 -51.12 -54.11 -48.13 -31.15 -40.11 -55.06 -45.15 -14 19.98 -55.06 34.92 113.9 108.9
4.53 -46.09 -55.06 -29.1 -50.02 -44.04 -35.08 -17.15 -24.07 -39.01 -30.04 0 22.97 -40.11 47.98 146 136.9
4.535 -39.01 -53.01 -30.04 -49.08 -34.13 -24.07 -29.1 -28 -25.01 -23.12 -2.045 3.933 -33.03 44.99 157.9 132.9
4.54 -32.09 -55.06 -36.02 -51.12 -32.09 -26.11 -50.02 -45.15 -21.08 -28 -17.15 -24.07 -33.03 22.97 146.9 102.9
4.545 -31.15 -55.06 -39.01 -53.01 -35.08 -37.12 -71.1 -63.08 -29.1 -39.01 -33.03 -57.1 -39.01 -1.101 126 61.98
4.55 -36.02 -45.15 -38.07 -45.15 -40.11 -46.09 -75.03 -70 -42 -52.07 -43.1 -76.13 -48.13 -25.01 98 24.85
4.555 -43.1 -37.12 -33.03 -38.07 -48.13 -56 -72.04 -69.06 -53.01 -62.13 -47.03 -88.09 -58.04 -44.04 66.85 0
4.56 -55.06 -33.03 -31.15 -37.12 -55.06 -63.08 -69.06 -67.01 -65.12 -73.15 -49.08 -99.1 -65.12 -47.03 29.89 -9.124
4.565 -63.08 -37.12 -28 -38.07 -61.03 -61.03 -70 -71.1 -73.15 -76.13 -49.08 -109 -72.04 -36.02 1.888 -13.06
4.57 -67.01 -43.1 -25.01 -44.04 -63.08 -58.04 -78.02 -82.11 -77.08 -76.13 -47.03 -118.1 -77.08 -20.13 -27.06 -20.13
4.575 -59.15 -43.1 -15.1 -43.1 -55.06 -45.15 -81.01 -87.15 -77.08 -67.01 -37.12 -109 -75.03 -13.06 -53.01 -31.15
4.58 -39.01 -33.03 1.888 -30.04 -37.12 -20.13 -61.03 -74.09 -62.13 -43.1 -17.15 -78.02 -55.06 -10.07 -67.01 -39.01
4.585 -7.079 -9.124 14.94 -7.079 -5.034 6.921 -19.03 -40.11 -32.09 -3.146 1.888 -26.11 -19.03 -13.06 -71.1 -49.08
4.59 25.96 16.99 29.89 17.93 29.89 42 31.93 9.91 5.978 37.91 28 19.98 23.91 -19.03 -77.08 -59.15
4.595 63.87 46.88 40.9 43.89 65.91 74.88 85.89 65.91 56.94 81.96 42 60.88 71.89 -23.12 -86.04 -70
4.6 93.91 64.97 44.99 57.89 98 98.94 119.9 112 96.9 113.9 45.93 78.97 105.9 -29.1 -99.1 -88.09
4.605 107.9 66.85 39.96 63.87 110 107.9 127.9 129.9 119.9 124 43.89 73.93 119.9 -37.12 -105.1 -103
4.61 110 60.88 32.88 57.89 110 101.9 118 124.9 121 112 39.96 57.89 115.9 -51.12 -93.12 -108.1
4.615 95.96 50.97 23.91 47.98 93.91 81.96 93.91 102.9 99.89 84 35.87 43.89 91.87 -55.06 -64.02 -88.09
4.62 71.89 34.92 11.96 33.98 70 56 61.98 71.89 71.89 53.96 25.96 25.96 63.87 -47.03 -21.08 -41.06
4.625 43.89 18.88 -2.045 15.89 43.89 31.93 29.89 38.85 42 28 7.865 7.865 35.87 -23.12 18.88 21.87
4.63 17.93 4.876 -11.01 -2.045 19.98 11.96 -2.045 10.85 19.98 9.91 -15.1 -9.124 15.89 1.888 46.88 81.96
4.635 0 -3.146 -23.12 -13.06 1.888 0 -27.06 -15.1 7.865 0 -41.06 -33.03 0 21.87 49.87 113.9
4.64 -7.079 -11.01 -27.06 -21.08 -7.079 -5.034 -55.06 -41.06 0 -9.124 -59.15 -55.06 -9.124 19.98 39.96 107.9
4.645 -15.1 -13.06 -25.01 -21.08 -21.08 -15.1 -75.03 -65.12 -9.124 -27.06 -57.1 -65.12 -27.06 -2.045 23.91 70
4.65 -23.12 -11.01 -15.1 -13.06 -33.03 -27.06 -83.06 -79.12 -31.15 -51.12 -41.06 -57.1 -47.03 -23.12 17.93 23.91
4.655 -33.03 -7.079 -5.034 -5.034 -45.15 -39.01 -73.15 -77.08 -53.01 -71.1 -17.15 -37.12 -65.12 -37.12 21.87 -3.146
4.66 -41.06 -5.034 -2.045 -1.101 -51.12 -45.15 -49.08 -57.1 -69.06 -75.03 0 -9.124 -71.1 -35.08 23.91 -13.06
4.665 -41.06 -3.146 0.9438 0.9438 -47.03 -43.1 -16.04 -27.06 -69.06 -61.03 11.96 9.91 -59.15 -19.03 11.96 -7.079
4.67 -33.03 -5.034 -5.034 -1.101 -33.03 -31.15 5.978 0 -53.01 -33.03 11.96 21.87 -35.08 -3.146 -13.06 0.9438
4.675 -15.1 -5.034 -15.1 -2.045 -15.1 -15.1 24.85 22.97 -27.06 -5.034 3.933 18.88 -7.079 0.9438 -54.11 0.9438
4.68 0.9438 -5.034 -23.12 -4.09 -2.045 -1.101 30.99 28.94 -1.101 14 -1.101 0.9438 11.96 -5.034 -92.02 -9.124
4.685 9.91 -7.079 -23.12 -5.034 14 7.865 25.96 23.91 9.91 23.91 -7.079 -15.1 21.87 -15.1 -115.1 -23.12
4.69 19.98 2.989 -11.01 0 21.87 17.93 28 18.88 15.89 28.94 -5.034 -24.07 26.9 -21.08 -108.1 -31.15
4.695 25.96 10.85 1.888 11.96 25.96 25.96 33.98 25.96 19.98 32.88 0 -18.09 26.9 -17.15 -86.04 -33.03
4.7 29.89 20.92 21.87 21.87 29.89 33.98 43.89 39.96 28 35.87 17.93 0 29.89 -15.1 -57.1 -33.03
4.705 33.98 28.94 32.88 34.92 31.93 36.97 56.94 57.89 33.98 44.99 31.93 23.91 34.92 -13.06 -29.1 -37.12
4.71 31.93 30.99 28.94 38.85 29.89 32.88 64.97 70.94 39.96 46.88 37.91 37.91 40.9 -16.04 -7.079 -45.15
4.715 25.96 22.97 14 29.89 25.96 25.96 57.89 67.96 39.96 39.96 28 35.87 37.91 -23.12 5.978 -47.03
4.72 15.89 6.921 1.888 15.89 18.88 14.94 38.85 49.87 32.88 25.96 7.865 18.88 28 -26.11 26.9 -35.08
4.725 3.933 -1.101 -16.04 0.9438 4.876 0.9438 6.921 16.99 14.94 1.888 -9.124 -1.101 7.865 -28 48.92 -7.079
4.73 -7.079 -11.01 -25.01 -7.079 -5.034 -11.01 -17.15 -9.124 0.9438 -15.1 -21.08 -9.124 -9.124 -29.1 70 29.89
4.735 -21.08 -15.1 -25.01 -14 -20.13 -23.12 -35.08 -32.09 -16.04 -32.09 -23.12 -10.07 -28 -24.07 85.89 70
4.74 -33.03 -19.03 -23.12 -21.08 -34.13 -31.15 -44.04 -41.06 -28 -39.01 -15.1 0.9438 -36.02 -14 98.94 98
4.745 -39.01 -27.06 -23.12 -25.01 -41.06 -33.03 -39.01 -39.01 -33.03 -39.01 -5.034 7.865 -35.08 0.9438 101.9 112
4.75 -36.02 -29.1 -22.02 -28 -35.08 -28 -25.01 -25.01 -23.12 -27.06 0.9438 18.88 -24.07 14 98 107.9
4.755 -28 -31.15 -21.08 -31.15 -29.1 -17.15 -15.1 -12.11 -14 -13.06 6.921 18.88 -11.01 32.88 79.91 93.91
4.76 -19.03 -29.1 -21.08 -27.06 -15.1 -11.01 -9.124 -5.034 -5.034 -1.101 3.933 14 -1.101 42 56 79.91
4.765 -7.079 -17.15 -13.06 -21.08 0 -1.101 -6.135 -1.101 1.888 5.978 3.933 6.921 5.978 45.93 30.99 63.87
4.77 1.888 -9.124 -7.079 -10.07 3.933 0 -4.09 -3.146 4.876 9.91 1.888 1.888 8.966 44.99 5.978 52.85
4.775 4.876 -5.034 0 -4.09 7.865 8.966 0 -6.135 8.966 16.99 0 -3.146 14 45.93 -12.11 44.99
4.78 9.91 -3.146 0 -4.09 9.91 14 -1.101 -3.146 14.94 17.93 -1.101 -9.124 14.94 48.92 -33.03 38.85
4.785 11.96 -5.034 7.865 -1.101 12.9 17.93 0.9438 0.9438 20.92 17.93 0.9438 -12.11 15.89 43.89 -58.04 23.91
4.79 14 0.9438 17.93 0 11.96 15.89 0 0 21.87 11.96 0 -9.124 15.89 23.91 -85.1 -2.045
4.795 16.99 8.966 31.93 11.96 14 15.89 5.978 8.966 14.94 7.865 12.9 -2.045 14 -4.09 -103 -39.01
4.8 20.92 26.9 44.99 28.94 17.93 14.94 15.89 15.89 9.91 3.933 30.99 4.876 8.966 -47.03 -103 -83.06
4.805 21.87 42.94 51.91 43.89 21.87 14 29.89 29.89 0 3.933 47.98 19.98 7.865 -81.01 -81.01 -121.1
4.81 25.96 50.97 49.87 49.87 26.9 19.98 50.97 47.98 2.989 11.96 57.89 42 12.9 -96.11 -34.13 -137
4.815 25.96 46.88 43.89 48.92 32.88 21.87 63.87 58.99 6.921 18.88 59.93 56.94 20.92 -90.13 7.865 -123
4.82 25.96 36.97 35.87 37.91 31.93 19.98 65.91 63.87 15.89 23.91 49.87 63.87 23.91 -69.06 51.91 -85.1
4.825 21.87 26.9 28.94 26.9 28.94 18.88 62.92 62.92 20.92 25.96 35.87 58.99 25.96 -40.11 78.97 -35.08
4.83 19.98 22.97 26.9 17.93 24.85 16.99 56.94 57.89 20.92 23.91 21.87 44.99 23.91 -12.11 90.92 11.96
4.835 15.89 24.85 17.93 15.89 19.98 14 49.87 47.98 15.89 17.93 11.96 19.98 17.93 11.96 89.98 56
4.84 11.96 24.85 10.85 18.88 11.96 12.9 38.85 40.9 14 14.94 3.933 -5.034 12.9 38.85 79.91 84
4.845 3.933 18.88 1.888 12.9 3.933 4.876 20.92 25.96 7.865 4.876 -3.146 -37.12 8.966 56 61.98 98
4.85 -5.034 0.9438 -17.15 0.9438 -5.034 -7.079 -9.124 -2.045 1.888 -5.034 -19.03 -71.1 0.9438 61.98 33.98 95.96
4.855 -25.01 -15.1 -33.03 -17.15 -25.01 -29.1 -45.15 -31.15 -9.124 -26.11 -39.01 -98 -18.09 47.98 6.921 81.96
4.86 -45.15 -35.08 -39.01 -37.12 -45.15 -45.15 -79.12 -68.11 -29.1 -46.09 -55.06 -114 -42 21.87 -12.11 59.93
4.865 -55.06 -45.15 -35.08 -45.15 -57.1 -51.12 -95.01 -93.12 -49.08 -61.03 -57.1 -111.1 -61.03 0.9438 -17.15 39.96
4.87 -51.12 -31.15 -23.12 -32.09 -53.01 -45.15 -82.11 -90.13 -61.03 -59.15 -45.15 -78.02 -63.08 -11.01 -8.022 25.96
4.875 -35.08 -9.124 -7.079 -6.135 -35.08 -31.15 -48.13 -64.02 -55.06 -41.06 -19.03 -26.11 -47.03 -9.124 4.876 19.98
4.88 -15.1 4.876 1.888 7.865 -15.1 -13.06 -9.124 -25.01 -35.08 -15.1 5.978 31.93 -23.12 0 19.98 19.98
4.885 -1.101 20.92 9.91 23.91 0 0 26.9 15.89 -9.124 5.978 25.96 87.93 0 11.96 28 21.87
4.89 3.933 26.9 9.91 28 11.96 14 59.93 53.96 11.96 25.96 31.93 126 23.91 19.98 19.98 19.98
4.895 14 30.99 5.978 29.89 21.87 29.89 81.96 85.89 33.98 39.96 25.96 135.9 39.96 15.89 1.888 3.933
4.9 29.89 38.85 3.933 31.93 35.87 45.93 93.91 101.9 49.87 53.96 9.91 121.9 53.96 3.933 -21.08 -21.08
4.905 51.91 48.92 3.933 39.96 53.96 61.98 91.87 104 63.87 65.91 -2.045 85.89 63.87 -5.034 -49.08 -57.1
4.91 71.89 54.9 5.978 47.98 71.89 73.93 77.87 87.93 73.93 75.98 -5.034 39.96 73.93 -21.08 -69.06 -93.12
4.915 79.91 52.85 9.91 47.98 81.96 75.98 51.91 59.93 79.91 77.87 -1.101 0.9438 79.91 -33.03 -73.15 -109
4.92 71.89 38.85 11.96 39.96 73.93 63.87 23.91 25.96 77.87 70 3.933 -33.03 73.93 -35.08 -55.06 -101.1
4.925 47.98 18.88 11.96 19.98 51.91 39.96 0 -1.101 62.92 49.87 15.89 -53.01 53.96 -25.01 -17.15 -68.11
4.93 15.89 0.9438 5.978 1.888 21.87 14 -5.034 -13.06 35.87 17.93 28 -59.15 23.91 -9.124 21.87 -25.01
4.935 -9.124 -9.124 0.9438 -9.124 -3.146 -7.079 -9.124 -16.04 4.876 -7.079 31.93 -54.11 -2.045 5.978 60.88 8.966
4.94 -29.1 -21.08 -13.06 -23.12 -25.01 -23.12 -7.079 -12.11 -22.02 -31.15 31.93 -34.13 -28 17.93 86.99 42.94
4.945 -37.12 -27.06 -21.08 -27.06 -31.15 -27.06 -3.146 -3.146 -39.01 -33.03 25.96 -9.124 -37.12 28 99.89 67.96
4.95 -26.11 -25.01 -22.02 -25.01 -20.13 -13.06 1.888 3.933 -33.03 -17.15 19.98 18.88 -24.07 42.94 108.9 96.9
4.955 -4.09 -15.1 -16.04 -17.15 -1.101 3.933 11.96 14 -11.01 6.921 9.91 42.94 -1.101 60.88 110.9 124
4.96 11.96 -9.124 -7.079 -5.034 19.98 25.96 19.98 17.93 15.89 35.87 -2.045 49.87 31.93 75.98 99.89 138
4.965 32.88 0.9438 -2.045 -2.045 36.97 35.87 20.92 18.88 44.99 52.85 -17.15 40.9 51.91 82.9 70 129.9
4.97 32.88 -1.101 -6.135 1.888 38.85 33.98 18.88 14.94 54.9 48.92 -39.01 15.89 47.98 62.92 19.98 86.99
4.975 25.96 2.989 -19.03 0 28 21.87 14 11.96 45.93 31.93 -59.15 -11.01 31.93 17.93 -33.03 21.87
4.98 15.89 6.921 -26.11 0 15.89 9.91 12.9 11.96 28 12.9 -66.07 -29.1 12.9 -25.01 -72.04 -31.15
4.985 11.96 14.94 -27.06 7.865 11.96 7.865 14.94 16.99 10.85 4.876 -64.02 -32.09 2.989 -59.15 -88.09 -62.13
4.99 17.93 24.85 -21.08 19.98 14 15.89 14 17.93 1.888 9.91 -53.01 -25.01 5.978 -61.03 -75.03 -63.08
4.995 30.99 36.97 -6.135 31.93 24.85 28 7.865 11.96 7.865 17.93 -36.02 -17.15 16.99 -44.04 -50.02 -48.13
5 39.96 40.9 -1.101 35.87 35.87 33.98 -5.034 0.9438 15.89 28.94 -20.13 -8.022 26.9 -25.01 -33.03 -40.11
5.005 33.98 34.92 7.865 33.98 31.93 31.93 -23.12 -19.03 21.87 25.96 -5.034 -5.034 28 -23.12 -27.06 -55.06
5.01 24.85 28.94 10.85 25.96 20.92 20.92 -27.06 -27.06 21.87 15.89 4.876 1.888 17.93 -42 -28 -92.02
5.015 8.966 20.92 11.96 21.87 4.876 5.978 -15.1 -18.09 10.85 1.888 20.92 2.989 0 -69.06 -30.04 -131
5.02 -5.034 18.88 12.9 19.98 -7.079 -11.01 1.888 0 1.888 -15.1 32.88 6.921 -9.124 -85.1 -33.03 -151
5.025 -16.04 24.85 17.93 19.98 -20.13 -19.03 19.98 20.92 -16.04 -27.06 36.97 2.989 -25.01 -81.01 -30.04 -141.1
5.03 -20.13 26.9 16.99 23.91 -24.07 -24.07 33.98 35.87 -27.06 -27.06 32.88 -2.045 -27.06 -52.07 -22.02 -100
5.035 -19.03 28.94 17.93 23.91 -19.03 -13.06 37.91 39.96 -27.06 -21.08 28 -9.124 -21.08 -17.15 -15.1 -43.1
5.04 -5.034 28.94 20.92 21.87 -3.146 0 33.98 35.87 -11.01 1.888 24.85 -8.022 -2.045 14 0 8.966
5.045 4.876 22.97 16.99 17.93 8.966 15.89 23.91 23.91 7.865 17.93 22.97 -1.101 16.99 38.85 24.85 56.94
5.05 17.93 14.94 9.91 9.91 21.87 23.91 5.978 7.865 29.89 31.93 17.93 1.888 31.93 53.96 51.91 85.89
5.055 21.87 2.989 0 0.9438 23.91 14 -14 -8.022 38.85 30.99 2.989 2.989 36.97 61.98 68.9 104.9
5.06 14 -11.01 -14 -15.1 11.96 0.9438 -52.07 -43.1 25.96 14.94 -12.11 -7.079 22.97 67.96 70.94 112
5.065 -3.146 -31.15 -31.15 -33.03 -7.079 -21.08 -89.03 -77.08 -2.045 -5.034 -37.12 -31.15 0.9438 65.91 59.93 107.9
5.07 -24.07 -47.03 -42 -45.15 -26.11 -39.01 -108.1 -104.1 -28 -28 -53.01 -47.03 -27.06 60.88 43.89 101
5.075 -42 -55.06 -46.09 -55.06 -42 -47.03 -106 -110.1 -52.07 -46.09 -53.01 -60.09 -47.03 46.88 28 87.93
5.08 -55.06 -59.15 -41.06 -57.1 -53.01 -47.03 -83.06 -93.12 -61.03 -53.01 -47.03 -61.03 -63.08 23.91 9.91 67.96
5.085 -58.04 -55.06 -28 -53.01 -54.11 -47.03 -51.12 -63.08 -57.1 -50.02 -37.12 -58.04 -62.13 -1.101 1.888 47.98
5.09 -52.07 -51.12 -14 -45.15 -50.02 -39.01 -27.06 -35.08 -45.15 -47.03 -31.15 -54.11 -56 -20.13 -18.09 22.97
5.095 -41.06 -37.12 -1.101 -31.15 -37.12 -29.1 -17.15 -19.03 -37.12 -37.12 -31.15 -55.06 -45.15 -39.01 -39.01 0.9438
5.1 -23.12 -19.03 3.933 -13.06 -19.03 -11.01 -19.03 -14 -24.07 -21.08 -35.08 -56 -28 -55.06 -60.09 -36.02
5.105 -1.101 -1.101 7.865 0 -2.045 1.888 -23.12 -16.04 -8.022 -7.079 -37.12 -56 -8.022 -73.15 -82.11 -86.04
5.11 11.96 12.9 7.865 14 17.93 17.93 -21.08 -17.15 -2.045 3.933 -35.08 -51.12 3.933 -91.08 -95.01 -147.1
5.115 23.91 24.85 5.978 21.87 28 25.96 -11.01 -10.07 12.9 15.89 -23.12 -37.12 17.93 -109 -97.06 -204
5.12 25.96 24.85 5.978 19.98 28 25.96 -2.045 -1.101 19.98 21.87 -3.146 -17.15 25.96 -115.1 -83.06 -233.1
5.125 21.87 20.92 9.91 15.89 21.87 19.98 11.96 3.933 25.96 23.91 15.89 7.865 28 -99.1 -51.12 -217.1
5.13 14 14.94 15.89 9.91 11.96 14 17.93 11.96 28 19.98 33.98 37.91 23.91 -59.15 -9.124 -153.1
5.135 3.933 6.921 17.93 3.933 0 3.933 15.89 17.93 25.96 14 42 59.93 15.89 -7.079 28 -63.08
5.14 -3.146 -1.101 7.865 -1.101 -9.124 -5.034 5.978 15.89 15.89 -2.045 31.93 70 1.888 35.87 57.89 23.91
5.145 -21.08 -9.124 -5.034 -17.15 -25.01 -27.06 -5.034 5.978 -2.045 -17.15 9.91 59.93 -11.01 61.98 71.89 89.98
5.15 -43.1 -25.01 -29.1 -33.03 -45.15 -49.08 -27.06 -9.124 -25.01 -41.06 -15.1 37.91 -35.08 63.87 71.89 126
5.155 -61.03 -41.06 -49.08 -47.03 -61.03 -67.01 -54.11 -41.06 -53.01 -63.08 -39.01 5.978 -57.1 49.87 65.91 133.9
5.16 -71.1 -53.01 -57.1 -53.01 -71.1 -73.15 -83.06 -77.08 -75.03 -77.08 -57.1 -21.08 -73.15 31.93 57.89 124
5.165 -71.1 -53.01 -51.12 -50.02 -71.1 -69.06 -102.1 -104.1 -81.01 -77.08 -65.12 -43.1 -77.08 17.93 47.98 104
5.17 -63.08 -45.15 -39.01 -42 -63.08 -59.15 -106 -114 -75.03 -69.06 -65.12 -48.13 -71.1 3.933 37.91 77.87
5.175 -51.12 -33.03 -23.12 -31.15 -49.08 -47.03 -87.15 -101.1 -59.15 -55.06 -61.03 -41.06 -57.1 -3.146 29.89 45.93
5.18 -37.12 -19.03 -5.034 -22.02 -35.08 -35.08 -53.01 -68.11 -43.1 -40.11 -45.15 -18.09 -41.06 -16.04 24.85 15.89
5.185 -23.12 -1.101 7.865 -5.034 -19.03 -21.08 -11.01 -25.01 -31.15 -24.07 -17.15 2.989 -24.07 -32.09 26.9 -4.09
5.19 -5.034 12.9 28 11.96 -1.101 -3.146 29.89 14 -19.03 -7.079 17.93 28 -11.01 -43.1 39.96 -21.08
5.195 9.91 40.9 47.98 42 14 14 70.94 57.89 -5.034 6.921 63.87 50.97 2.989 -40.11 54.9 -24.07
5.2 31.93 68.9 63.87 70.94 33.98 37.91 101 94.85 7.865 24.85 98 65.91 20.92 -28 56.94 -22.02
5.205 51.91 90.92 67.96 89.98 51.91 53.96 112 115.9 28 42 110 70 37.91 -7.079 42 -17.15
5.21 63.87 104.9 60.88 98 63.87 64.97 108.9 118 45.93 57.89 91.87 61.98 56.94 15.89 5.978 -14
5.215 73.93 101 46.88 90.92 72.99 66.85 85.89 95.96 61.98 71.89 49.87 44.99 72.99 37.91 -39.01 -19.03
5.22 75.98 84.94 29.89 73.93 77.87 67.96 47.98 59.93 73.93 81.96 3.933 15.89 81.96 47.98 -91.08 -33.03
5.225 73.93 58.99 14.94 50.97 76.92 66.85 14 19.98 84.94 88.88 -26.11 -5.034 85.89 44.99 -128 -53.01
5.23 64.97 32.88 4.876 29.89 66.85 58.99 0 -2.045 86.99 82.9 -44.04 -22.02 79.91 24.85 -145 -72.04
5.235 45.93 8.966 -1.101 5.978 45.93 42 -1.101 -7.079 77.87 67.96 -43.1 -17.15 67.96 0 -139.1 -81.01
5.24 22.97 -5.034 -6.135 -5.034 20.92 21.87 5.978 0.9438 62.92 40.9 -26.11 2.989 47.98 -12.11 -100 -69.06
5.245 1.888 -15.1 -5.034 -18.09 0.9438 0 23.91 23.91 36.97 11.96 -6.135 34.92 22.97 -17.15 -46.09 -40.11
5.25 -19.03 -17.15 -5.034 -17.15 -19.03 -13.06 29.89 35.87 9.91 -9.124 5.978 56 -2.045 -9.124 3.933 -3.146
5.255 -27.06 -13.06 0.9438 -9.124 -28 -19.03 23.91 31.93 -10.07 -20.13 12.9 56.94 -15.1 -1.101 47.98 24.85
5.26 -27.06 -9.124 1.888 -3.146 -28 -21.08 1.888 12.9 -25.01 -26.11 9.91 31.93 -25.01 6.921 70.94 40.9
5.265 -22.02 -9.124 -1.101 -4.09 -27.06 -19.03 -19.03 -9.124 -30.04 -27.06 1.888 -7.079 -29.1 6.921 70.94 39.96
5.27 -23.12 -17.15 -9.124 -15.1 -28 -27.06 -41.06 -34.13 -29.1 -28 -13.06 -43.1 -27.06 1.888 62.92 30.99
5.275 -29.1 -31.15 -17.15 -29.1 -32.09 -37.12 -53.01 -51.12 -30.04 -34.13 -24.07 -62.13 -27.06 -2.045 57.89 26.9
5.28 -39.01 -41.06 -19.03 -45.15 -41.06 -49.08 -57.1 -55.06 -39.01 -43.1 -23.12 -57.1 -37.12 -5.034 61.98 28
5.285 -46.09 -41.06 -9.124 -46.09 -47.03 -53.01 -47.03 -47.03 -48.13 -53.01 -8.022 -34.13 -44.04 -3.146 66.85 36.97
5.29 -50.02 -39.01 0.9438 -37.12 -46.09 -49.08 -27.06 -34.13 -56 -52.07 8.966 -2.045 -51.12 -4.09 68.9 39.96
5.295 -45.15 -25.01 15.89 -23.12 -41.06 -37.12 -3.146 -13.06 -59.15 -47.03 29.89 17.93 -53.01 -13.06 53.96 29.89
5.3 -30.04 -11.01 24.85 -3.146 -26.11 -20.13 14.94 4.876 -48.13 -32.09 38.85 32.88 -43.1 -22.02 29.89 14.94
5.305 -13.06 2.989 22.97 2.989 -8.022 -4.09 29.89 23.91 -28 -14 32.88 37.91 -25.01 -26.11 -2.045 -3.146
5.31 0 6.921 9.91 5.978 0 0 28 28 -9.124 0.9438 11.96 29.89 -5.034 -23.12 -45.15 -21.08
5.315 9.91 10.85 -1.101 10.85 8.966 4.876 15.89 19.98 1.888 9.91 -9.124 14.94 6.921 -9.124 -87.15 -33.03
5.32 15.89 10.85 -7.079 7.865 14 6.921 -2.045 3.933 7.865 19.98 -27.06 -1.101 16.99 0 -123 -48.13
5.325 15.89 10.85 -9.124 3.933 15.89 11.96 -17.15 -11.01 15.89 25.96 -33.03 -17.15 21.87 5.978 -149.1 -63.08
5.33 19.98 10.85 -5.034 6.921 21.87 21.87 -16.04 -18.09 21.87 34.92 -25.01 -19.03 28.94 4.876 -150.1 -70
5.335 21.87 8.966 0.9438 5.978 25.96 28 0 -11.01 31.93 42.94 -11.01 -12.11 36.97 2.989 -128 -74.09
5.34 19.98 0.9438 0 -2.045 25.96 28 11.96 1.888 42 43.89 0.9438 -2.045 39.96 -2.045 -89.03 -61.03
5.345 14 -9.124 0.9438 -9.124 17.93 17.93 17.93 15.89 43.89 36.97 1.888 18.88 34.92 -1.101 -40.11 -38.07
5.35 0 -25.01 -7.079 -28 1.888 -2.045 11.96 14.94 31.93 16.99 0 32.88 17.93 1.888 -1.101 -9.124
5.355 -11.01 -41.06 -13.06 -45.15 -13.06 -19.03 -7.079 0 9.91 -9.124 0.9438 33.98 -1.101 -3.146 33.98 15.89
5.36 -27.06 -47.03 -15.1 -52.07 -33.03 -37.12 -30.04 -14 -13.06 -33.03 -3.146 26.9 -25.01 -9.124 59.93 43.89
5.365 -37.12 -45.15 -11.01 -50.02 -43.1 -45.15 -48.13 -32.09 -35.08 -47.03 -7.079 9.91 -41.06 -13.06 79.91 65.91
5.37 -39.01 -37.12 -3.146 -39.01 -41.06 -45.15 -51.12 -47.03 -49.08 -51.12 -9.124 -5.034 -49.08 -15.1 93.91 77.87
5.375 -35.08 -31.15 0.9438 -29.1 -35.08 -39.01 -48.13 -53.01 -51.12 -45.15 -9.124 -25.01 -49.08 -17.15 98 73.93
5.38 -33.03 -27.06 0.9438 -23.12 -31.15 -35.08 -41.06 -53.01 -45.15 -35.08 -3.146 -41.06 -43.1 -21.08 91.87 57.89
5.385 -31.15 -29.1 -1.101 -23.12 -29.1 -31.15 -27.06 -45.15 -37.12 -29.1 3.933 -45.15 -37.12 -29.1 79.91 35.87
5.39 -31.15 -27.06 -1.101 -25.01 -29.1 -27.06 -3.146 -23.12 -31.15 -27.06 21.87 -33.03 -33.03 -43.1 65.91 11.96
5.395 -29.1 -23.12 -2.045 -21.08 -31.15 -21.08 21.87 5.978 -27.06 -27.06 37.91 -7.079 -29.1 -53.01 51.91 -2.045
5.4 -25.01 -15.1 0 -13.06 -27.06 -15.1 43.89 39.96 -23.12 -27.06 43.89 14 -27.06 -57.1 39.96 -5.034
5.405 -17.15 -7.079 -2.045 -7.079 -21.08 -7.079 49.87 53.96 -19.03 -25.01 28 28 -21.08 -51.12 17.93 -9.124
5.41 -5.034 -7.079 -7.079 -5.034 -9.124 0.9438 29.89 42.94 -12.11 -17.15 -1.101 23.91 -13.06 -33.03 -13.06 -13.06
5.415 3.933 -9.124 -23.12 -9.124 1.888 5.978 0.9438 10.85 -2.045 -3.146 -45.15 3.933 1.888 -5.034 -59.15 -11.01
5.42 17.93 -15.1 -35.08 -19.03 17.93 15.89 -33.03 -23.12 3.933 11.96 -83.06 -19.03 14 21.87 -109 -5.034
5.425 32.88 -19.03 -41.06 -23.12 32.88 25.96 -45.15 -44.04 16.99 30.99 -99.1 -38.07 32.88 47.98 -143.1 1.888
5.43 38.85 -17.15 -37.12 -21.08 38.85 34.92 -30.04 -38.07 30.99 44.99 -93.12 -42 42.94 65.91 -155.1 14
5.435 42 -11.01 -25.01 -11.01 42 39.96 -3.146 -9.124 39.96 49.87 -65.12 -31.15 47.98 67.96 -143.1 15.89
5.44 44.99 2.989 -9.124 -2.045 40.9 46.88 22.97 21.87 47.98 50.97 -29.1 -10.07 46.88 56 -116.1 3.933
5.445 46.88 12.9 3.933 14 42.94 48.92 40.9 43.89 49.87 46.88 1.888 -1.101 43.89 37.91 -78.02 -9.124
5.45 45.93 26.9 17.93 29.89 42 45.93 43.89 45.93 47.98 42 31.93 3.933 39.96 17.93 -35.08 -21.08
5.455 43.89 36.97 28.94 37.91 42 40.9 32.88 32.88 40.9 33.98 47.98 2.989 31.93 1.888 2.989 -17.15
5.46 33.98 40.9 32.88 37.91 28 23.91 15.89 9.91 28 11.96 53.96 0.9438 18.88 -11.01 40.9 -5.034
5.465 11.96 28.94 29.89 28 5.978 0 -3.146 -5.034 0 -11.01 47.98 -7.079 -3.146 -29.1 67.96 5.978
5.47 -8.022 10.85 20.92 8.966 -18.09 -23.12 -21.08 -17.15 -20.13 -38.07 32.88 -7.079 -29.1 -44.04 86.99 15.89
5.475 -26.11 -11.01 6.921 -10.07 -38.07 -38.07 -28 -22.02 -47.03 -58.04 14.94 1.888 -53.01 -56 95.96 19.98
5.48 -33.03 -27.06 0.9438 -25.01 -45.15 -39.01 -27.06 -21.08 -59.15 -55.06 3.933 11.96 -59.15 -57.1 99.89 21.87
5.485 -20.13 -25.01 1.888 -24.07 -26.11 -17.15 -17.15 -11.01 -47.03 -32.09 4.876 33.98 -42 -46.09 107 28
5.49 0 -9.124 5.978 -9.124 -1.101 10.85 -1.101 1.888 -19.03 -1.101 10.85 60.88 -6.135 -28 116.9 35.87
5.495 31.93 8.966 14 1.888 31.93 42 15.89 11.96 11.96 33.98 14 79.91 23.91 -5.034 121.9 39.96
5.5 54.9 26.9 17.93 18.88 57.89 64.97 20.92 22.97 49.87 59.93 10.85 86.99 53.96 7.865 110.9 36.97
5.505 66.85 28.94 5.978 20.92 65.91 71.89 7.865 15.89 70 64.97 1.888 70.94 68.9 22.97 80.85 30.99
5.51 65.91 18.88 -9.124 11.96 63.87 64.97 -6.135 1.888 70.94 54.9 -18.09 38.85 61.98 31.93 35.87 29.89
5.515 58.99 2.989 -29.1 1.888 51.91 53.96 -21.08 -19.03 59.93 42.94 -36.02 1.888 48.92 38.85 -14 22.97
5.52 50.97 -5.034 -35.08 -8.022 45.93 44.99 -24.07 -32.09 43.89 33.98 -40.11 -34.13 35.87 37.91 -68.11 14.94
5.525 47.98 -9.124 -25.01 -13.06 42 39.96 -7.079 -25.01 33.98 28 -31.15 -57.1 29.89 33.98 -117 -3.146
5.53 47.98 0.9438 1.888 -1.101 46.88 42.94 10.85 1.888 29.89 32.88 -8.022 -60.09 34.92 22.97 -150.1 -35.08
5.535 52.85 16.99 24.85 8.966 52.85 45.93 29.89 25.96 37.91 38.85 8.966 -53.01 44.99 6.921 -170 -71.1
5.54 53.96 30.99 47.98 23.91 53.96 45.93 35.87 43.89 39.96 43.89 28 -41.06 51.91 -7.079 -167.1 -93.12
5.545 56.94 40.9 64.97 38.85 54.9 44.99 30.99 44.99 43.89 46.88 40.9 -30.04 52.85 -20.13 -143.1 -95.01
5.55 50.97 54.9 76.92 48.92 46.88 37.91 21.87 35.87 40.9 42.94 48.92 -19.03 45.93 -30.04 -100 -77.08
5.555 37.91 60.88 81.96 56 33.98 25.96 19.98 21.87 29.89 25.96 51.91 -5.034 28 -31.15 -41.06 -41.06
5.56 25.96 62.92 84.94 59.93 19.98 11.96 21.87 19.98 15.89 7.865 53.96 7.865 10.85 -29.1 20.92 -1.101
5.565 5.978 58.99 78.97 53.96 1.888 -6.135 24.85 20.92 1.888 -7.079 53.96 26.9 -5.034 -25.01 80.85 25.96
5.57 -13.06 46.88 61.98 39.96 -15.1 -25.01 28 28 -19.03 -31.15 49.87 47.98 -25.01 -23.12 127.9 47.98
5.575 -28 26.9 37.91 19.98 -28 -36.02 30.99 29.89 -35.08 -40.11 43.89 68.9 -37.12 -17.15 160.9 57.89
5.58 -36.02 4.876 11.96 1.888 -36.02 -32.09 24.85 29.89 -39.01 -36.02 31.93 80.85 -40.11 -9.124 172.9 59.93
5.585 -29.1 -7.079 -7.079 -9.124 -27.06 -15.1 14 17.93 -33.03 -19.03 17.93 84 -29.1 3.933 161.9 57.89
5.59 -8.022 -17.15 -25.01 -15.1 -4.09 2.989 0.9438 4.876 -14 4.876 -2.045 74.88 -6.135 28 133.9 63.87
5.595 6.921 -17.15 -37.12 -15.1 12.9 25.96 -11.01 -8.022 4.876 32.88 -21.08 48.92 18.88 56 93.91 81.96
5.6 21.87 -15.1 -45.15 -15.1 28 33.98 -27.06 -25.01 28 45.93 -51.12 14 35.87 81.96 51.91 107.9
5.605 21.87 -17.15 -55.06 -21.08 25.96 25.96 -39.01 -34.13 38.85 45.93 -77.08 -13.06 40.9 99.89 17.93 132
5.61 11.96 -21.08 -65.12 -29.1 11.96 7.865 -39.01 -38.07 34.92 25.96 -97.06 -33.03 25.96 107.9 -2.045 141.9
5.615 -5.034 -35.08 -73.15 -39.01 -7.079 -11.01 -35.08 -35.08 15.89 -2.045 -99.1 -41.06 1.888 101.9 -9.124 129.9
5.62 -25.01 -43.1 -73.15 -45.15 -27.06 -29.1 -25.01 -29.1 -1.101 -21.08 -83.06 -41.06 -15.1 84 -19.03 98
5.625 -37.12 -45.15 -59.15 -43.1 -39.01 -35.08 -17.15 -21.08 -21.08 -33.03 -55.06 -39.01 -31.15 57.89 -33.03 59.93
5.63 -37.12 -33.03 -33.03 -27.06 -35.08 -29.1 -9.124 -17.15 -27.06 -33.03 -21.08 -41.06 -33.03 28 -51.12 19.98
5.635 -29.1 -11.01 -5.034 -5.034 -23.12 -17.15 -3.146 -11.01 -25.01 -23.12 5.978 -45.15 -25.01 1.888 -69.06 -9.124
5.64 -17.15 6.921 14 11.96 -9.124 -5.034 3.933 -1.101 -13.06 -11.01 29.89 -41.06 -15.1 -17.15 -75.03 -39.01
5.645 -5.034 24.85 29.89 28.94 -2.045 -2.045 18.88 9.91 -5.034 -3.146 47.98 -23.12 -7.079 -37.12 -67.01 -67.01
5.65 0.9438 34.92 37.91 37.91 1.888 -2.045 35.87 31.93 0.9438 0.9438 61.98 1.888 -1.101 -53.01 -43.1 -83.06
5.655 0 40.9 43.89 42.94 1.888 0.9438 48.92 50.97 -2.045 -2.045 75.98 39.96 0 -57.1 -7.079 -82.11
5.66 0 42.94 47.98 42.94 1.888 -1.101 52.85 60.88 -2.045 0 89.98 74.88 3.933 -50.02 28 -62.13
5.665 -2.045 38.85 51.91 37.91 -2.045 -3.146 43.89 57.89 -2.045 0 98 98 3.933 -37.12 61.98 -27.06
5.67 -3.146 32.88 47.98 31.93 -5.034 -7.079 29.89 42.94 0.9438 -1.101 95.96 101 1.888 -18.09 90.92 2.989
5.675 -15.1 14.94 35.87 17.93 -17.15 -17.15 5.978 18.88 -5.034 -8.022 79.91 90.92 -7.079 -10.07 104.9 22.97
5.68 -29.1 -1.101 17.93 -2.045 -31.15 -35.08 -15.1 -7.079 -19.03 -27.06 47.98 57.89 -23.12 -15.1 101.9 21.87
5.685 -47.03 -17.15 0 -16.04 -47.03 -49.08 -40.11 -37.12 -35.08 -44.04 5.978 18.88 -42 -27.06 88.88 14
5.69 -57.1 -27.06 -7.079 -27.06 -55.06 -57.1 -64.02 -65.12 -49.08 -54.11 -31.15 -25.01 -52.07 -37.12 62.92 5.978
5.695 -63.08 -31.15 -11.01 -33.03 -57.1 -57.1 -89.03 -87.15 -57.1 -59.15 -69.06 -77.08 -55.06 -39.01 33.98 14
5.7 -61.03 -25.01 -13.06 -32.09 -55.06 -55.06 -108.1 -102.1 -59.15 -55.06 -90.13 -119.1 -54.11 -26.11 8.966 32.88
5.705 -59.15 -27.06 -12.11 -31.15 -53.01 -51.12 -117 -111.1 -59.15 -53.01 -96.11 -146.1 -52.07 -8.022 -1.101 50.97
5.71 -59.15 -27.06 -11.01 -31.15 -49.08 -47.03 -115.1 -115.1 -59.15 -55.06 -81.01 -149.1 -55.06 1.888 -7.079 59.93
5.715 -55.06 -27.06 0 -25.01 -45.15 -41.06 -87.15 -100 -57.1 -48.13 -44.04 -125.1 -53.01 11.96 -5.034 54.9
5.72 -47.03 -19.03 8.966 -15.1 -37.12 -30.04 -52.07 -71.1 -51.12 -40.11 -6.135 -87.15 -49.08 10.85 0 33.98
5.725 -33.03 -7.079 25.96 -1.101 -23.12 -17.15 -13.06 -35.08 -35.08 -27.06 21.87 -39.01 -37.12 0 0.9438 3.933
5.73 -21.08 6.921 36.97 10.85 -11.01 -6.135 11.96 -1.101 -17.15 -18.09 45.93 0.9438 -22.02 -9.124 -5.034 -20.13
5.735 -16.04 26.9 37.91 24.85 -5.034 -2.045 23.91 23.91 -5.034 -19.03 47.98 28.94 -13.06 -29.1 -10.07 -48.13
5.74 -13.06 30.99 29.89 28 -3.146 -1.101 21.87 28 -3.146 -19.03 37.91 35.87 -9.124 -47.03 -27.06 -73.15
5.745 -8.022 32.88 21.87 29.89 1.888 0.9438 11.96 19.98 -6.135 -14 21.87 25.96 -7.079 -63.08 -48.13 -94.07
5.75 -2.045 36.97 15.89 28.94 9.91 12.9 0 3.933 -1.101 0.9438 6.921 8.966 1.888 -73.15 -78.02 -119.1
5.755 18.88 44.99 10.85 31.93 28 33.98 1.888 0 7.865 21.87 -6.135 -7.079 11.96 -78.02 -114 -149.1
5.76 37.91 48.92 11.96 38.85 51.91 48.92 0.9438 -3.146 29.89 42 -22.02 -24.07 32.88 -85.1 -150.1 -177.1
5.765 50.97 50.97 9.91 42 60.88 53.96 -1.101 -1.101 44.99 50.97 -37.12 -37.12 43.89 -89.03 -166.1 -194.1
5.77 39.96 42.94 3.933 37.91 51.91 37.91 -7.079 -5.034 45.93 37.91 -41.06 -43.1 39.96 -89.03 -151 -181.1
5.775 14.94 26.9 1.888 22.97 23.91 8.966 -13.06 -7.079 28 7.865 -37.12 -40.11 17.93 -77.08 -98 -130.1
5.78 -15.1 0.9438 -6.135 1.888 -7.079 -20.13 -21.08 -16.04 -1.101 -18.09 -21.08 -28 -6.135 -51.12 -23.12 -54.11
5.785 -47.03 -29.1 -15.1 -29.1 -41.06 -45.15 -27.06 -27.06 -31.15 -45.15 -9.124 -15.1 -37.12 -15.1 49.87 25.96
5.79 -63.08 -45.15 -24.07 -45.15 -59.15 -54.11 -32.09 -33.03 -53.01 -56 0 -1.101 -53.01 22.97 107 104
5.795 -65.12 -51.12 -32.09 -51.12 -59.15 -49.08 -39.01 -40.11 -57.1 -52.07 -10.07 15.89 -49.08 63.87 132 150.9
5.8 -55.06 -45.15 -39.01 -45.15 -45.15 -33.03 -49.08 -47.03 -49.08 -37.12 -27.06 19.98 -37.12 99.89 129.9 177.9
5.805 -39.01 -37.12 -40.11 -37.12 -27.06 -19.03 -59.15 -55.06 -35.08 -21.08 -46.09 16.99 -18.09 129 115.9 186.9
5.81 -29.1 -29.1 -37.12 -32.09 -17.15 -17.15 -68.11 -64.02 -23.12 -15.1 -58.04 1.888 -8.022 146.9 96.9 188.9
5.815 -31.15 -29.1 -31.15 -37.12 -21.08 -27.06 -79.12 -79.12 -23.12 -23.12 -61.03 -19.03 -13.06 149.9 77.87 177.9
5.82 -43.1 -33.03 -27.06 -41.06 -37.12 -47.03 -86.04 -89.03 -33.03 -42 -55.06 -49.08 -32.09 133.9 58.99 154
5.825 -61.03 -39.01 -25.01 -50.02 -57.1 -65.12 -92.02 -93.12 -53.01 -64.02 -47.03 -80.07 -58.04 95.96 26.9 113.9
5.83 -73.15 -43.1 -25.01 -47.03 -69.06 -71.1 -83.06 -91.08 -73.15 -79.12 -39.01 -103 -79.12 39.96 -11.01 51.91
5.835 -73.15 -35.08 -21.08 -33.03 -65.12 -57.1 -61.03 -70 -79.12 -74.09 -31.15 -106 -83.06 -12.11 -56 -8.022
5.84 -53.01 -15.1 -7.079 -7.079 -41.06 -23.12 -21.08 -34.13 -65.12 -46.09 -17.15 -92.02 -61.03 -60.09 -99.1 -68.11
5.845 -11.01 10.85 11.96 19.98 0.9438 19.98 21.87 5.978 -29.1 0.9438 -2.045 -57.1 -17.15 -87.15 -127.1 -107.1
5.85 33.98 50.97 37.91 58.99 45.93 65.91 74.88 58.99 17.93 53.96 21.87 -10.07 33.98 -90.13 -135.1 -126
5.855 81.96 86.99 56 90.92 87.93 98 112.9 101 71.89 98 43.89 33.98 85.89 -79.12 -127.1 -136.1
5.86 104 102.9 56 99.89 105.9 99.89 118 118 107.9 113.9 53.96 71.89 112 -65.12 -107.1 -141.1
5.865 93.91 88.88 33.98 82.9 91.87 73.93 96.9 105.9 113.9 93.91 45.93 89.98 104 -55.06 -85.1 -147.1
5.87 51.91 48.92 1.888 39.96 49.87 28 49.87 65.91 85.89 47.98 23.91 81.96 65.91 -53.01 -61.03 -149.1
5.875 -2.045 -1.101 -23.12 -7.079 0 -13.06 0.9438 11.96 35.87 0.9438 -2.045 57.89 11.96 -55.06 -33.03 -135.1
5.88 -43.1 -41.06 -37.12 -45.15 -37.12 -45.15 -43.1 -31.15 -9.124 -41.06 -11.01 28 -31.15 -49.08 -2.045 -93.12
5.885 -67.01 -61.03 -31.15 -61.03 -57.1 -59.15 -69.06 -63.08 -47.03 -61.03 -7.079 1.888 -59.15 -33.03 43.89 -23.12
5.89 -73.15 -59.15 -17.15 -57.1 -63.08 -59.15 -75.03 -73.15 -63.08 -65.12 1.888 -9.124 -67.01 -5.034 93.91 53.96
5.895 -71.1 -49.08 -5.034 -47.03 -63.08 -63.08 -73.15 -71.1 -65.12 -67.01 15.89 -17.15 -67.01 19.98 129.9 127.9
5.9 -77.08 -47.03 -5.034 -45.15 -73.15 -75.03 -71.1 -66.07 -69.06 -77.08 19.98 -25.01 -73.15 42 141.9 168
5.905 -91.08 -55.06 -17.15 -55.06 -89.03 -89.03 -71.1 -68.11 -76.13 -91.08 11.96 -32.09 -85.1 47.98 132 169.9
5.91 -103 -61.03 -27.06 -59.15 -101.1 -95.01 -63.08 -67.01 -91.08 -97.06 -2.045 -37.12 -93.12 39.96 105.9 141.9
5.915 -97.06 -49.08 -29.1 -49.08 -89.03 -81.01 -46.09 -52.07 -92.02 -81.01 -11.01 -38.07 -84 23.91 79.91 104
5.92 -66.07 -27.06 -19.03 -25.01 -56 -45.15 -26.11 -31.15 -74.09 -47.03 -21.08 -30.04 -56 9.91 56 73.93
5.925 -23.12 2.989 -7.079 1.888 -11.01 -3.146 -5.034 -9.124 -39.01 -1.101 -31.15 -25.01 -13.06 1.888 33.98 49.87
5.93 14.94 30.99 0 29.89 24.85 28 0.9438 -2.045 2.989 32.88 -39.01 -24.07 26.9 0 5.978 23.91
5.935 40.9 44.99 7.865 40.9 44.99 45.93 0.9438 2.989 39.96 54.9 -43.1 -27.06 52.85 0.9438 -25.01 -7.079
5.94 43.89 40.9 11.96 35.87 49.87 47.98 -3.146 0.9438 51.91 53.96 -41.06 -37.12 56 -9.124 -65.12 -53.01
5.945 36.97 28.94 15.89 26.9 42.94 39.96 -3.146 -5.034 47.98 44.99 -25.01 -39.01 45.93 -27.06 -95.01 -97.06
5.95 26.9 14.94 14 12.9 31.93 26.9 -5.034 -7.079 34.92 26.9 -3.146 -32.09 25.96 -47.03 -111.1 -121.1
5.955 14 0.9438 7.865 1.888 17.93 14 -2.045 -3.146 19.98 11.96 11.96 -21.08 7.865 -63.08 -111.1 -117
5.96 3.933 -3.146 1.888 -2.045 7.865 2.989 2.989 0.9438 7.865 1.888 19.98 -3.146 -1.101 -65.12 -101.1 -95.01
5.965 -1.101 -11.01 1.888 -7.079 -1.101 -2.045 7.865 0.9438 0.9438 -3.146 23.91 2.989 -5.034 -59.15 -82.11 -71.1
5.97 -11.01 -13.06 -1.101 -11.01 -9.124 -11.01 7.865 1.888 -7.079 -15.1 21.87 14 -17.15 -47.03 -67.01 -61.03
5.975 -17.15 -9.124 1.888 -5.034 -13.06 -14 14 4.876 -18.09 -20.13 28 24.85 -21.08 -38.07 -50.02 -64.02
5.98 -18.09 0.9438 2.989 1.888 -14 -9.124 20.92 14.94 -28 -23.12 37.91 32.88 -26.11 -34.13 -32.09 -80.07
5.985 -17.15 4.876 7.865 5.978 -13.06 -5.034 28 23.91 -27.06 -19.03 49.87 43.89 -25.01 -39.01 -11.01 -87.15
5.99 -7.079 8.966 11.96 11.96 -5.034 1.888 35.87 29.89 -18.09 -11.01 56.94 46.88 -15.1 -39.01 9.91 -73.15
5.995 -3.146 10.85 15.89 12.9 0 0.9438 34.92 32.88 -8.022 0.9438 50.97 44.99 -4.09 -37.12 29.89 -44.04
6 -1.101 6.921 20.92 10.85 1.888 -2.045 25.96 29.89 -1.101 5.978 35.87 32.88 1.888 -28 44.99 -3.146
6.005 -1.101 4.876 19.98 4.876 -1.101 0 10.85 16.99 6.921 5.978 16.99 16.99 6.921 -5.034 51.91 30.99
6.01 -3.146 2.989 17.93 1.888 -2.045 -6.135 -1.101 1.888 6.921 3.933 1.888 0.9438 9.91 14 56 63.87
6.015 -7.079 0.9438 7.865 -2.045 -1.101 -13.06 -19.03 -9.124 0 1.888 -13.06 -7.079 5.978 35.87 53.96 87.93
6.02 -12.11 2.989 1.888 -2.045 -2.045 -13.06 -36.02 -29.1 1.888 0 -25.01 -20.13 4.876 54.9 42.94 98.94
6.025 -13.06 -9.124 -10.07 -13.06 -3.146 -12.11 -47.03 -46.09 0 -1.101 -35.08 -42 3.933 58.99 18.88 98.94
6.03 -17.15 -17.15 -21.08 -21.08 -7.079 -11.01 -57.1 -61.03 -1.101 -2.045 -47.03 -71.1 0 53.96 -11.01 79.91
6.035 -17.15 -21.08 -24.07 -23.12 -8.022 -10.07 -59.15 -68.11 0 -3.146 -59.15 -104.1 -5.034 39.96 -50.02 51.91
6.04 -21.08 -23.12 -23.12 -24.07 -15.1 -16.04 -58.04 -67.01 -9.124 -17.15 -63.08 -133.1 -18.09 25.96 -89.03 19.98
6.045 -27.06 -19.03 -19.03 -23.12 -23.12 -25.01 -47.03 -57.1 -25.01 -33.03 -57.1 -141.1 -37.12 5.978 -111.1 -11.01
6.05 -30.04 -11.01 -15.1 -14 -27.06 -28 -31.15 -39.01 -42 -42 -43.1 -120 -47.03 -13.06 -115.1 -41.06
6.055 -28 -5.034 -9.124 -6.135 -30.04 -25.01 -11.01 -15.1 -49.08 -38.07 -23.12 -81.01 -47.03 -41.06 -105.1 -71.1
6.06 -21.08 -3.146 -5.034 -1.101 -21.08 -13.06 0.9438 0.9438 -39.01 -21.08 -7.079 -37.12 -33.03 -69.06 -93.12 -91.08
6.065 0 -1.101 -5.034 -1.101 0 5.978 8.966 10.85 -13.06 2.989 -3.146 -5.034 -8.022 -83.06 -85.1 -105.1
6.07 20.92 0.9438 -9.124 0 20.92 29.89 18.88 19.98 10.85 34.92 -2.045 8.966 22.97 -75.03 -79.12 -103
6.075 43.89 0.9438 -13.06 1.888 49.87 51.91 33.98 31.93 39.96 65.91 5.978 28 56 -39.01 -63.08 -77.08
6.08 64.97 2.989 -9.124 3.933 72.99 67.96 58.99 53.96 66.85 87.93 25.96 58.99 84.94 9.91 -35.08 -33.03
6.085 75.98 8.966 0.9438 7.865 85.89 79.91 78.97 72.99 86.99 101.9 56 94.85 104.9 63.87 1.888 9.91
6.09 75.98 14.94 9.91 9.91 85.89 77.87 84 85.89 93.91 95.96 79.91 121.9 104 91.87 37.91 47.98
6.095 59.93 12.9 15.89 7.865 67.96 57.89 65.91 76.92 90.92 71.89 85.89 118.9 84 84 61.98 63.87
6.1 29.89 0.9438 9.91 -3.146 33.98 25.96 17.93 40.9 63.87 25.96 63.87 73.93 43.89 51.91 61.98 63.87
6.105 -3.146 -21.08 -1.101 -23.12 -3.146 -9.124 -31.15 -13.06 19.98 -19.03 23.91 3.933 -3.146 9.91 51.91 53.96
6.11 -39.01 -45.15 -19.03 -45.15 -41.06 -43.1 -79.12 -67.01 -27.06 -65.12 -17.15 -57.1 -51.12 -19.03 37.91 43.89
6.115 -65.12 -63.08 -31.15 -61.03 -67.01 -67.01 -109 -107.1 -69.06 -93.12 -51.12 -101.1 -85.1 -37.12 28 33.98
6.12 -81.01 -75.03 -37.12 -73.15 -85.1 -81.01 -121.1 -123 -93.12 -105.1 -73.15 -113.1 -101.1 -41.06 21.87 25.96
6.125 -91.08 -81.01 -41.06 -79.12 -95.01 -89.03 -123 -125.1 -101.1 -107.1 -81.01 -107.1 -103 -37.12 15.89 14
6.13 -99.1 -87.15 -43.1 -85.1 -101.1 -95.01 -121.1 -119.1 -99.1 -105.1 -87.15 -95.01 -99.1 -29.1 3.933 3.933
6.135 -103 -85.1 -43.1 -85.1 -103 -97.06 -108.1 -109 -97.06 -97.06 -89.03 -85.1 -91.08 -17.15 -7.079 1.888
6.14 -97.06 -77.08 -39.01 -75.03 -93.12 -87.15 -83.06 -87.15 -91.08 -83.06 -81.01 -75.03 -77.08 -1.101 -21.08 5.978
6.145 -75.03 -53.01 -27.06 -50.02 -69.06 -61.03 -36.02 -50.02 -75.03 -55.06 -63.08 -52.07 -57.1 9.91 -29.1 9.91
6.15 -41.06 -21.08 -9.124 -18.09 -33.03 -25.01 12.9 -2.045 -47.03 -19.03 -31.15 -18.09 -29.1 15.89 -34.13 1.888
6.155 -3.146 2.989 0 5.978 -2.045 3.933 57.89 43.89 -13.06 7.865 -1.101 11.96 0.9438 7.865 -35.08 -17.15
6.16 21.87 30.99 7.865 31.93 28 31.93 85.89 78.97 15.89 31.93 17.93 38.85 19.98 -5.034 -40.11 -49.08
6.165 43.89 42.94 11.96 43.89 45.93 47.98 87.93 91.87 39.96 46.88 28 54.9 35.87 -25.01 -46.09 -73.15
6.17 57.89 48.92 15.89 45.93 59.93 59.93 81.96 89.98 51.91 56 33.98 59.93 51.91 -35.08 -53.01 -79.12
6.175 70 56.94 28 52.85 71.89 71.89 82.9 85.89 63.87 72.99 40.9 65.91 67.96 -28 -53.01 -64.02
6.18 81.96 62.92 39.96 58.99 85.89 84.94 91.87 90.92 77.87 92.97 52.85 71.89 89.98 -14 -55.06 -36.02
6.185 91.87 62.92 49.87 61.98 93.91 89.98 99.89 95.96 93.91 105.9 63.87 77.87 107.9 0 -55.06 -7.079
6.19 91.87 56.94 52.85 57.89 93.91 90.92 98.94 98 107 115 70.94 80.85 116.9 18.88 -48.13 20.92
6.195 81.96 42.94 42.94 46.88 85.89 78.97 79.91 86.99 108.9 105.9 62.92 74.88 112.9 36.97 -36.02 52.85
6.2 63.87 24.85 28 28 67.96 61.98 51.91 61.98 99.89 85.89 43.89 61.98 95.96 53.96 -17.15 79.91
6.205 43.89 12.9 16.99 14.94 49.87 44.99 26.9 36.97 82.9 59.93 25.96 46.88 72.99 71.89 0 98
6.21 23.91 6.921 6.921 2.989 28.94 20.92 14.94 17.93 56.94 30.99 7.865 35.87 42.94 73.93 28.94 98
6.215 1.888 2.989 -2.045 -1.101 0 -1.101 9.91 14 23.91 -2.045 0 23.91 9.91 57.89 56 79.91
6.22 -14 2.989 -3.146 -8.022 -24.07 -25.01 11.96 11.96 -5.034 -29.1 0 12.9 -17.15 30.99 80.85 56.94
6.225 -38.07 -11.01 -15.1 -20.13 -48.13 -44.04 0.9438 7.865 -34.13 -52.07 -7.079 0 -49.08 -2.045 99.89 39.96
6.23 -57.1 -25.01 -23.12 -29.1 -63.08 -53.01 -19.03 -9.124 -57.1 -69.06 -21.08 -19.03 -69.06 -17.15 101.9 35.87
6.235 -58.04 -31.15 -27.06 -32.09 -61.03 -47.03 -46.09 -35.08 -64.02 -68.11 -36.02 -35.08 -75.03 -16.04 98 42
6.24 -44.04 -33.03 -28 -27.06 -45.15 -29.1 -65.12 -58.04 -56 -51.12 -45.15 -43.1 -60.09 -3.146 71.89 47.98
6.245 -20.13 -21.08 -22.02 -16.04 -18.09 -5.034 -58.04 -62.13 -38.07 -28 -42 -41.06 -35.08 1.888 36.97 38.85
6.25 2.989 -1.101 -10.07 0 1.888 14 -35.08 -44.04 -14 0.9438 -21.08 -29.1 -6.135 0 0 15.89
6.255 24.85 16.99 -2.045 16.99 19.98 25.96 0.9438 -7.079 4.876 14.94 -1.101 -5.034 11.96 -10.07 -21.08 -5.034
6.26 29.89 28.94 11.96 25.96 23.91 21.87 33.98 25.96 15.89 21.87 19.98 11.96 21.87 -25.01 -37.12 -23.12
6.265 18.88 30.99 19.98 24.85 16.99 12.9 56.94 53.96 16.99 16.99 31.93 32.88 15.89 -27.06 -31.15 -19.03
6.27 0.9438 20.92 15.89 16.99 0.9438 -1.101 61.98 63.87 7.865 1.888 34.92 50.97 1.888 -10.07 -20.13 -2.045
6.275 -7.079 4.876 3.933 1.888 -5.034 -7.079 59.93 63.87 -3.146 -3.146 31.93 59.93 -7.079 9.91 -9.124 15.89
6.28 -9.124 -5.034 0 -2.045 -4.09 0 58.99 57.89 -8.022 0 29.89 70 -2.045 31.93 -6.135 33.98
6.285 3.933 -5.034 -2.045 0 5.978 16.99 56.94 54.9 -1.101 14 33.98 68.9 12.9 45.93 -13.06 31.93
6.29 35.87 2.989 1.888 3.933 33.98 45.93 56 53.96 23.91 43.89 35.87 61.98 45.93 39.96 -23.12 11.96
6.295 63.87 22.97 18.88 22.97 61.98 70.94 53.96 56.94 54.9 73.93 32.88 50.97 76.92 26.9 -32.09 -8.022
6.3 85.89 42.94 32.88 37.91 81.96 80.85 46.88 53.96 80.85 90.92 22.97 30.99 90.92 8.966 -34.13 -24.07
6.305 89.98 54.9 39.96 45.93 85.89 77.87 29.89 39.96 85.89 87.93 5.978 14 89.98 -3.146 -27.06 -25.01
6.31 79.91 54.9 29.89 48.92 71.89 60.88 14 20.92 74.88 70.94 -6.135 0 70 -18.09 -13.06 -6.135
6.315 57.89 42.94 9.91 38.85 49.87 35.87 1.888 1.888 49.87 38.85 -18.09 1.888 42 -30.04 1.888 14.94
6.32 33.98 22.97 -5.034 19.98 23.91 14 -11.01 -9.124 17.93 9.91 -25.01 5.978 14 -39.01 19.98 42
6.325 14 6.921 -19.03 5.978 1.888 -2.045 -11.01 -13.06 -1.101 -6.135 -23.12 20.92 -5.034 -31.15 44.99 63.87
6.33 3.933 0.9438 -21.08 1.888 -1.101 0.9438 1.888 -8.022 -15.1 -11.01 -11.01 34.92 -13.06 -13.06 70.94 79.91
6.335 3.933 -1.101 -13.06 0 0 5.978 17.93 5.978 -13.06 -1.101 0 47.98 -7.079 3.933 87.93 91.87
6.34 17.93 12.9 0.9438 10.85 17.93 23.91 42.94 32.88 0 17.93 17.93 62.92 7.865 21.87 94.85 99.89
6.345 35.87 24.85 5.978 22.97 39.96 45.93 56.94 54.9 25.96 43.89 28 70.94 35.87 29.89 79.91 101.9
6.35 56 34.92 9.91 31.93 61.98 61.98 59.93 63.87 53.96 63.87 31.93 70 61.98 25.96 57.89 89.98
6.355 71.89 38.85 14 35.87 73.93 71.89 52.85 59.93 71.89 75.98 29.89 59.93 77.87 17.93 33.98 71.89
6.36 81.96 40.9 21.87 42 81.96 79.91 39.96 45.93 81.96 79.91 28 43.89 84 11.96 19.98 49.87
6.365 89.98 48.92 35.87 49.87 87.93 87.93 35.87 33.98 85.89 81.96 31.93 28 84 9.91 15.89 31.93
6.37 93.91 60.88 53.96 63.87 89.98 87.93 39.96 31.93 87.93 81.96 42 15.89 79.91 7.865 17.93 19.98
6.375 89.98 68.9 61.98 70 81.96 79.91 43.89 37.91 84 71.89 47.98 1.888 71.89 5.978 9.91 11.96
6.38 70 60.88 53.96 59.93 61.98 53.96 33.98 36.97 70 47.98 42 -11.01 53.96 1.888 -7.079 0
6.385 33.98 32.88 29.89 29.89 28 15.89 5.978 15.89 42 11.96 23.91 -37.12 23.91 0 -41.06 -13.06
