    T[sec] Fp1 Fp2  F7  F3  F4  F8  T3  C3  C4  T4  T5  P3  P4  T6  O1  O2
41 253.1 253.1 253.1 253.1 253.1 253.1 253.1 253.1 253.1 253.1 253.1 253.1 253.1 253.1 253.1 253.1
0.625 15.94 0.9888 -17.06 0.9888 1.978 6.921 -28.06 -14.09 -1.112 17.92 -24.1 -1.112 9.888 36.96 11 22.99
0.63 0.9888 -1.112 -21.01 -3.09 0.9888 8.899 -26.08 -7.045 -1.112 24.97 -23.11 2.966 15.94 20.89 6.921 14.96
0.635 -1.112 -8.034 -23.11 -10.01 -7.045 16.93 -18.04 -17.06 -8.034 29.91 -29.04 -5.067 6.921 5.933 -15.08 0
0.64 5.933 -7.045 -19.03 -17.06 -13.1 23.98 -27.07 -29.04 -20.02 23.98 -43.01 -32.01 -8.034 -2.101 -65.01 -17.06
0.645 24.97 8.899 -15.08 -11 -9.022 26.94 -30.03 -23.11 -21.01 11 -53.02 -51.04 -25.09 -29.04 -111.1 -38.07
0.65 39.92 22.99 -5.067 -1.112 -2.101 24.97 -33 -18.04 -21.01 0.9888 -54.01 -68.1 -42.02 -50.06 -145.1 -69.09
0.655 49.93 22.99 0 11.99 9.888 24.97 -34.11 -8.034 -14.09 -11 -68.1 -64.02 -43.01 -67.11 -151 -72.06
0.66 49.93 31.89 4.944 18.91 23.98 33.99 -23.11 1.978 1.978 -11 -79.1 -41.03 -30.03 -89.11 -131 -62.04
0.665 52.9 33.99 3.955 31.89 39.92 46.97 -13.1 11 8.899 -6.056 -88 -28.06 -20.02 -101.1 -101.1 -61.06
0.67 63.9 39.92 7.91 35.97 45.98 53.89 -13.1 19.9 11.99 -9.022 -79.1 -9.022 -11 -99 -75.02 -48.08
0.675 73.91 59.94 18.91 40.91 53.89 55.99 0.9888 34.98 24.97 -1.112 -58.09 11 0.9888 -89.11 -33 -26.08
0.68 68.97 57.97 27.93 53.89 61.92 44.99 9.888 38.93 34.98 11 -34.11 22.99 22.99 -67.11 4.944 -7.045
0.685 48.94 31.89 19.9 47.96 45.98 28.92 5.933 31.89 33.99 18.91 -23.11 30.9 39.92 -30.03 36.96 22
0.69 17.92 13.97 0.9888 25.96 22 13.97 -2.101 17.92 31.89 33.99 -17.06 31.89 47.96 0.9888 48.94 39.92
0.695 -7.045 -11 -25.09 5.933 0.9888 1.978 -15.08 0 22 44 -21.01 15.94 41.9 27.93 42.89 34.98
0.7 -24.1 -37.08 -44 -17.06 -29.04 -1.112 -47.09 -16.07 0.9888 30.9 -34.11 1.978 20.89 44.99 24.97 34.98
0.705 -24.1 -25.09 -51.04 -37.08 -43.01 -4.079 -49.07 -36.09 -14.09 12.98 -38.07 -10.01 0 44.99 11 30.9
0.71 -12.11 -15.08 -39.06 -29.04 -35.1 -4.079 -35.1 -34.11 -22 12.98 -34.11 -14.09 -4.079 38.93 8.899 16.93
0.715 -1.112 -11 -31.02 -17.06 -29.04 0 -27.07 -28.06 -26.08 8.899 -24.1 -10.01 -8.034 29.91 2.966 11.99
0.72 13.97 0.9888 -25.09 -7.045 -15.08 -2.101 -11 -21.01 -21.01 11.99 -3.09 -3.09 0.9888 28.92 2.966 4.944
0.725 15.94 -3.09 -25.09 0 0.9888 6.921 -9.022 -7.045 -3.09 29.91 1.978 0 9.888 28.92 0.9888 5.933
0.73 9.888 -17.06 -33 -1.112 -3.09 3.955 -31.02 -11 -1.112 19.9 -19.03 -7.045 5.933 7.91 -17.06 3.955
0.735 5.933 -11 -33 -17.06 -13.1 1.978 -37.08 -27.07 -13.1 -2.101 -31.02 -23.11 -7.045 -1.112 -45.11 -9.022
0.74 9.888 -1.112 -19.03 -15.08 -10.01 4.944 -31.02 -27.07 -19.03 1.978 -31.02 -27.07 -12.11 -16.07 -63.03 -20.02
0.745 19.9 5.933 -3.09 -3.09 -8.034 2.966 -31.02 -15.08 -21.01 -1.112 -37.08 -43.01 -29.04 -34.11 -79.1 -30.03
0.75 30.9 16.93 0 -1.112 -5.067 5.933 -25.09 -11 -24.1 -3.09 -37.08 -55 -46.1 -33 -89.11 -54.01
0.755 28.92 8.899 -7.045 1.978 -1.112 3.955 -31.02 -9.022 -26.08 -7.045 -45.11 -55 -49.07 -39.06 -81.08 -56.11
0.76 28.92 0.9888 -23.11 0 0 -1.112 -49.07 -11 -26.08 -12.11 -73.04 -53.02 -54.01 -48.08 -73.04 -48.08
0.765 40.91 8.899 -19.03 -3.09 0.9888 7.91 -47.09 -23.11 -26.08 -22 -87.01 -45.11 -51.04 -47.09 -69.09 -49.07
0.77 51.91 13.97 -7.045 -1.112 5.933 17.92 -41.03 -19.03 -15.08 -15.08 -79.1 -27.07 -31.02 -47.09 -49.07 -37.08
0.775 57.97 23.98 -1.112 7.91 19.9 19.9 -39.06 -3.09 0.9888 1.978 -83.06 -19.03 -17.06 -47.09 -25.09 -24.1
0.78 55 26.94 -3.09 16.93 18.91 20.89 -39.06 0.9888 1.978 2.966 -85.03 -21.01 -16.07 -36.09 -13.1 -12.11
0.785 36.96 18.91 -15.08 8.899 11.99 9.888 -37.08 0.9888 -6.056 -2.101 -71.07 -13.1 -6.056 -33 4.944 17.92
0.79 35.97 28.92 -8.034 22 11 -1.112 -27.07 14.96 -3.09 2.966 -59.08 1.978 3.955 -34.11 26.94 31.89
0.795 45.98 39.92 3.955 35.97 17.92 7.91 -7.045 23.98 0.9888 5.933 -41.03 11.99 15.94 -13.1 33 23.98
0.8 50.92 36.96 7.91 30.9 23.98 13.97 -5.067 19.9 6.921 9.888 -13.1 15.94 12.98 0.9888 30.9 27.93
0.805 47.96 27.93 -4.079 22 20.89 12.98 -18.04 14.96 7.91 15.94 -7.045 1.978 -2.101 0.9888 22.99 7.91
0.81 31.89 2.966 -27.07 4.944 5.933 9.888 -37.08 -3.09 0.9888 1.978 -17.06 -20.02 -34.11 19.9 -3.09 -10.01
0.815 13.97 -10.01 -39.06 -23.11 -16.07 -1.112 -56.11 -34.11 -25.09 -8.034 -24.1 -47.09 -56.11 23.98 -29.04 -18.04
0.82 4.944 -7.045 -37.08 -30.03 -31.02 -5.067 -56.11 -42.02 -36.09 -3.09 -29.04 -52.03 -60.07 22 -49.07 -30.03
0.825 0.9888 -6.056 -26.08 -18.04 -32.01 -8.034 -48.08 -33 -43.01 0 -24.1 -49.07 -50.06 29.91 -57.1 -25.09
0.83 -1.112 0.9888 -17.06 -18.04 -34.11 -14.09 -34.11 -28.06 -47.09 -2.101 -7.045 -40.04 -45.11 8.899 -55 -21.01
0.835 0 3.955 -16.07 -8.034 -32.01 -14.09 -25.09 -23.11 -43.01 -1.112 1.978 -32.01 -43.01 -9.022 -57.1 -37.08
0.84 3.955 0 -15.08 -1.112 -25.09 -13.1 -17.06 -13.1 -39.06 -7.045 -13.1 -34.11 -40.04 -11 -75.02 -41.03
0.845 17.92 7.91 -4.079 -1.112 -19.03 -9.022 -16.07 -14.09 -40.04 -16.07 -31.02 -42.02 -43.01 -23.11 -91.09 -47.09
0.85 42.89 27.93 0 4.944 -9.022 0.9888 -16.07 -11 -34.11 -14.09 -33 -42.02 -44 -30.03 -103.1 -54.01
0.855 53.89 26.94 11 13.97 4.944 6.921 -7.045 1.978 -17.06 -2.101 -25.09 -29.04 -34.11 -17.06 -91.09 -39.06
0.86 40.91 25.96 17.92 14.96 11.99 11.99 0 -2.101 -12.11 0.9888 -21.01 -12.11 -22 -18.04 -67.11 -20.02
0.865 25.96 15.94 12.98 11 3.955 9.888 -4.079 -4.079 -12.11 4.944 -11 -4.079 -11 -27.07 -45.11 -1.112
0.87 19.9 -4.079 3.955 4.944 -3.09 1.978 -5.067 -3.09 -9.022 0.9888 -19.03 1.978 -4.079 -17.06 -23.11 13.97
0.875 14.96 7.91 -1.112 4.944 -6.056 0 -11 -7.045 -9.022 -13.1 -32.01 2.966 0 -23.11 -3.09 19.9
0.88 27.93 37.94 1.978 6.921 -2.101 2.966 -10.01 1.978 -1.112 -16.07 -31.02 11 9.888 -36.09 0.9888 25.96
0.885 42.89 40.91 6.921 14.96 4.944 8.899 -4.079 13.97 13.97 -6.056 -38.07 22 18.91 -35.1 12.98 25.96
0.89 36.96 37.94 0 16.93 9.888 13.97 -18.04 11 16.93 1.978 -57.1 20.89 14.96 -37.08 12.98 12.98
0.895 37.94 28.92 -11 9.888 12.98 18.91 -30.03 -1.112 11.99 11 -62.04 13.97 16.93 -27.07 2.966 8.899
0.9 37.94 11 -27.07 6.921 17.92 13.97 -31.02 3.955 19.9 29.91 -65.01 16.93 24.97 -5.067 2.966 2.966
0.905 39.92 19.9 -28.06 15.94 26.94 14.96 -36.09 8.899 27.93 27.93 -55 17.92 28.92 14.96 2.966 7.91
0.91 34.98 24.97 -27.07 16.93 31.89 15.94 -35.1 9.888 30.9 22 -37.08 7.91 24.97 22 -3.09 15.94
0.915 17.92 3.955 -27.07 7.91 11.99 5.933 -25.09 1.978 23.98 15.94 -23.11 -7.045 1.978 15.94 -15.08 -1.112
0.92 5.933 0 -20.02 -1.112 -8.034 0 -27.07 -12.11 -3.09 4.944 -1.112 -25.09 -21.01 14.96 -23.11 -11
0.925 -1.112 1.978 -15.08 -12.11 -19.03 -5.067 -19.03 -25.09 -32.01 0 11.99 -29.04 -40.04 11.99 -21.01 -9.022
0.93 -1.112 1.978 -5.067 -10.01 -20.02 -12.11 -3.09 -19.03 -44 0 15.94 -23.11 -44 1.978 -21.01 -26.08
0.935 19.9 19.9 7.91 3.955 -11 -5.067 9.888 -7.045 -41.03 -9.022 25.96 -11 -37.08 -1.112 -17.06 -30.03
0.94 39.92 44 19.9 25.96 9.888 9.888 22 9.888 -17.06 -2.101 22 0 -17.06 -13.1 -17.06 -23.11
0.945 46.97 48.94 22 44 27.93 13.97 22 23.98 4.944 11 5.933 1.978 -3.09 -29.04 -25.09 -37.08
0.95 58.96 58.96 33.99 52.9 34.98 12.98 19.9 33.99 12.98 4.944 -2.101 -2.101 1.978 -12.11 -33 -45.11
0.955 60.93 60.93 37.94 52.9 37.94 15.94 7.91 39.92 22.99 5.933 -13.1 0.9888 -1.112 -1.112 -37.08 -46.1
0.96 36.96 30.9 23.98 34.98 23.98 5.933 -13.1 17.92 16.93 1.978 -51.04 -29.04 -24.1 -3.09 -59.08 -52.03
0.965 23.98 9.888 5.933 3.955 -2.101 2.966 -25.09 -9.022 -3.09 2.966 -63.03 -53.02 -39.06 0 -75.02 -38.07
0.97 15.94 1.978 -5.067 -11 -18.04 11 -31.02 -27.07 -19.03 26.94 -63.03 -55 -40.04 -14.09 -75.02 -28.06
0.975 0 -9.022 -23.11 -21.01 -25.09 9.888 -41.03 -43.01 -29.04 35.97 -71.07 -63.03 -43.01 -33 -83.06 -38.07
0.98 5.933 -1.112 -25.09 -19.03 -25.09 5.933 -33 -39.06 -43.01 15.94 -71.07 -61.06 -39.06 -31.02 -89.11 -37.08
0.985 22 22 -3.09 0 -9.022 4.944 -17.06 -15.08 -33 7.91 -55 -39.06 -27.07 -28.06 -75.02 -29.04
0.99 27.93 31.89 9.888 17.92 0 0 -19.03 -1.112 -9.022 5.933 -51.04 -29.04 -19.03 -26.08 -63.03 -28.06
0.995 34.98 33.99 13.97 23.98 5.933 0.9888 -21.01 11 1.978 4.944 -50.06 -20.02 -14.09 -15.08 -51.04 -20.02
1 42.89 31.89 13.97 29.91 11.99 6.921 -23.11 20.89 2.966 14.96 -30.03 -6.056 -6.056 -11 -33 -9.022
1.005 28.92 17.92 3.955 22 7.91 2.966 -27.07 7.91 6.921 15.94 -8.034 -6.056 -7.045 -2.101 -21.01 -2.101
1.01 4.944 1.978 -2.101 11.99 -9.022 -5.067 -15.08 1.978 -4.079 0.9888 0 -20.02 -10.01 6.921 -19.03 0.9888
1.015 -11 -3.09 -5.067 0.9888 -31.02 -25.09 -3.09 -11 -19.03 0.9888 23.98 -25.09 -15.08 19.9 -3.09 2.966
1.02 -31.02 -13.1 -3.09 -15.08 -49.07 -35.1 0.9888 -31.02 -25.09 3.955 41.9 -27.07 -15.08 37.94 11 13.97
1.025 -55 -31.02 -15.08 -27.07 -69.09 -42.02 -5.067 -37.08 -38.07 5.933 24.97 -26.08 -29.04 52.9 14.96 13.97
1.03 -58.09 -39.06 -21.01 -37.08 -85.03 -46.1 -19.03 -44 -62.04 4.944 20.89 -28.06 -34.11 61.92 20.89 4.944
1.035 -48.08 -21.01 -8.034 -30.03 -77 -35.1 -13.1 -42.02 -68.1 16.93 33.99 -11 -22 80.96 40.91 15.94
1.04 -49.07 -15.08 -9.022 -11 -69.09 -29.04 -3.09 -27.07 -55 25.96 25.96 3.955 -7.045 83.92 60.93 26.94
1.045 -38.07 -11 -13.1 -5.067 -59.08 -20.02 -1.112 -16.07 -40.04 30.9 30.9 16.93 2.966 69.96 80.96 44
1.05 -15.08 0 -4.079 -1.112 -39.06 -13.1 -1.112 -5.067 -19.03 38.93 41.9 35.97 26.94 63.9 92.94 55.99
1.055 -2.101 11.99 0.9888 19.9 -11 1.978 9.888 12.98 -1.112 37.94 37.94 51.91 39.92 44 92.94 47.96
1.06 16.93 27.93 13.97 37.94 5.933 12.98 14.96 27.93 16.93 30.9 44 47.96 48.94 20.89 86.89 39.92
1.065 45.98 55.99 37.94 55.99 33.99 34.98 28.92 49.93 33.99 47.96 55 52.9 60.93 7.91 72.92 45.98
1.07 53.89 55.99 35.97 66.99 47.96 38.93 36.96 62.91 55.99 60.93 40.91 58.96 59.94 -2.101 48.94 34.98
1.075 47.96 37.94 15.94 55.99 39.92 33 24.97 55 63.9 56.98 23.98 45.98 52.9 -6.056 24.97 22
1.08 44 37.94 9.888 46.97 41.9 26.94 25.96 48.94 51.91 53.89 20.89 44 46.97 -8.034 8.899 16.93
1.085 34.98 31.89 9.888 47.96 39.92 18.91 35.97 46.97 46.97 35.97 29.91 45.98 35.97 -13.1 11 11.99
1.09 19.9 25.96 11 44.99 23.98 6.921 34.98 37.94 35.97 9.888 33.99 34.98 17.92 -16.07 16.93 1.978
1.095 13.97 28.92 19.9 37.94 9.888 2.966 28.92 30.9 18.91 9.888 26.94 26.94 0 -18.04 8.899 -4.079
1.1 6.921 22 14.96 36.96 6.921 -4.079 17.92 33 13.97 11 13.97 27.93 -3.09 -6.056 4.944 -6.056
1.105 0.9888 12.98 5.933 35.97 0 -10.01 2.966 33 12.98 7.91 0 26.94 1.978 2.966 2.966 0
1.11 0 15.94 8.899 42.89 7.91 -2.101 6.921 35.97 7.91 19.9 -15.08 24.97 7.91 6.921 14.96 0.9888
1.115 -1.112 11.99 0 37.94 9.888 0 5.933 36.96 16.93 27.93 -11 29.91 22 13.97 30.9 5.933
1.12 -11 -2.101 -13.1 24.97 3.955 -6.056 0.9888 24.97 25.96 31.89 -10.01 31.89 26.94 30.9 40.91 14.96
1.125 -9.022 -1.112 -17.06 15.94 1.978 -2.101 0 12.98 22 48.94 -7.045 33.99 30.9 42.89 48.94 22
1.13 -1.112 3.955 -13.1 16.93 3.955 -4.079 1.978 16.93 25.96 55 0.9888 40.91 33.99 45.98 48.94 24.97
1.135 -3.09 9.888 -1.112 29.91 3.955 -12.11 8.899 29.91 31.89 41.9 18.91 42.89 34.98 51.91 46.97 23.98
1.14 4.944 22 17.92 44 9.888 -4.079 38.93 39.92 28.92 42.89 41.9 44 33 42.89 48.94 23.98
1.145 12.98 31.89 31.89 49.93 13.97 1.978 55.99 52.9 30.9 44 61.92 51.91 31.89 29.91 48.94 19.9
1.15 7.91 19.9 30.9 40.91 11.99 0.9888 52.9 45.98 29.91 42.89 83.92 45.98 22.99 31.89 38.93 15.94
1.155 12.98 11.99 31.89 31.89 13.97 11 55.99 28.92 22.99 58.96 96.9 42.89 28.92 23.98 40.91 11.99
1.16 22 25.96 35.97 23.98 15.94 17.92 49.93 13.97 27.93 59.94 95.91 37.94 33.99 9.888 30.9 6.921
1.165 22.99 29.91 34.98 14.96 9.888 13.97 39.92 8.899 34.98 46.97 97.89 27.93 36.96 0.9888 16.93 11.99
1.17 28.92 31.89 39.92 17.92 17.92 14.96 51.91 8.899 40.91 44.99 94.92 30.9 46.97 -9.022 12.98 8.899
1.175 39.92 49.93 51.91 37.94 31.89 14.96 53.89 23.98 55 41.9 72.92 36.96 51.91 -26.08 4.944 0
1.18 45.98 53.89 63.9 49.93 35.97 17.92 55.99 44 61.92 37.94 41.9 39.92 51.91 -35.1 -7.045 -2.101
1.185 63.9 66 88 75.89 49.93 31.89 73.91 67.98 63.9 41.9 19.9 53.89 55.99 -45.11 -1.112 1.978
1.19 84.91 97.89 111 103 63.9 41.9 81.94 84.91 70.94 33 0.9888 77 56.98 -52.03 6.921 -4.079
1.195 92.94 107.9 112 110 67.98 46.97 81.94 97.89 77 29.91 -4.079 86.89 51.91 -44 16.93 -3.09
1.2 92.94 93.93 92.94 110 73.91 52.9 73.91 99 77 40.91 -18.04 84.91 52.9 -32.01 22.99 1.978
1.205 77 73.91 63.9 93.93 67.98 52.9 35.97 77 74.9 46.97 -50.06 62.91 42.89 -23.11 6.921 -1.112
1.21 49.93 39.92 25.96 51.91 45.98 47.96 0.9888 45.98 61.92 51.91 -75.02 29.91 27.93 -10.01 -13.1 -2.101
1.215 33.99 9.888 0 17.92 25.96 42.89 -17.06 17.92 44 49.93 -77 3.955 23.98 -1.112 -17.06 0.9888
1.22 22 0.9888 -7.045 0.9888 7.91 31.89 -27.07 -5.067 23.98 51.91 -57.1 -9.022 15.94 5.933 -17.06 0.9888
1.225 15.94 -9.022 -17.06 -15.08 -1.112 23.98 -17.06 -19.03 7.91 59.94 -27.07 -17.06 7.91 13.97 -17.06 -2.101
1.23 9.888 -18.04 -15.08 -16.07 -10.01 16.93 0.9888 -18.04 0 55 -5.067 -21.01 4.944 22.99 -19.03 0
1.235 -1.112 -25.09 -7.045 -20.02 -22 8.899 -3.09 -33 -12.11 44.99 1.978 -25.09 0 20.89 -25.09 -6.056
1.24 -16.07 -32.01 -8.034 -35.1 -37.08 1.978 -4.079 -52.03 -19.03 33.99 13.97 -32.01 -15.08 19.9 -27.07 -12.11
1.245 -24.1 -42.02 -14.09 -49.07 -46.1 -3.09 -2.101 -62.04 -29.04 26.94 19.9 -38.07 -16.07 27.93 -19.03 -2.101
1.25 -30.03 -48.08 -21.01 -62.04 -58.09 -8.034 -11 -76.01 -44 30.9 13.97 -43.01 -22 24.97 -9.022 -3.09
1.255 -38.07 -51.04 -26.08 -75.02 -74.03 -22 -20.02 -87.01 -56.11 28.92 3.955 -48.08 -42.02 6.921 -13.1 -13.1
1.26 -39.06 -47.09 -19.03 -71.07 -81.08 -31.02 -19.03 -85.03 -73.04 9.888 -2.101 -55 -57.1 3.955 -23.11 -19.03
1.265 -29.04 -39.06 -1.112 -55 -75.02 -23.11 -19.03 -73.04 -77 0.9888 9.888 -51.04 -59.08 -5.067 -25.09 -20.02
1.27 -22 -32.01 -1.112 -46.1 -62.04 -24.1 -13.1 -60.07 -64.02 -8.034 27.93 -51.04 -62.04 -32.01 -29.04 -23.11
1.275 -6.056 -16.07 0.9888 -29.04 -49.07 -19.03 1.978 -40.04 -55 -9.022 37.94 -38.07 -53.02 -31.02 -23.11 -17.06
1.28 5.933 -5.067 8.899 -14.09 -27.07 -4.079 6.921 -17.06 -40.04 1.978 33.99 -14.09 -29.04 -30.03 -1.112 -10.01
1.285 1.978 -7.045 5.933 -11 -19.03 -7.045 1.978 -11 -23.11 3.955 13.97 -3.09 -25.09 -39.06 0.9888 -2.101
1.29 2.966 0.9888 12.98 -7.045 -23.11 -7.045 8.899 -14.09 -27.07 1.978 9.888 -1.112 -21.01 -31.02 14.96 5.933
1.295 7.91 0 24.97 -4.079 -24.1 1.978 24.97 -13.1 -27.07 5.933 19.9 8.899 -10.01 -31.02 36.96 7.91
1.3 6.921 -6.056 20.89 -9.022 -26.08 -5.067 17.92 -18.04 -19.03 7.91 11 1.978 -16.07 -41.03 30.9 5.933
1.305 8.899 -1.112 19.9 -10.01 -26.08 -13.1 9.888 -26.08 -29.04 12.98 0.9888 -6.056 -24.1 -38.07 11 2.966
1.31 6.921 -5.067 20.89 -11 -25.09 -9.022 3.955 -20.02 -23.11 16.93 -12.11 -18.04 -23.11 -17.06 -7.045 -3.09
1.315 -9.022 -27.07 2.966 -18.04 -34.11 -20.02 -13.1 -29.04 -21.01 7.91 -43.01 -46.1 -36.09 -10.01 -43.01 -14.09
1.32 -20.02 -28.06 -19.03 -34.11 -53.02 -27.07 -30.03 -44 -45.11 0 -54.01 -76.01 -53.02 -12.11 -73.04 -25.09
1.325 -28.06 -44 -25.09 -48.08 -67.11 -18.04 -31.02 -54.01 -64.02 1.978 -42.02 -84.04 -63.03 -7.045 -73.04 -25.09
1.33 -42.02 -68.1 -36.09 -69.09 -78.11 -17.06 -50.06 -74.03 -71.07 0.9888 -40.04 -97.02 -72.06 -9.022 -67.11 -33
1.335 -50.06 -64.02 -44 -93.07 -93.07 -24.1 -65.01 -102.1 -92.08 0 -30.03 -107 -83.06 -6.056 -73.04 -37.08
1.34 -57.1 -63.03 -38.07 -101.1 -98.01 -31.02 -58.09 -108 -98.01 -4.079 -13.1 -102.1 -88 0 -63.03 -26.08
1.345 -66 -70.08 -41.03 -90.1 -101.1 -46.1 -55 -104.1 -100.1 -21.01 -12.11 -94.06 -92.08 -6.056 -57.1 -25.09
1.35 -59.08 -67.11 -54.01 -87.01 -106 -51.04 -54.01 -96.03 -106 -24.1 -17.06 -86.02 -100.1 -18.04 -49.07 -32.01
1.355 -44 -58.09 -38.07 -73.04 -93.07 -40.04 -43.01 -78.11 -100.1 -7.045 -6.056 -59.08 -87.01 -8.034 -21.01 -15.08
1.36 -34.11 -56.11 -16.07 -59.08 -76.01 -29.04 -45.11 -72.06 -85.03 9.888 2.966 -43.01 -60.07 3.955 6.921 -3.09
1.365 -28.06 -36.09 -11 -64.02 -75.02 -36.09 -45.11 -76.01 -74.03 16.93 11 -38.07 -49.07 5.933 20.89 5.933
1.37 -30.03 -22 -5.067 -64.02 -75.02 -45.11 -34.11 -74.03 -67.11 5.933 14.96 -30.03 -45.11 11 34.98 17.92
1.375 -27.07 -15.08 1.978 -50.06 -64.02 -46.1 -29.04 -65.01 -61.06 1.978 3.955 -28.06 -36.09 4.944 34.98 4.944
1.38 -10.01 0.9888 -1.112 -39.06 -51.04 -41.03 -31.02 -50.06 -52.03 0 -14.09 -42.02 -39.06 0.9888 12.98 -9.022
1.385 8.899 13.97 11.99 -18.04 -32.01 -33 -31.02 -34.11 -37.08 0 -27.07 -46.1 -32.01 -1.112 2.966 0
1.39 12.98 14.96 18.91 -1.112 -14.09 -29.04 -31.02 -18.04 -19.03 0 -40.04 -49.07 -24.1 -3.09 -9.022 -1.112
1.395 0 7.91 11 -10.01 -26.08 -41.03 -36.09 -21.01 -25.09 -3.09 -59.08 -58.09 -36.09 -21.01 -41.03 -11
1.4 -10.01 -1.112 2.966 -29.04 -47.09 -45.11 -36.09 -38.07 -35.1 -11 -61.06 -66 -47.09 -19.03 -65.01 -13.1
1.405 -17.06 -11 3.955 -37.08 -55 -43.01 -29.04 -53.02 -47.09 -2.101 -59.08 -67.11 -45.11 -15.08 -75.02 -9.022
1.41 -11 -11 18.91 -40.04 -59.08 -38.07 -20.02 -57.1 -54.01 11.99 -49.07 -78.11 -53.02 -10.01 -91.09 -12.11
1.415 -2.101 -2.101 28.92 -35.1 -61.06 -31.02 -16.07 -60.07 -55 11.99 -35.1 -84.04 -59.08 -9.022 -97.02 -11
1.42 0.9888 -1.112 29.91 -18.04 -44 -26.08 -5.067 -40.04 -54.01 11 -39.06 -73.04 -54.01 -18.04 -73.04 -3.09
1.425 5.933 5.933 35.97 -9.022 -35.1 -25.09 -1.112 -21.01 -57.1 5.933 -45.11 -59.08 -51.04 -35.1 -63.03 -8.034
1.43 7.91 13.97 35.97 -7.045 -31.02 -25.09 -7.045 -15.08 -47.09 -2.101 -37.08 -41.03 -39.06 -35.1 -47.09 -19.03
1.435 6.921 11.99 30.9 0.9888 -18.04 -30.03 1.978 -7.045 -24.1 4.944 -35.1 -20.02 -20.02 -24.1 -5.067 -3.09
1.44 0.9888 2.966 25.96 -2.101 -20.02 -32.01 -2.101 -6.056 -24.1 18.91 -19.03 -9.022 -18.04 -12.11 12.98 3.955
1.445 -6.056 -1.112 20.89 -15.08 -32.01 -35.1 0 -20.02 -29.04 20.89 5.933 -4.079 -28.06 -2.101 28.92 4.944
1.45 -10.01 -1.112 14.96 -7.045 -33 -37.08 4.944 -18.04 -31.02 17.92 19.9 6.921 -27.07 19.9 60.93 14.96
1.455 -7.045 1.978 17.92 -4.079 -28.06 -32.01 15.94 -11 -44 20.89 31.89 19.9 -22 30.9 72.92 14.96
1.46 0.9888 4.944 17.92 -4.079 -24.1 -26.08 15.94 -11 -38.07 24.97 51.91 17.92 -14.09 44.99 77 15.94
1.465 3.955 1.978 5.933 -1.112 -11 -29.04 13.97 -7.045 -25.09 23.98 53.89 11.99 -1.112 49.93 88.99 33
1.47 11.99 -1.112 -1.112 0.9888 0.9888 -23.11 3.955 -3.09 -11 35.97 49.93 3.955 5.933 44 82.93 37.94
1.475 13.97 -7.045 -13.1 -3.09 3.955 -17.06 -9.022 -7.045 0 44.99 42.89 -7.045 11.99 42.89 62.91 33
1.48 13.97 -3.09 -17.06 -5.067 7.91 -23.11 -17.06 -11 5.933 41.9 13.97 -13.1 11.99 34.98 42.89 29.91
1.485 14.96 -2.101 -17.06 -11 7.91 -20.02 -23.11 -16.07 0.9888 50.92 -10.01 -12.11 8.899 17.92 11 22
1.49 12.98 -2.101 -17.06 -23.11 0 -22 -31.02 -28.06 -2.101 44.99 -22 -20.02 -4.079 1.978 -17.06 6.921
1.495 12.98 3.955 -11 -23.11 -7.045 -26.08 -31.02 -33 -11 18.91 -34.11 -30.03 -23.11 -8.034 -41.03 -7.045
1.5 16.93 7.91 -3.09 -13.1 -5.067 -22 -24.1 -20.02 -14.09 17.92 -39.06 -37.08 -32.01 -28.06 -53.02 -23.11
1.505 11.99 -2.101 0.9888 -3.09 0.9888 -17.06 -23.11 -11 -13.1 13.97 -39.06 -49.07 -31.02 -39.06 -57.1 -20.02
1.51 9.888 -5.067 -1.112 -13.1 -3.09 -19.03 -29.04 -19.03 -17.06 3.955 -45.11 -57.1 -35.1 -45.11 -53.02 -25.09
1.515 14.96 -11 -3.09 -23.11 -3.09 -10.01 -31.02 -35.1 -25.09 20.89 -38.07 -52.03 -33 -50.06 -43.01 -21.01
1.52 16.93 -9.022 -7.045 -25.09 0 1.978 -25.09 -34.11 -14.09 33 -24.1 -34.11 -20.02 -41.03 -21.01 -7.045
1.525 23.98 -1.112 -7.045 -21.01 5.933 1.978 -16.07 -28.06 -2.101 31.89 -17.06 -15.08 -12.11 -36.09 -3.09 -5.067
1.53 25.96 1.978 -2.101 -5.067 11.99 0 -5.067 -13.1 0 47.96 -13.1 -3.09 -3.09 -31.02 4.944 -6.056
1.535 20.89 1.978 0 3.955 19.9 1.978 -5.067 0.9888 11 58.96 -8.034 8.899 6.921 -15.08 20.89 -2.101
1.54 13.97 0.9888 0.9888 -2.101 13.97 -1.112 -10.01 0 8.899 45.98 -5.067 11.99 11 0 33 2.966
1.545 11.99 -6.056 -4.079 -1.112 5.933 -3.09 -7.045 -7.045 3.955 48.94 11 18.91 17.92 11 44.99 16.93
1.55 8.899 -13.1 -19.03 3.955 18.91 1.978 1.978 -1.112 16.93 51.91 20.89 29.91 29.91 28.92 64.89 22.99
1.555 6.921 -12.11 -30.03 -2.101 17.92 1.978 0.9888 0 28.92 51.91 17.92 26.94 34.98 40.91 80.96 19.9
1.56 0 -27.07 -29.04 -19.03 2.966 -8.034 -4.079 -18.04 24.97 53.89 11.99 11 24.97 44.99 70.94 22.99
1.565 -8.034 -38.07 -32.01 -34.11 -3.09 -13.1 -21.01 -30.03 11 52.9 0.9888 0 12.98 39.92 52.9 23.98
1.57 -10.01 -30.03 -22 -42.02 -18.04 -11 -30.03 -43.01 -2.101 41.9 -4.079 -5.067 0 29.91 28.92 15.94
1.575 -1.112 -26.08 -2.101 -32.01 -19.03 -1.112 -21.01 -37.08 -7.045 44.99 -8.034 -8.034 5.933 18.91 4.944 14.96
1.58 2.966 -18.04 -2.101 -12.11 -2.101 2.966 -24.1 -11 3.955 52.9 -32.01 -10.01 19.9 6.921 -19.03 8.899
1.585 13.97 0 1.978 -4.079 11.99 1.978 -29.04 -3.09 18.91 51.91 -51.04 -20.02 19.9 1.978 -43.01 7.91
1.59 9.888 -1.112 0 -6.056 8.899 -1.112 -29.04 -10.01 22.99 49.93 -56.11 -41.03 8.899 -11 -67.11 6.921
1.595 0 -18.04 -19.03 -12.11 3.955 -2.101 -45.11 -13.1 11 44 -69.09 -56.11 -13.1 -41.03 -93.07 -17.06
1.6 1.978 -14.09 -14.09 -18.04 -5.067 6.921 -40.04 -23.11 -3.09 24.97 -62.04 -54.01 -33 -46.1 -95.04 -36.09
1.605 -1.112 -22 -4.079 -22 -17.06 5.933 -21.01 -27.07 -13.1 8.899 -50.06 -44 -43.01 -48.08 -81.08 -36.09
1.61 -10.01 -42.02 -12.11 -26.08 -22 -1.112 -20.02 -23.11 -18.04 1.978 -52.03 -40.04 -53.02 -63.03 -81.08 -55
1.615 -14.09 -38.07 -6.056 -34.11 -31.02 -11 -15.08 -34.11 -26.08 -1.112 -40.04 -28.06 -48.08 -57.1 -63.03 -48.08
1.62 -13.1 -33 -9.022 -31.02 -30.03 -12.11 -4.079 -34.11 -26.08 13.97 -25.09 -18.04 -34.11 -51.04 -27.07 -22
1.625 -22 -44 -32.01 -34.11 -23.11 -12.11 -17.06 -32.01 -24.1 31.89 -27.07 -20.02 -28.06 -52.03 -13.1 -23.11
1.63 -24.1 -41.03 -35.1 -39.06 -26.08 -18.04 -27.07 -40.04 -28.06 15.94 -31.02 -21.01 -29.04 -20.02 -3.09 -16.07
1.635 -23.11 -38.07 -26.08 -34.11 -29.04 -17.06 -25.09 -37.08 -31.02 12.98 -32.01 -20.02 -25.09 0.9888 4.944 0
1.64 -23.11 -41.03 -33 -31.02 -29.04 -13.1 -30.03 -28.06 -30.03 17.92 -33 -23.11 -24.1 0.9888 4.944 1.978
1.645 -22 -37.08 -21.01 -29.04 -31.02 -12.11 -27.07 -26.08 -28.06 14.96 -22 -14.09 -16.07 5.933 12.98 22
1.65 -17.06 -29.04 -11 -27.07 -23.11 -5.067 -3.09 -21.01 -17.06 22 -3.09 -1.112 -3.09 3.955 34.98 33
1.655 -21.01 -41.03 -21.01 -31.02 -15.08 -5.067 -6.056 -22 -4.079 27.93 1.978 -1.112 -2.101 -10.01 33 15.94
1.66 -40.04 -63.03 -35.1 -43.01 -29.04 -20.02 -29.04 -36.09 -6.056 11 -28.06 -16.07 -14.09 -19.03 8.899 7.91
1.665 -48.08 -69.09 -43.01 -51.04 -37.08 -20.02 -45.11 -45.11 -23.11 11 -56.11 -30.03 -23.11 -24.1 -23.11 1.978
1.67 -49.07 -67.11 -53.02 -55 -43.01 -15.08 -65.01 -53.02 -27.07 11.99 -65.01 -49.07 -31.02 -31.02 -59.08 -19.03
1.675 -51.04 -81.08 -65.01 -71.07 -53.02 -13.1 -81.08 -67.11 -25.09 7.91 -77 -69.09 -31.02 -27.07 -81.08 -22
1.68 -48.08 -87.01 -71.07 -81.08 -51.04 -6.056 -72.06 -76.01 -26.08 19.9 -75.02 -77 -24.1 -20.02 -85.03 -27.07
1.685 -46.1 -83.06 -73.04 -81.08 -41.03 -4.079 -65.01 -85.03 -29.04 18.91 -60.07 -76.01 -27.07 -20.02 -75.02 -23.11
1.69 -48.08 -87.01 -71.07 -73.04 -41.03 -6.056 -57.1 -78.11 -28.06 14.96 -60.07 -68.1 -26.08 -29.04 -53.02 -16.07
1.695 -46.1 -79.1 -59.08 -67.11 -39.06 -4.079 -39.06 -70.08 -32.01 14.96 -44 -56.11 -34.11 -39.06 -37.08 -23.11
1.7 -43.01 -65.01 -47.09 -61.06 -35.1 -7.045 -25.09 -65.01 -35.1 3.955 -11 -47.09 -45.11 -38.07 -21.01 -21.01
1.705 -53.02 -71.07 -45.11 -61.06 -41.03 -13.1 -17.06 -55 -33 2.966 1.978 -35.1 -47.09 -30.03 -1.112 -14.09
1.71 -65.01 -81.08 -49.07 -65.01 -45.11 -23.11 -15.08 -55 -41.03 7.91 -3.09 -27.07 -39.06 -23.11 2.966 -17.06
1.715 -59.08 -77 -53.02 -67.11 -45.11 -23.11 -17.06 -61.06 -43.01 9.888 -1.112 -17.06 -29.04 -9.022 6.921 -7.045
1.72 -49.07 -65.01 -51.04 -53.02 -32.01 -12.11 -13.1 -49.07 -31.02 14.96 -7.045 -1.112 -8.034 1.978 20.89 2.966
1.725 -39.06 -61.06 -53.02 -37.08 -15.08 -11 -11 -33 -15.08 26.94 -15.08 5.933 -1.112 -2.101 28.92 6.921
1.73 -33 -57.1 -59.08 -32.01 -8.034 -8.034 -21.01 -29.04 -2.101 23.98 -17.06 5.933 1.978 1.978 28.92 12.98
1.735 -31.02 -41.03 -47.09 -26.08 -9.022 -7.045 -23.11 -17.06 0.9888 11 -21.01 3.955 -2.101 7.91 30.9 8.899
1.74 -27.07 -37.08 -31.02 -17.06 -10.01 -14.09 -17.06 -7.045 4.944 8.899 -25.09 0 2.966 4.944 24.97 9.888
1.745 -23.11 -37.08 -19.03 -16.07 -7.045 -13.1 -11 -9.022 4.944 8.899 -21.01 -5.067 0 2.966 16.93 15.94
1.75 -17.06 -27.07 -3.09 -9.022 -1.112 -13.1 0.9888 -3.09 1.978 7.91 -9.022 -3.09 3.955 7.91 16.93 13.97
1.755 -15.08 -39.06 -7.045 -1.112 0 -17.06 1.978 0.9888 5.933 19.9 0 0 11.99 1.978 20.89 12.98
1.76 -21.01 -47.09 -21.01 -9.022 0 -18.04 -1.112 -13.1 4.944 26.94 -2.101 0.9888 14.96 0.9888 6.921 12.98
1.765 -29.04 -31.02 -19.03 -22 -8.034 -18.04 -7.045 -21.01 4.944 7.91 -2.101 -5.067 11.99 13.97 -5.067 9.888
1.77 -37.08 -29.04 -19.03 -20.02 -17.06 -23.11 -9.022 -17.06 4.944 0.9888 -1.112 -17.06 0.9888 1.978 -23.11 3.955
1.775 -43.01 -33 -21.01 -21.01 -25.09 -25.09 -15.08 -19.03 -7.045 0.9888 -17.06 -39.06 -19.03 -15.08 -53.02 -15.08
1.78 -45.11 -39.06 -23.11 -30.03 -28.06 -20.02 -25.09 -27.07 -28.06 -5.067 -27.07 -55 -43.01 -15.08 -75.02 -27.07
1.785 -43.01 -60.07 -39.06 -36.09 -33 -22 -25.09 -35.1 -35.1 -3.09 -17.06 -57.1 -54.01 -19.03 -73.04 -27.07
1.79 -34.11 -63.03 -51.04 -45.11 -37.08 -18.04 -19.03 -43.01 -38.07 5.933 -2.101 -40.04 -41.03 -11 -61.06 -33
1.795 -38.07 -62.04 -49.07 -49.07 -25.09 -14.09 -8.034 -34.11 -22 5.933 5.933 -6.056 -10.01 0 -17.06 -20.02
1.8 -50.06 -62.04 -55 -36.09 -21.01 -22 -2.101 -19.03 -3.09 4.944 22.99 19.9 9.888 0 28.92 -1.112
1.805 -65.01 -54.01 -59.08 -25.09 -23.11 -30.03 -1.112 -12.11 -1.112 11.99 25.96 31.89 14.96 -5.067 50.92 0.9888
1.81 -82.07 -74.03 -73.04 -36.09 -29.04 -39.06 -17.06 -19.03 -3.09 5.933 2.966 15.94 2.966 0.9888 56.98 6.921
1.815 -91.09 -95.04 -97.02 -58.09 -57.1 -51.04 -36.09 -44 -23.11 -5.067 -14.09 -6.056 -14.09 4.944 42.89 2.966
1.82 -90.1 -97.02 -103.1 -81.08 -75.02 -50.06 -57.1 -73.04 -44 -7.045 -32.01 -32.01 -35.1 15.94 16.93 5.933
1.825 -91.09 -102.1 -93.07 -91.09 -70.08 -41.03 -75.02 -79.1 -49.07 -3.09 -58.09 -41.03 -35.1 22.99 2.966 7.91
1.83 -83.06 -90.1 -74.03 -78.11 -61.06 -40.04 -67.11 -71.07 -48.08 -3.09 -66 -30.03 -25.09 8.899 -11 0.9888
1.835 -61.06 -58.09 -39.06 -51.04 -43.01 -27.07 -41.03 -47.09 -39.06 13.97 -46.1 -6.056 -7.045 3.955 -1.112 6.921
1.84 -49.07 -38.07 -8.034 -8.034 -7.045 -16.07 -3.09 0 -6.056 22 -18.04 22.99 17.92 12.98 18.91 14.96
1.845 -33 -18.04 5.933 17.92 0.9888 -17.06 31.89 27.93 11.99 13.97 8.899 49.93 39.92 22.99 44.99 11.99
1.85 -34.11 -11 13.97 15.94 1.978 -22 45.98 29.91 28.92 9.888 34.98 50.92 39.92 15.94 44.99 22
1.855 -49.07 -29.04 3.955 0.9888 -1.112 -35.1 28.92 18.91 35.97 0.9888 26.94 28.92 30.9 0 16.93 8.899
1.86 -46.1 -36.09 -1.112 -6.056 -5.067 -41.03 22 0 27.93 -11 12.98 9.888 22.99 -23.11 -5.067 -4.079
1.865 -43.01 -36.09 -3.09 -19.03 -3.09 -28.06 14.96 -2.101 19.9 -9.022 25.96 3.955 24.97 -27.07 -5.067 12.98
1.87 -40.04 -40.04 -3.09 -14.09 7.91 -16.07 5.933 1.978 27.93 -1.112 36.96 7.91 27.93 -13.1 6.921 15.94
1.875 -30.03 -32.01 -1.112 -1.112 11.99 -2.101 22.99 8.899 28.92 7.91 47.96 22.99 33 0.9888 33 12.98
1.88 -42.02 -37.08 -7.045 -1.112 0 -8.034 19.9 -2.101 22.99 15.94 48.94 24.97 23.98 7.91 44.99 29.91
1.885 -67.11 -60.07 -17.06 -16.07 -15.08 -32.01 0 -15.08 7.91 11.99 31.89 3.955 4.944 5.933 26.94 17.92
1.89 -63.03 -47.09 -15.08 -16.07 -24.1 -42.02 13.97 -15.08 -4.079 9.888 27.93 1.978 5.933 7.91 16.93 5.933
1.895 -61.06 -31.02 -15.08 -17.06 -19.03 -39.06 25.96 -3.09 -3.09 3.955 33.99 9.888 15.94 17.92 28.92 9.888
1.9 -63.03 -35.1 -23.11 -14.09 -7.045 -37.08 22 3.955 4.944 7.91 31.89 13.97 18.91 14.96 30.9 5.933
1.905 -55 -35.1 -23.11 1.978 1.978 -20.02 39.92 17.92 18.91 17.92 29.91 33.99 31.89 13.97 48.94 17.92
1.91 -51.04 -43.01 -31.02 0.9888 4.944 -16.07 33.99 19.9 30.9 22.99 15.94 41.9 38.93 11 60.93 30.9
1.915 -61.06 -69.09 -39.06 -21.01 -5.067 -23.11 3.955 0.9888 22 17.92 0.9888 25.96 13.97 0 44.99 11
1.92 -63.03 -67.11 -43.01 -37.08 -19.03 -19.03 0.9888 -13.1 3.955 23.98 -5.067 17.92 3.955 -2.101 38.93 9.888
1.925 -65.01 -53.02 -49.07 -36.09 -19.03 -15.08 -7.045 -17.06 0 16.93 -9.022 11.99 1.978 8.899 38.93 11.99
1.93 -67.11 -57.1 -47.09 -33 -22 -24.1 -15.08 -19.03 -6.056 4.944 -23.11 5.933 1.978 6.921 16.93 0
1.935 -57.1 -49.07 -29.04 -14.09 -1.112 -13.1 -7.045 -1.112 2.966 14.96 -19.03 19.9 22 7.91 6.921 14.96
1.94 -41.03 -37.08 -11 6.921 22.99 -4.079 1.978 22 36.96 23.98 -5.067 29.91 59.94 17.92 8.899 22.99
1.945 -39.06 -43.01 -2.101 13.97 27.93 -7.045 17.92 27.93 57.97 28.92 -2.101 25.96 64.89 20.89 -1.112 26.94
1.95 -39.06 -31.02 7.91 7.91 20.89 -2.101 33.99 22 53.89 33 15.94 19.9 52.9 20.89 0.9888 36.96
1.955 -39.06 -23.11 0 5.933 7.91 -3.09 37.94 15.94 41.9 29.91 33.99 13.97 33.99 15.94 6.921 16.93
1.96 -45.11 -35.1 -5.067 -5.067 -5.067 -7.045 29.91 0.9888 22 11.99 23.98 0 3.955 5.933 0.9888 0
1.965 -52.03 -43.01 -15.08 -21.01 -17.06 -2.101 17.92 -9.022 1.978 3.955 13.97 -1.112 -7.045 2.966 -5.067 -1.112
1.97 -57.1 -53.02 -27.07 -15.08 -19.03 -5.067 9.888 -3.09 0 7.91 22 1.978 -3.09 1.978 2.966 -15.08
1.975 -64.02 -60.07 -27.07 -19.03 -29.04 -18.04 11.99 -6.056 1.978 4.944 14.96 11 1.978 1.978 16.93 -18.04
1.98 -69.09 -56.11 -21.01 -35.1 -37.08 -24.1 9.888 -18.04 -6.056 2.966 11 6.921 1.978 7.91 24.97 -5.067
1.985 -80.09 -67.11 -31.02 -43.01 -41.03 -32.01 0.9888 -29.04 -6.056 3.955 26.94 -3.09 -5.067 0 20.89 -14.09
1.99 -95.04 -88 -51.04 -59.08 -49.07 -39.06 -19.03 -44 -14.09 -4.079 6.921 -32.01 -20.02 -8.034 2.966 -16.07
1.995 -103.1 -105.1 -65.01 -79.1 -55 -35.1 -37.08 -61.06 -33 -7.045 -19.03 -63.03 -37.08 0.9888 -29.04 -14.09
2 -93.07 -101.1 -71.07 -71.07 -53.02 -23.11 -43.01 -59.08 -41.03 11.99 -21.01 -65.01 -41.03 0.9888 -37.08 -23.11
2.005 -80.09 -79.1 -55 -55 -39.06 -6.056 -31.02 -47.09 -37.08 23.98 -30.03 -39.06 -27.07 0.9888 -29.04 -4.079
2.01 -64.02 -52.03 -29.04 -37.08 -25.09 1.978 -13.1 -26.08 -28.06 24.97 -42.02 -16.07 -12.11 5.933 -19.03 4.944
2.015 -57.1 -44 -23.11 -21.01 -21.01 0.9888 -3.09 -12.11 -10.01 22.99 -35.1 0 -10.01 -4.079 -19.03 -4.079
2.02 -59.08 -45.11 -31.02 -17.06 -17.06 -5.067 -5.067 -5.067 0.9888 7.91 -53.02 -2.101 -3.09 -13.1 -29.04 -6.056
2.025 -56.11 -44 -37.08 -21.01 -13.1 -4.079 -7.045 -4.079 -1.112 2.966 -64.02 -2.101 0.9888 5.933 -33 0
2.03 -53.02 -46.1 -43.01 -23.11 -15.08 -3.09 -13.1 -10.01 7.91 12.98 -45.11 0 6.921 19.9 -27.07 -3.09
2.035 -57.1 -41.03 -44 -23.11 -10.01 0 -8.034 -12.11 12.98 13.97 -31.02 1.978 14.96 20.89 -11 -1.112
2.04 -53.02 -31.02 -20.02 -17.06 -5.067 0 4.944 -5.067 11 11 -16.07 9.888 22 19.9 0.9888 8.899
2.045 -49.07 -20.02 0 0.9888 -6.056 -2.101 26.94 4.944 9.888 14.96 4.944 19.9 20.89 11 6.921 8.899
2.05 -44 -14.09 17.92 11.99 -1.112 0.9888 39.92 27.93 15.94 20.89 14.96 35.97 23.98 8.899 14.96 11
2.055 -27.07 -2.101 35.97 31.89 14.96 6.921 56.98 47.96 23.98 24.97 22 46.97 35.97 13.97 24.97 9.888
2.06 -21.01 -5.067 34.98 35.97 19.9 12.98 55.99 53.89 35.97 39.92 31.89 51.91 39.92 22 38.93 8.899
2.065 -35.1 -23.11 8.899 17.92 6.921 2.966 36.96 36.96 42.89 33.99 25.96 46.97 26.94 18.91 34.98 8.899
2.07 -48.08 -29.04 -3.09 0 0.9888 -10.01 22 18.91 31.89 15.94 22.99 25.96 11 4.944 26.94 1.978
2.075 -55 -39.06 -6.056 -9.022 -12.11 -19.03 13.97 1.978 9.888 6.921 26.94 8.899 0.9888 -1.112 26.94 -2.101
2.08 -60.07 -63.03 -22 -31.02 -30.03 -21.01 -1.112 -13.1 -6.056 0 22 -7.045 -8.034 -2.101 12.98 0.9888
2.085 -63.03 -69.09 -36.09 -47.09 -38.07 -21.01 -9.022 -37.08 -21.01 0 11 -34.11 -26.08 -10.01 -5.067 -10.01
2.09 -58.09 -67.11 -39.06 -65.01 -51.04 -12.11 -19.03 -58.09 -37.08 1.978 0.9888 -55 -34.11 -20.02 -25.09 -24.1
2.095 -59.08 -71.07 -44 -73.04 -56.11 -6.056 -22 -68.1 -36.09 -2.101 -11 -62.04 -44 -10.01 -55 -36.09
2.1 -61.06 -69.09 -44 -65.01 -49.07 -6.056 -25.09 -55 -29.04 -7.045 -21.01 -69.09 -51.04 -23.11 -79.1 -50.06
2.105 -53.02 -48.08 -25.09 -37.08 -40.04 -4.079 -16.07 -37.08 -37.08 -8.034 -17.06 -56.11 -49.07 -39.06 -83.06 -45.11
2.11 -46.1 -42.02 -5.067 -21.01 -38.07 -7.045 -3.09 -23.11 -35.1 -12.11 -20.02 -41.03 -47.09 -36.09 -85.03 -38.07
2.115 -49.07 -44 -17.06 -17.06 -40.04 -18.04 -8.034 -20.02 -35.1 -28.06 -40.04 -49.07 -58.09 -52.03 -97.02 -54.01
2.12 -43.01 -39.06 -18.04 -25.09 -45.11 -16.07 -20.02 -23.11 -46.1 -30.03 -54.01 -59.08 -65.01 -55 -95.04 -58.09
2.125 -35.1 -47.09 -12.11 -29.04 -32.01 -4.079 -22 -24.1 -44 -15.08 -73.04 -59.08 -56.11 -28.06 -85.03 -36.09
2.13 -41.03 -56.11 -29.04 -33 -17.06 0.9888 -37.08 -24.1 -29.04 1.978 -89.11 -60.07 -40.04 -13.1 -79.1 -23.11
2.135 -34.11 -38.07 -35.1 -37.08 -13.1 6.921 -49.07 -28.06 -24.1 16.93 -86.02 -60.07 -24.1 -5.067 -65.01 -18.04
2.14 -27.07 -27.07 -25.09 -35.1 -9.022 13.97 -37.08 -29.04 -9.022 27.93 -79.1 -41.03 0.9888 11.99 -39.06 -1.112
2.145 -45.11 -38.07 -37.08 -41.03 -21.01 1.978 -41.03 -32.01 1.978 14.96 -69.09 -32.01 0 12.98 -19.03 1.978
2.15 -58.09 -46.1 -49.07 -55 -43.01 -14.09 -49.07 -42.02 -12.11 -1.112 -48.08 -34.11 -18.04 0 -7.045 -12.11
2.155 -48.08 -53.02 -33 -47.09 -43.01 -16.07 -19.03 -43.01 -25.09 0 -30.03 -21.01 -17.06 4.944 14.96 -1.112
2.16 -45.11 -47.09 -19.03 -29.04 -31.02 -19.03 -2.101 -33 -19.03 0 -21.01 -11 -7.045 9.888 20.89 5.933
2.165 -43.01 -35.1 -23.11 -21.01 -21.01 -19.03 -1.112 -23.11 -7.045 0 -11 -19.03 -7.045 3.955 11 0
2.17 -31.02 -36.09 -19.03 -15.08 -13.1 -11 0.9888 -16.07 -2.101 2.966 -6.056 -28.06 -14.09 -1.112 -1.112 -4.079
2.175 -40.04 -43.01 -17.06 -25.09 -21.01 -20.02 -5.067 -27.07 -2.101 -1.112 -1.112 -41.03 -27.07 -4.079 -19.03 -22
2.18 -59.08 -52.03 -27.07 -43.01 -33 -30.03 -3.09 -38.07 -10.01 -6.056 20.89 -46.1 -40.04 -15.08 -25.09 -37.08
2.185 -64.02 -52.03 -21.01 -45.11 -47.09 -34.11 17.92 -40.04 -28.06 0.9888 40.91 -32.01 -42.02 -3.09 -13.1 -18.04
2.19 -67.11 -39.06 -1.112 -43.01 -57.1 -43.01 37.94 -43.01 -33 3.955 51.91 -15.08 -29.04 16.93 -9.022 -17.06
2.195 -78.11 -51.04 -15.08 -47.09 -51.04 -42.02 17.92 -35.1 -31.02 -2.101 33.99 -19.03 -23.11 24.97 -11 -24.1
2.2 -77 -71.07 -37.08 -61.06 -59.08 -33 -17.06 -49.07 -41.03 1.978 1.978 -47.09 -41.03 7.91 -33 -15.08
2.205 -69.09 -73.04 -37.08 -69.09 -67.11 -23.11 -35.1 -73.04 -53.02 -3.09 -17.06 -71.07 -53.02 -5.067 -65.01 -23.11
2.21 -72.06 -84.04 -53.02 -72.06 -58.09 -20.02 -41.03 -76.01 -52.03 -12.11 -33 -73.04 -54.01 -20.02 -77 -29.04
2.215 -71.07 -88 -69.09 -76.01 -60.07 -20.02 -47.09 -79.1 -52.03 -6.056 -39.06 -69.09 -62.04 -32.01 -83.06 -34.11
2.22 -62.04 -69.09 -56.11 -73.04 -59.08 -21.01 -40.04 -82.07 -53.02 -11 -31.02 -62.04 -61.06 -33 -81.08 -44
2.225 -63.03 -75.02 -64.02 -69.09 -46.1 -26.08 -52.03 -68.1 -49.07 -18.04 -27.07 -50.06 -46.1 -30.03 -57.1 -26.08
2.23 -66 -90.1 -82.07 -74.03 -54.01 -30.03 -77 -70.08 -48.08 -14.09 -47.09 -57.1 -50.06 -32.01 -51.04 -11
2.235 -61.06 -83.06 -80.09 -70.08 -60.07 -26.08 -74.03 -69.09 -53.02 -8.034 -69.09 -58.09 -42.02 -24.1 -49.07 -16.07
2.24 -61.06 -85.03 -85.03 -67.11 -49.07 -29.04 -73.04 -63.03 -45.11 0.9888 -89.11 -53.02 -31.02 -11 -41.03 -3.09
2.245 -65.01 -89.11 -95.04 -75.02 -43.01 -25.09 -79.1 -67.11 -33 15.94 -99 -53.02 -31.02 -7.045 -37.08 -2.101
2.25 -58.09 -74.03 -76.01 -60.07 -30.03 -16.07 -63.03 -62.04 -24.1 16.93 -79.1 -45.11 -24.1 -8.034 -21.01 -7.045
2.255 -60.07 -71.07 -68.1 -43.01 -27.07 -21.01 -46.1 -46.1 -15.08 3.955 -39.06 -18.04 -17.06 -7.045 11 -2.101
2.26 -63.03 -68.1 -65.01 -38.07 -27.07 -29.04 -28.06 -39.06 -8.034 1.978 -13.1 -2.101 -15.08 -1.112 28.92 -1.112
2.265 -57.1 -51.04 -49.07 -23.11 -25.09 -31.02 0.9888 -21.01 -9.022 0.9888 -3.09 3.955 -13.1 -5.067 30.9 0.9888
2.27 -50.06 -37.08 -40.04 -21.01 -27.07 -33 4.944 -14.09 -11 0 0.9888 -1.112 -17.06 -7.045 20.89 1.978
2.275 -52.03 -38.07 -45.11 -41.03 -35.1 -35.1 -6.056 -35.1 -16.07 5.933 -11 -22 -33 -15.08 -7.045 -17.06
2.28 -58.09 -49.07 -51.04 -41.03 -39.06 -28.06 -10.01 -46.1 -25.09 3.955 -24.1 -41.03 -41.03 -31.02 -37.08 -31.02
2.285 -64.02 -70.08 -67.11 -55 -53.02 -30.03 -23.11 -63.03 -39.06 0.9888 -27.07 -57.1 -52.03 -32.01 -53.02 -32.01
2.29 -82.07 -83.06 -72.06 -79.1 -66 -42.02 -33 -85.03 -48.08 -10.01 -26.08 -66 -59.08 -23.11 -65.01 -39.06
2.295 -84.04 -90.1 -65.01 -79.1 -59.08 -40.04 -28.06 -79.1 -57.1 -9.022 -21.01 -60.07 -53.02 -18.04 -59.08 -35.1
2.3 -73.04 -88 -55 -79.1 -59.08 -31.02 -22 -74.03 -51.04 1.978 -2.101 -54.01 -43.01 -1.112 -41.03 -21.01
2.305 -77 -84.04 -54.01 -86.02 -58.09 -34.11 -28.06 -84.04 -41.03 5.933 1.978 -56.11 -44 2.966 -37.08 -20.02
2.31 -78.11 -99 -63.03 -87.01 -55 -40.04 -26.08 -88 -38.07 0 -4.079 -61.06 -43.01 0.9888 -39.06 -17.06
2.315 -79.1 -115.1 -75.02 -108 -69.09 -43.01 -31.02 -108 -49.07 -1.112 -8.034 -75.02 -51.04 -11 -39.06 -16.07
2.32 -98.01 -117 -77 -125.1 -86.02 -57.1 -42.02 -131 -65.01 -11 -10.01 -82.07 -68.1 -19.03 -41.03 -19.03
2.325 -109 -124.1 -83.06 -125.1 -93.07 -58.09 -47.09 -128 -82.07 -11 -9.022 -83.06 -73.04 -30.03 -41.03 -11
2.33 -104.1 -125.1 -95.04 -115.1 -102.1 -53.02 -54.01 -121 -91.09 -5.067 -18.04 -84.04 -76.01 -39.06 -31.02 -12.11
2.335 -107 -123.1 -101.1 -108 -103.1 -47.09 -65.01 -116.1 -95.04 -5.067 -36.09 -81.08 -81.08 -43.01 -31.02 -20.02
2.34 -94.06 -123.1 -107 -105.1 -95.04 -36.09 -70.08 -110 -92.08 -7.045 -52.03 -79.1 -81.08 -43.01 -39.06 -23.11
2.345 -73.04 -120 -96.03 -108 -80.09 -24.1 -64.02 -108 -77 -7.045 -58.09 -76.01 -72.06 -52.03 -35.1 -18.04
2.35 -63.03 -100.1 -73.04 -95.04 -65.01 -19.03 -48.08 -92.08 -55 -1.112 -48.08 -54.01 -65.01 -53.02 -19.03 -11
2.355 -52.03 -76.01 -59.08 -83.06 -49.07 -18.04 -32.01 -75.02 -41.03 -1.112 -31.02 -38.07 -55 -46.1 -15.08 -19.03
2.36 -48.08 -57.1 -50.06 -61.06 -42.02 -28.06 -17.06 -57.1 -24.1 -2.101 -18.04 -22 -41.03 -45.11 -1.112 -23.11
2.365 -48.08 -40.04 -33 -31.02 -35.1 -32.01 -5.067 -37.08 -21.01 0.9888 -11 -1.112 -24.1 -32.01 12.98 -8.034
2.37 -42.02 -33 -21.01 -13.1 -25.09 -26.08 1.978 -12.11 -21.01 1.978 -10.01 7.91 -13.1 -15.08 2.966 -3.09
2.375 -38.07 -34.11 -11 -7.045 -17.06 -21.01 0 -5.067 -8.034 5.933 -17.06 4.944 -2.101 -11 0.9888 -5.067
2.38 -40.04 -39.06 -10.01 -5.067 -13.1 -11 -2.101 -8.034 0.9888 17.92 -23.11 -4.079 1.978 -3.09 -15.08 -3.09
2.385 -37.08 -49.07 -21.01 -23.11 -13.1 0.9888 -15.08 -25.09 -2.101 27.93 -31.02 -29.04 -3.09 -2.101 -57.1 -13.1
2.39 -39.06 -52.03 -23.11 -36.09 -15.08 -3.09 -20.02 -39.06 0 27.93 -29.04 -48.08 -11 -1.112 -75.02 -30.03
2.395 -44 -57.1 -28.06 -31.02 -13.1 -13.1 -22 -44 -7.045 25.96 -31.02 -48.08 -19.03 -11 -77 -33
2.4 -56.11 -64.02 -40.04 -36.09 -20.02 -22 -33 -40.04 -20.02 14.96 -41.03 -45.11 -30.03 -16.07 -83.06 -29.04
2.405 -73.04 -75.02 -53.02 -49.07 -37.08 -41.03 -39.06 -51.04 -31.02 0.9888 -47.09 -45.11 -39.06 -19.03 -71.07 -28.06
2.41 -81.08 -83.06 -69.09 -57.1 -49.07 -45.11 -47.09 -61.06 -37.08 -7.045 -47.09 -43.01 -41.03 -9.022 -57.1 -29.04
2.415 -77 -85.03 -74.03 -58.09 -52.03 -34.11 -60.07 -63.03 -43.01 -4.079 -43.01 -44 -36.09 -6.056 -43.01 -16.07
2.42 -68.1 -82.07 -68.1 -64.02 -50.06 -30.03 -53.02 -66 -42.02 0 -27.07 -41.03 -28.06 -6.056 -19.03 0.9888
2.425 -65.01 -87.01 -72.06 -69.09 -46.1 -30.03 -48.08 -70.08 -35.1 1.978 -21.01 -38.07 -24.1 -14.09 -1.112 4.944
2.43 -66 -85.03 -78.11 -65.01 -51.04 -29.04 -62.04 -68.1 -27.07 -3.09 -35.1 -38.07 -27.07 -31.02 -3.09 12.98
2.435 -51.04 -78.11 -79.1 -64.02 -38.07 -22 -55 -65.01 -28.06 -4.079 -41.03 -35.1 -26.08 -30.03 -5.067 2.966
2.44 -26.08 -58.09 -67.11 -40.04 -14.09 -8.034 -53.02 -42.02 -10.01 2.966 -39.06 -23.11 -16.07 -26.08 -7.045 -1.112
2.445 -5.067 -25.09 -45.11 -5.067 5.933 -1.112 -53.02 -11 0 7.91 -35.1 -9.022 0.9888 -29.04 -5.067 6.921
2.45 -2.101 -9.022 -31.02 1.978 19.9 -5.067 -29.04 1.978 9.888 11.99 -23.11 0.9888 5.933 -31.02 -1.112 5.933
2.455 -7.045 -21.01 -31.02 0.9888 13.97 -15.08 -23.11 -2.101 15.94 5.933 -35.1 0.9888 5.933 -42.02 -1.112 0
2.46 -19.03 -33 -33 -7.045 -2.101 -21.01 -31.02 -11 11.99 -2.101 -57.1 -3.09 1.978 -53.02 -11 -1.112
2.465 -22 -49.07 -45.11 -17.06 0.9888 -16.07 -29.04 -19.03 8.899 6.921 -62.04 -6.056 2.966 -46.1 -17.06 -3.09
2.47 -26.08 -53.02 -53.02 -23.11 0.9888 -18.04 -45.11 -19.03 11 11 -70.08 -12.11 -1.112 -43.01 -23.11 -15.08
2.475 -32.01 -33 -47.09 -17.06 -7.045 -22 -57.1 -19.03 5.933 0.9888 -72.06 -19.03 -5.067 -42.02 -35.1 -24.1
2.48 -38.07 -27.07 -49.07 -23.11 -11 -26.08 -49.07 -22 1.978 2.966 -53.02 -20.02 -18.04 -29.04 -35.1 -27.07
2.485 -47.09 -41.03 -51.04 -35.1 -19.03 -31.02 -53.02 -35.1 -9.022 0 -55 -31.02 -29.04 -29.04 -47.09 -23.11
2.49 -49.07 -45.11 -45.11 -39.06 -35.1 -31.02 -43.01 -47.09 -21.01 -2.101 -51.04 -39.06 -37.08 -15.08 -57.1 -23.11
2.495 -54.01 -61.06 -49.07 -39.06 -37.08 -32.01 -29.04 -47.09 -27.07 12.98 -26.08 -39.06 -35.1 0.9888 -49.07 -26.08
2.5 -70.08 -77 -63.03 -43.01 -43.01 -44 -35.1 -47.09 -30.03 16.93 -28.06 -42.02 -36.09 6.921 -43.01 -23.11
2.505 -86.02 -77 -71.07 -55 -53.02 -59.08 -41.03 -52.03 -42.02 1.978 -27.07 -48.08 -48.08 7.91 -39.06 -19.03
2.51 -89.11 -81.08 -75.02 -57.1 -55 -61.06 -37.08 -57.1 -53.02 0.9888 -5.067 -45.11 -51.04 9.888 -31.02 -22
2.515 -86.02 -87.01 -73.04 -63.03 -59.08 -58.09 -43.01 -59.08 -52.03 1.978 -6.056 -44 -52.03 4.944 -29.04 -30.03
2.52 -73.04 -79.1 -57.1 -67.11 -65.01 -47.09 -39.06 -64.02 -52.03 1.978 -21.01 -46.1 -50.06 6.921 -33 -33
2.525 -62.04 -70.08 -46.1 -59.08 -56.11 -35.1 -24.1 -59.08 -44 3.955 -8.034 -37.08 -33 18.91 -15.08 -21.01
2.53 -62.04 -72.06 -53.02 -55 -50.06 -30.03 -26.08 -49.07 -33 11.99 -23.11 -29.04 -22 14.96 0.9888 -6.056
2.535 -59.08 -68.1 -60.07 -57.1 -44 -26.08 -36.09 -51.04 -28.06 14.96 -38.07 -24.1 -14.09 0.9888 -1.112 -2.101
2.54 -44 -59.08 -53.02 -40.04 -30.03 -12.11 -27.07 -38.07 -14.09 26.94 -18.04 -5.067 5.933 -4.079 12.98 9.888
2.545 -37.08 -54.01 -42.02 -19.03 -18.04 -5.067 -16.07 -17.06 3.955 35.97 -18.04 6.921 24.97 -31.02 26.94 17.92
2.55 -31.02 -37.08 -24.1 -2.101 -3.09 0.9888 -5.067 -2.101 22 31.89 -15.08 22.99 34.98 -49.07 22.99 11.99
2.555 -10.01 -8.034 -2.101 13.97 11 3.955 12.98 13.97 24.97 27.93 2.966 44 49.93 -48.08 36.96 14.96
2.56 -5.067 0.9888 0 27.93 23.98 11 22 33 34.98 33 0.9888 51.91 51.91 -55 36.96 11
2.565 -1.112 -2.101 4.944 28.92 30.9 16.93 7.91 31.89 40.91 39.92 -12.11 40.91 36.96 -54.01 8.899 1.978
2.57 4.944 2.966 11.99 31.89 36.96 20.89 5.933 30.9 45.98 38.93 -29.04 23.98 31.89 -43.01 -9.022 -7.045
2.575 1.978 -5.067 -1.112 30.9 38.93 14.96 -5.067 27.93 50.92 27.93 -56.11 0.9888 18.91 -56.11 -47.09 -29.04
2.58 0 -13.1 -9.022 22 35.97 11 -33 14.96 40.91 14.96 -76.01 -19.03 0 -53.02 -83.06 -50.06
2.585 -1.112 -2.101 -12.11 13.97 30.9 7.91 -42.02 1.978 22.99 13.97 -76.01 -31.02 -3.09 -28.06 -93.07 -40.04
2.59 -19.03 -15.08 -30.03 -1.112 17.92 -3.09 -53.02 -2.101 11.99 17.92 -78.11 -44 -16.07 -17.06 -105.1 -37.08
2.595 -39.06 -34.11 -44 -15.08 -4.079 -19.03 -66 -13.1 -3.09 19.9 -70.08 -44 -28.06 -2.101 -101.1 -37.08
2.6 -52.03 -43.01 -45.11 -24.1 -28.06 -38.07 -51.04 -22 -16.07 11 -52.03 -35.1 -25.09 26.94 -77 -19.03
2.605 -75.02 -68.1 -62.04 -39.06 -46.1 -60.07 -42.02 -29.04 -28.06 -2.101 -44 -42.02 -36.09 20.89 -61.06 -18.04
2.61 -78.11 -88 -65.01 -55 -64.02 -64.02 -44 -53.02 -47.09 -9.022 -19.03 -53.02 -50.06 14.96 -43.01 -24.1
2.615 -70.08 -86.02 -52.03 -69.09 -70.08 -55 -34.11 -77 -58.09 -9.022 0 -47.09 -51.04 26.94 -17.06 -17.06
2.62 -75.02 -97.02 -61.06 -81.08 -71.07 -53.02 -35.1 -92.08 -58.09 -11 -3.09 -52.03 -64.02 8.899 -3.09 -11
2.625 -70.08 -93.07 -55 -83.06 -79.1 -44 -27.07 -97.02 -66 -8.034 12.98 -46.1 -68.1 -6.056 2.966 -12.11
2.63 -67.11 -71.07 -39.06 -69.09 -77 -37.08 -5.067 -85.03 -69.09 -9.022 27.93 -23.11 -57.1 -3.09 30.9 -12.11
2.635 -66 -63.03 -37.08 -51.04 -65.01 -33 -5.067 -64.02 -56.11 -9.022 15.94 -12.11 -40.04 -13.1 34.98 -17.06
2.64 -50.06 -51.04 -33 -35.1 -53.02 -24.1 -9.022 -51.04 -44 0.9888 6.921 -16.07 -26.08 -14.09 20.89 -19.03
2.645 -42.02 -43.01 -35.1 -29.04 -37.08 -14.09 -13.1 -41.03 -29.04 12.98 1.978 -13.1 -9.022 -10.01 12.98 -6.056
2.65 -47.09 -43.01 -43.01 -23.11 -27.07 -13.1 -21.01 -37.08 -7.045 15.94 -23.11 -15.08 -3.09 -31.02 0.9888 -4.079
2.655 -33 -33 -29.04 -11 -19.03 -1.112 -9.022 -25.09 -3.09 22 -15.08 -9.022 0.9888 -53.02 -17.06 -9.022
2.66 -18.04 -21.01 -13.1 0 -1.112 4.944 0 1.978 6.921 24.97 -1.112 8.899 12.98 -57.1 -15.08 -5.067
2.665 -6.056 -5.067 -3.09 22 13.97 11 0 22 25.96 20.89 -26.08 22 23.98 -68.1 -25.09 -8.034
2.67 8.899 3.955 -2.101 35.97 23.98 8.899 -3.09 37.94 36.96 20.89 -52.03 16.93 22.99 -65.01 -51.04 -13.1
2.675 1.978 -3.09 -11 29.91 22 -1.112 -15.08 37.94 38.93 18.91 -68.1 8.899 16.93 -50.06 -67.11 -17.06
2.68 -21.01 -13.1 -19.03 27.93 9.888 -9.022 -13.1 29.91 31.89 9.888 -77 1.978 15.94 -31.02 -59.08 -18.04
2.685 -31.02 -27.07 -9.022 27.93 -3.09 -25.09 -1.112 22 13.97 9.888 -59.08 5.933 11.99 -4.079 -47.09 -13.1
2.69 -49.07 -53.02 -17.06 9.888 -15.08 -39.06 0.9888 11.99 5.933 13.97 -41.03 5.933 5.933 7.91 -27.07 -13.1
2.695 -69.09 -57.1 -27.07 -9.022 -33 -49.07 -5.067 -5.067 -2.101 11.99 -41.03 -2.101 -2.101 11.99 -15.08 -15.08
2.7 -69.09 -49.07 -29.04 -35.1 -48.08 -52.03 -17.06 -33 -17.06 8.899 -35.1 -13.1 -10.01 22.99 -19.03 -16.07
2.705 -71.07 -49.07 -39.06 -51.04 -51.04 -45.11 -21.01 -45.11 -27.07 6.921 -21.01 -17.06 -16.07 33 -7.045 -4.079
2.71 -75.02 -45.11 -39.06 -38.07 -48.08 -36.09 -7.045 -37.08 -24.1 1.978 0.9888 -7.045 -9.022 35.97 14.96 4.944
2.715 -69.09 -49.07 -41.03 -36.09 -49.07 -35.1 -8.034 -35.1 -30.03 -2.101 11.99 -7.045 -15.08 42.89 26.94 1.978
2.72 -71.07 -75.02 -59.08 -49.07 -54.01 -36.09 -25.09 -45.11 -32.01 6.921 7.91 -11 -24.1 41.9 33 3.955
2.725 -77 -87.01 -75.02 -60.07 -55 -35.1 -34.11 -61.06 -34.11 12.98 1.978 -19.03 -26.08 33 34.98 22
2.73 -61.06 -79.1 -75.02 -65.01 -49.07 -31.02 -39.06 -69.09 -37.08 11.99 7.91 -13.1 -9.022 41.9 42.89 22.99
2.735 -39.06 -59.08 -55 -43.01 -21.01 -19.03 -21.01 -49.07 -11 13.97 11.99 11.99 15.94 45.98 66.99 26.94
2.74 -27.07 -41.03 -37.08 -11 0.9888 -10.01 -1.112 -17.06 14.96 12.98 19.9 31.89 36.96 28.92 74.9 38.93
2.745 -33 -37.08 -43.01 -6.056 0.9888 -12.11 -13.1 -9.022 26.94 1.978 19.9 22 31.89 14.96 50.92 13.97
2.75 -41.03 -44 -55 -18.04 -9.022 -23.11 -30.03 -13.1 22.99 -4.079 -1.112 1.978 0.9888 -3.09 18.91 -7.045
2.755 -47.09 -61.06 -67.11 -25.09 -23.11 -29.04 -35.1 -19.03 1.978 -15.08 -15.08 -9.022 -19.03 -19.03 -5.067 -13.1
2.76 -43.01 -57.1 -71.07 -30.03 -26.08 -26.08 -37.08 -27.07 -8.034 -11 -11 -11 -9.022 -10.01 -9.022 -27.07
2.765 -31.02 -32.01 -43.01 -26.08 -17.06 -23.11 -24.1 -23.11 1.978 -3.09 -15.08 -2.101 0.9888 -18.04 -1.112 -21.01
2.77 -30.03 -29.04 -20.02 -16.07 -9.022 -25.09 -12.11 -17.06 2.966 -3.09 -13.1 3.955 0.9888 -40.04 -13.1 -16.07
2.775 -40.04 -33 -28.06 -17.06 -14.09 -26.08 -23.11 -25.09 -1.112 -8.034 -15.08 0.9888 -2.101 -47.09 -27.07 -40.04
2.78 -36.09 -25.09 -22 -21.01 -21.01 -27.07 -23.11 -29.04 0.9888 -21.01 -29.04 -5.067 -24.1 -61.06 -43.01 -43.01
2.785 -37.08 -35.1 -17.06 -13.1 -25.09 -33 -11 -23.11 -8.034 -29.04 -29.04 -3.09 -41.03 -63.03 -57.1 -40.04
2.79 -44 -40.04 -16.07 -10.01 -29.04 -31.02 -13.1 -23.11 -21.01 -24.1 -21.01 -9.022 -39.06 -40.04 -51.04 -50.06
2.795 -53.02 -30.03 -3.09 -20.02 -37.08 -41.03 -9.022 -27.07 -30.03 -29.04 -21.01 -15.08 -42.02 -22 -41.03 -36.09
2.8 -72.06 -35.1 0.9888 -20.02 -43.01 -51.04 2.966 -27.07 -40.04 -29.04 -13.1 -21.01 -38.07 1.978 -29.04 -20.02
2.805 -79.1 -44 -5.067 -19.03 -44 -50.06 14.96 -27.07 -43.01 -22 -5.067 -15.08 -20.02 25.96 2.966 0
2.81 -73.04 -38.07 -9.022 -29.04 -46.1 -50.06 11.99 -33 -35.1 -20.02 -8.034 -2.101 -7.045 42.89 24.97 15.94
2.815 -66 -39.06 -7.045 -27.07 -41.03 -52.03 9.888 -26.08 -26.08 -11 1.978 5.933 1.978 55 42.89 17.92
2.82 -63.03 -52.03 -11 -23.11 -40.04 -48.08 0.9888 -27.07 -19.03 -6.056 -1.112 6.921 7.91 62.91 56.98 19.9
2.825 -65.01 -50.06 -15.08 -33 -48.08 -54.01 -18.04 -37.08 -17.06 -10.01 -3.09 -2.101 2.966 66 46.97 26.94
2.83 -64.02 -43.01 -6.056 -22 -37.08 -55 -10.01 -33 -14.09 -7.045 9.888 3.955 6.921 68.97 40.91 20.89
2.835 -57.1 -38.07 -1.112 -10.01 -27.07 -47.09 5.933 -17.06 -4.079 -7.045 27.93 19.9 16.93 66.99 55 22.99
2.84 -62.04 -42.02 -8.034 -14.09 -21.01 -41.03 5.933 -15.08 1.978 -4.079 27.93 27.93 15.94 62.91 55 24.97
2.845 -63.03 -39.06 -11 -11 -19.03 -37.08 7.91 -7.045 1.978 1.978 39.92 31.89 11.99 57.97 58.96 28.92
2.85 -64.02 -47.09 -14.09 -13.1 -31.02 -39.06 3.955 -5.067 -2.101 0 31.89 22 8.899 44 55 34.98
2.855 -88 -69.09 -34.11 -31.02 -50.06 -48.08 -21.01 -29.04 -8.034 2.966 3.955 -2.101 1.978 39.92 24.97 20.89
2.86 -92.08 -75.02 -52.03 -40.04 -55 -47.09 -42.02 -45.11 -20.02 15.94 -3.09 -21.01 -1.112 38.93 0.9888 6.921
2.865 -77 -70.08 -43.01 -54.01 -49.07 -39.06 -38.07 -51.04 -11 1.978 -5.067 -43.01 1.978 20.89 -31.02 1.978
2.87 -65.01 -67.11 -25.09 -62.04 -42.02 -26.08 -33 -61.06 -12.11 -9.022 -9.022 -63.03 -15.08 -3.09 -73.04 -13.1
2.875 -41.03 -41.03 5.933 -45.11 -27.07 -9.022 -3.09 -53.02 -13.1 -11 -2.101 -61.06 -21.01 -29.04 -87.01 -31.02
2.88 -23.11 -18.04 41.9 -20.02 -11 -5.067 30.9 -33 -6.056 -30.03 15.94 -45.11 -24.1 -61.06 -77 -31.02
2.885 -39.06 -33 44 -4.079 -18.04 -16.07 41.9 -25.09 -14.09 -39.06 13.97 -29.04 -35.1 -70.08 -57.1 -39.06
2.89 -55 -37.08 25.96 -3.09 -28.06 -22 39.92 -21.01 -26.08 -40.04 11.99 -13.1 -38.07 -58.09 -19.03 -46.1
2.895 -61.06 -33 13.97 -23.11 -39.06 -29.04 31.89 -23.11 -33 -57.1 11.99 -7.045 -39.06 -43.01 11 -30.03
2.9 -67.11 -39.06 1.978 -37.08 -45.11 -41.03 17.92 -33 -39.06 -57.1 7.91 -3.09 -33 -21.01 34.98 -16.07
2.905 -67.11 -39.06 -5.067 -32.01 -37.08 -35.1 4.944 -41.03 -32.01 -44 3.955 1.978 -14.09 -1.112 52.9 -1.112
2.91 -59.08 -43.01 -7.045 -31.02 -32.01 -30.03 -3.09 -39.06 -20.02 -48.08 3.955 0.9888 -6.056 11.99 44.99 11.99
2.915 -53.02 -55 -9.022 -28.06 -35.1 -27.07 -12.11 -37.08 -18.04 -43.01 9.888 -7.045 -11 14.96 33 3.955
2.92 -53.02 -47.09 -1.112 -26.08 -36.09 -24.1 -11 -37.08 -18.04 -41.03 5.933 -21.01 -13.1 17.92 20.89 0.9888
2.925 -59.08 -39.06 0 -31.02 -43.01 -31.02 -5.067 -33 -23.11 -48.08 11.99 -31.02 -24.1 16.93 6.921 8.899
2.93 -65.01 -41.03 5.933 -31.02 -46.1 -42.02 1.978 -25.09 -39.06 -40.04 22 -19.03 -24.1 22.99 16.93 4.944
2.935 -83.06 -53.02 -3.09 -29.04 -45.11 -47.09 11.99 -27.07 -39.06 -39.06 19.9 -3.09 -15.08 31.89 34.98 0.9888
2.94 -99 -75.02 -29.04 -53.02 -59.08 -45.11 0 -47.09 -37.08 -51.04 13.97 -13.1 -21.01 31.89 26.94 9.888
2.945 -100.1 -95.04 -49.07 -77 -71.07 -40.04 -7.045 -69.09 -45.11 -47.09 11.99 -23.11 -25.09 33 20.89 8.899
2.95 -103.1 -97.02 -59.08 -89.11 -73.04 -43.01 -25.09 -87.01 -49.07 -47.09 0 -39.06 -29.04 31.89 12.98 9.888
2.955 -102.1 -93.07 -59.08 -95.04 -87.01 -50.06 -35.1 -95.04 -58.09 -54.01 -4.079 -54.01 -45.11 26.94 -5.067 8.899
2.96 -83.06 -77 -41.03 -73.04 -83.06 -42.02 -21.01 -76.01 -66 -42.02 -6.056 -40.04 -39.06 29.91 -1.112 -2.101
2.965 -72.06 -59.08 -19.03 -37.08 -59.08 -32.01 -11 -45.11 -52.03 -36.09 -17.06 -25.09 -33 18.91 0.9888 1.978
2.97 -67.11 -54.01 -3.09 -27.07 -53.02 -21.01 -11 -34.11 -40.04 -48.08 -36.09 -30.03 -46.1 -9.022 -29.04 -3.09
2.975 -55 -47.09 0 -27.07 -47.09 -19.03 -15.08 -33 -39.06 -57.1 -51.04 -35.1 -53.02 -31.02 -59.08 -36.09
2.98 -45.11 -33 -2.101 -19.03 -35.1 -27.07 -21.01 -29.04 -41.03 -59.08 -57.1 -49.07 -63.03 -51.04 -87.01 -47.09
2.985 -52.03 -29.04 -1.112 -27.07 -45.11 -38.07 -17.06 -41.03 -51.04 -75.02 -51.04 -71.07 -85.03 -76.01 -121 -59.08
2.99 -52.03 -19.03 -3.09 -27.07 -57.1 -40.04 -3.09 -47.09 -58.09 -80.09 -30.03 -68.1 -87.01 -69.09 -123.1 -82.07
2.995 -55 -14.09 0.9888 -15.08 -51.04 -39.06 1.978 -30.03 -54.01 -64.02 -8.034 -48.08 -72.06 -63.03 -91.09 -63.03
3 -65.01 -27.07 9.888 -13.1 -53.02 -43.01 13.97 -19.03 -49.07 -55 0.9888 -29.04 -61.06 -53.02 -61.06 -34.11
3.005 -70.08 -37.08 3.955 -17.06 -59.08 -42.02 17.92 -19.03 -46.1 -58.09 2.966 -8.034 -41.03 -23.11 -25.09 -26.08
3.01 -67.11 -50.06 -2.101 -13.1 -51.04 -45.11 15.94 -10.01 -43.01 -48.08 8.899 -1.112 -22 -14.09 11 -8.034
3.015 -63.03 -63.03 0 -24.1 -46.1 -40.04 13.97 -26.08 -38.07 -54.01 12.98 0 -19.03 -16.07 26.94 1.978
3.02 -49.07 -45.11 4.944 -38.07 -48.08 -21.01 11 -48.08 -32.01 -69.09 22 -5.067 -15.08 0.9888 28.92 -3.09
3.025 -35.1 -25.09 13.97 -27.07 -31.02 -5.067 7.91 -43.01 -21.01 -51.04 25.96 -1.112 -9.022 2.966 42.89 12.98
3.03 -28.06 -14.09 25.96 -15.08 -17.06 -8.034 8.899 -27.07 -9.022 -36.09 19.9 8.899 -4.079 7.91 40.91 33
3.035 -25.09 -3.09 18.91 -11 -21.01 -8.034 3.955 -9.022 -7.045 -30.03 18.91 3.955 1.978 28.92 24.97 8.899
3.04 -35.1 -19.03 0 -1.112 -14.09 -11 0 3.955 -3.09 -18.04 11 1.978 -1.112 24.97 16.93 1.978
3.045 -35.1 -23.11 11.99 -1.112 -14.09 -18.04 -5.067 6.921 -4.079 -8.034 6.921 0 7.91 28.92 0.9888 12.98
3.05 -32.01 -6.056 18.91 -3.09 -15.08 -10.01 -5.067 1.978 0.9888 -5.067 13.97 -10.01 14.96 47.96 -5.067 9.888
3.055 -43.01 -18.04 14.96 1.978 -10.01 -17.06 -3.09 -2.101 6.921 -7.045 5.933 -14.09 13.97 36.96 0.9888 5.933
3.06 -64.02 -37.08 11.99 -11 -28.06 -38.07 -1.112 -19.03 -2.101 -16.07 -1.112 -25.09 0 29.91 -5.067 16.93
3.065 -71.07 -44 0.9888 -28.06 -50.06 -49.07 1.978 -34.11 -26.08 -41.03 0.9888 -32.01 -27.07 22.99 -9.022 -2.101
3.07 -78.11 -58.09 -4.079 -29.04 -67.11 -58.09 -2.101 -36.09 -47.09 -59.08 3.955 -28.06 -54.01 -5.067 -11 -19.03
3.075 -69.09 -41.03 3.955 -30.03 -64.02 -58.09 15.94 -32.01 -60.07 -62.04 24.97 -12.11 -59.08 -18.04 -9.022 -12.11
3.08 -43.01 0.9888 17.92 -20.02 -44 -39.06 33 -23.11 -53.02 -54.01 52.9 5.933 -42.02 -14.09 6.921 -4.079
3.085 -33 1.978 20.89 0.9888 -23.11 -26.08 29.91 -7.045 -29.04 -42.02 56.98 15.94 -27.07 -30.03 24.97 -6.056
3.09 -36.09 -4.079 22 0.9888 -19.03 -28.06 22.99 -9.022 -15.08 -30.03 37.94 12.98 -16.07 -27.07 28.92 1.978
3.095 -25.09 0 22 -3.09 -17.06 -17.06 5.933 -13.1 -13.1 -17.06 23.98 11 -5.067 -12.11 28.92 0.9888
3.1 0.9888 15.94 30.9 11 -1.112 0 4.944 0 0.9888 -3.09 17.92 17.92 15.94 -3.09 30.9 1.978
3.105 13.97 29.91 53.89 22.99 22.99 11 22 12.98 30.9 11 16.93 26.94 47.96 8.899 36.96 16.93
3.11 19.9 38.93 55 31.89 35.97 13.97 25.96 26.94 55.99 8.899 18.91 36.96 58.96 18.91 42.89 26.94
3.115 0.9888 27.93 44 33.99 27.93 0.9888 19.9 27.93 52.9 -1.112 16.93 28.92 44 13.97 33 8.899
3.12 -27.07 0 31.89 11.99 0.9888 -17.06 11.99 7.91 25.96 -7.045 7.91 3.955 13.97 5.933 8.899 0.9888
3.125 -41.03 -6.056 18.91 -3.09 -27.07 -29.04 1.978 -12.11 0 -26.08 11 -4.079 -8.034 5.933 0.9888 11.99
3.13 -22 1.978 25.96 -5.067 -27.07 -14.09 13.97 -19.03 -18.04 -22 33 -1.112 0.9888 19.9 4.944 4.944
3.135 -1.112 13.97 45.98 1.978 -5.067 -1.112 47.96 -3.09 0 -1.112 47.96 23.98 22 36.96 26.94 9.888
3.14 0 11.99 37.94 11.99 13.97 1.978 49.93 13.97 19.9 1.978 44 35.97 29.91 37.94 36.96 22
3.145 -15.08 3.955 25.96 5.933 11.99 -3.09 29.91 9.888 25.96 7.91 29.91 22 22 39.92 22.99 12.98
3.15 -35.1 -10.01 22 -7.045 -3.09 -15.08 15.94 -6.056 14.96 11 16.93 -1.112 0.9888 37.94 -1.112 0
3.155 -52.03 -33 7.91 -25.09 -25.09 -30.03 -1.112 -27.07 -4.079 -2.101 17.92 -17.06 -19.03 26.94 -7.045 -1.112
3.16 -49.07 -33 9.888 -33 -35.1 -32.01 0 -38.07 -22 -12.11 36.96 -16.07 -21.01 19.9 -1.112 -2.101
3.165 -32.01 -15.08 33.99 -13.1 -27.07 -26.08 33.99 -25.09 -24.1 -10.01 46.97 0 -13.1 8.899 11 -4.079
3.17 -37.08 0 45.98 7.91 -13.1 -25.09 47.96 -2.101 -15.08 -23.11 44 9.888 -15.08 -11 6.921 0
3.175 -38.07 15.94 39.92 19.9 -7.045 -28.06 45.98 13.97 -5.067 -33 31.89 13.97 -11 -18.04 -1.112 -10.01
3.18 -21.01 22 33.99 27.93 0.9888 -15.08 51.91 22 -2.101 -23.11 23.98 25.96 -1.112 -17.06 -1.112 -21.01
3.185 -7.045 17.92 22 37.94 11.99 -1.112 49.93 35.97 11.99 -7.045 31.89 51.91 11.99 -17.06 26.94 0.9888
3.19 -5.067 7.91 7.91 29.91 18.91 -2.101 39.92 35.97 25.96 0 35.97 61.92 24.97 -20.02 55 9.888
3.195 -2.101 7.91 23.98 19.9 15.94 -4.079 31.89 23.98 29.91 1.978 27.93 57.97 20.89 -24.1 58.96 6.921
3.2 -1.112 18.91 45.98 28.92 20.89 1.978 35.97 27.93 24.97 -2.101 25.96 55.99 22 -27.07 55 16.93
3.205 1.978 33 51.91 36.96 27.93 -3.09 41.9 37.94 28.92 -2.101 22 51.91 29.91 -18.04 48.94 18.91
3.21 11 41.9 66 46.97 28.92 -1.112 47.96 44 34.98 2.966 22 57.97 36.96 6.921 52.9 11.99
3.215 14.96 44.99 75.89 64.89 33.99 12.98 59.94 57.97 40.91 26.94 29.91 71.93 51.91 42.89 66.99 22.99
3.22 5.933 29.91 49.93 57.97 33.99 1.978 47.96 55.99 47.96 29.91 11.99 63.9 55.99 59.94 64.89 33.99
3.225 -2.101 1.978 15.94 27.93 17.92 -1.112 3.955 23.98 45.98 23.98 -11 33.99 39.92 67.98 38.93 28.92
3.23 1.978 -7.045 0.9888 11 18.91 6.921 -5.067 5.933 40.91 24.97 -15.08 15.94 36.96 68.97 22.99 22
3.235 0 -4.079 -15.08 2.966 29.91 11.99 -5.067 3.955 38.93 19.9 -21.01 13.97 41.9 55.99 16.93 19.9
3.24 0.9888 0.9888 -1.112 2.966 28.92 14.96 -13.1 -2.101 37.94 25.96 -25.09 18.91 36.96 57.97 8.899 8.899
3.245 9.888 15.94 25.96 19.9 35.97 23.98 -2.101 9.888 37.94 35.97 -15.08 25.96 37.94 59.94 6.921 7.91
3.25 11 30.9 27.93 36.96 47.96 15.94 5.933 27.93 42.89 27.93 -27.07 23.98 39.92 45.98 0.9888 5.933
3.255 3.955 22.99 19.9 35.97 36.96 0 -7.045 25.96 45.98 16.93 -37.08 0.9888 20.89 29.91 -33 -9.022
3.26 -8.034 8.899 22.99 30.9 28.92 0.9888 -4.079 26.94 45.98 4.944 -20.02 -11 12.98 20.89 -53.02 -24.1
3.265 -26.08 1.978 12.98 26.94 17.92 -10.01 1.978 24.97 29.91 -1.112 -12.11 -18.04 9.888 11 -59.08 -19.03
3.27 -39.06 -15.08 6.921 1.978 -3.09 -23.11 -6.056 2.966 2.966 -3.09 -14.09 -29.04 0 2.966 -73.04 -21.01
3.275 -38.07 -25.09 -2.101 -10.01 -20.02 -28.06 -10.01 -15.08 -15.08 -18.04 -9.022 -35.1 -16.07 1.978 -77 -35.1
3.28 -29.04 -12.11 -2.101 -17.06 -18.04 -24.1 1.978 -29.04 -33 -29.04 -4.079 -34.11 -27.07 -5.067 -63.03 -35.1
3.285 -22 -2.101 1.978 -23.11 -18.04 -16.07 0 -34.11 -38.07 -23.11 11.99 -25.09 -37.08 -6.056 -51.04 -27.07
3.29 -16.07 1.978 16.93 -6.056 -4.079 -7.045 11 -16.07 -19.03 -18.04 38.93 1.978 -22 1.978 -15.08 -23.11
3.295 -11 11.99 31.89 15.94 13.97 -2.101 33.99 9.888 -1.112 -7.045 44 22.99 0 7.91 18.91 -14.09
3.3 -9.022 7.91 35.97 22 15.94 -5.067 38.93 16.93 11 -2.101 37.94 31.89 12.98 6.921 34.98 1.978
3.305 -22 -3.09 26.94 17.92 6.921 -23.11 33.99 11.99 11 -16.07 29.91 28.92 3.955 0.9888 40.91 7.91
3.31 -29.04 0 27.93 11.99 -3.09 -25.09 44.99 2.966 -2.101 -18.04 29.91 27.93 1.978 -2.101 46.97 11
3.315 -27.07 0 39.92 0.9888 -19.03 -20.02 49.93 -13.1 -15.08 -7.045 44 26.94 -1.112 1.978 50.92 12.98
3.32 -30.03 -10.01 34.98 -2.101 -20.02 -17.06 33 -16.07 -11 0 36.96 22 0 11.99 46.97 14.96
3.325 -30.03 -8.034 22 -9.022 -16.07 -10.01 9.888 -16.07 -8.034 0.9888 11.99 5.933 -1.112 11 26.94 11.99
3.33 -21.01 -18.04 6.921 -17.06 -10.01 -4.079 0 -25.09 -5.067 -1.112 -4.079 -8.034 -7.045 13.97 2.966 3.955
3.335 -32.01 -33 -7.045 -27.07 -8.034 -6.056 -12.11 -27.07 -5.067 -6.056 -25.09 -21.01 -20.02 17.92 -15.08 -1.112
3.34 -39.06 -23.11 -8.034 -31.02 -15.08 -3.09 -12.11 -33 -18.04 -1.112 -28.06 -29.04 -24.1 18.91 -25.09 -7.045
3.345 -42.02 -37.08 -1.112 -34.11 -25.09 -2.101 1.978 -46.1 -21.01 4.944 -10.01 -34.11 -25.09 24.97 -23.11 -9.022
3.35 -64.02 -60.07 -8.034 -52.03 -42.02 -15.08 -16.07 -62.04 -21.01 1.978 -18.04 -47.09 -32.01 28.92 -35.1 -10.01
3.355 -81.08 -64.02 -29.04 -77 -66 -29.04 -45.11 -87.01 -45.11 -14.09 -31.02 -72.06 -48.08 17.92 -63.03 -17.06
3.36 -72.06 -64.02 -27.07 -80.09 -69.09 -29.04 -37.08 -93.07 -60.07 -23.11 -23.11 -75.02 -45.11 11.99 -65.01 -23.11
3.365 -53.02 -49.07 -15.08 -61.06 -57.1 -21.01 -29.04 -67.11 -51.04 -23.11 -17.06 -59.08 -31.02 11.99 -57.1 -13.1
3.37 -40.04 -30.03 -7.045 -36.09 -32.01 -10.01 -19.03 -41.03 -31.02 -19.03 -7.045 -46.1 -16.07 5.933 -49.07 -8.034
3.375 -28.06 -42.02 0 -10.01 -9.022 -3.09 0.9888 -25.09 -14.09 -21.01 0 -29.04 -15.08 -1.112 -31.02 -11
3.38 -30.03 -31.02 1.978 -11 -12.11 -6.056 -3.09 -19.03 -10.01 -28.06 -3.09 -23.11 -24.1 0 -17.06 -9.022
3.385 -35.1 -1.112 0 -21.01 -19.03 -11 -9.022 -27.07 -21.01 -33 -1.112 -23.11 -35.1 -5.067 -15.08 0
3.39 -23.11 5.933 17.92 -5.067 -15.08 -15.08 11.99 -15.08 -29.04 -31.02 3.955 -3.09 -35.1 -15.08 6.921 -3.09
3.395 -6.056 18.91 35.97 4.944 -7.045 -2.101 27.93 3.955 -24.1 -18.04 1.978 11.99 -19.03 -22 33 0
3.4 -2.101 9.888 25.96 6.921 0 -1.112 23.98 7.91 -10.01 -8.034 3.955 15.94 -4.079 -30.03 34.98 3.955
3.405 -6.056 -10.01 11.99 4.944 -1.112 -5.067 17.92 0.9888 -4.079 -16.07 -1.112 9.888 -7.045 -38.07 30.9 0.9888
3.41 -4.079 -1.112 9.888 -4.079 -12.11 -1.112 0.9888 -11 -12.11 -29.04 -5.067 -2.101 -5.067 -41.03 26.94 0
3.415 -3.09 15.94 7.91 -7.045 -7.045 0.9888 -5.067 -15.08 -5.067 -26.08 13.97 0 0.9888 -36.09 28.92 -1.112
3.42 1.978 15.94 22 5.933 4.944 4.944 9.888 -1.112 7.91 -22 29.91 13.97 11 -40.04 48.94 0
3.425 9.888 17.92 33.99 13.97 13.97 9.888 17.92 3.955 13.97 -17.06 29.91 27.93 15.94 -45.11 60.93 6.921
3.43 5.933 7.91 22 11.99 19.9 13.97 17.92 5.933 23.98 -13.1 27.93 25.96 13.97 -47.09 48.94 9.888
3.435 -2.101 0.9888 13.97 9.888 15.94 7.91 15.94 1.978 16.93 -27.07 4.944 7.91 -5.067 -48.08 14.96 -4.079
3.44 -3.09 0 17.92 5.933 7.91 7.91 7.91 0.9888 -5.067 -41.03 -17.06 -11 -23.11 -44 -25.09 -28.06
3.445 -14.09 -3.09 9.888 1.978 0.9888 6.921 0.9888 -6.056 -12.11 -39.06 -28.06 -32.01 -35.1 -37.08 -65.01 -32.01
3.45 -28.06 -23.11 -3.09 -11 -23.11 -2.101 -21.01 -24.1 -22 -39.06 -51.04 -66 -65.01 -31.02 -105.1 -48.08
3.455 -38.07 -37.08 -21.01 -39.06 -43.01 -8.034 -47.09 -54.01 -48.08 -39.06 -66 -98.01 -89.11 -20.02 -145.1 -68.1
3.46 -48.08 -61.06 -43.01 -60.07 -55 -12.11 -64.02 -78.11 -61.06 -36.09 -53.02 -115.1 -103.1 -13.1 -163 -70.08
3.465 -49.07 -67.11 -47.09 -71.07 -57.1 -11 -63.03 -85.03 -75.02 -41.03 -41.03 -121 -107 -3.09 -157.1 -69.09
3.47 -37.08 -55 -33 -63.03 -47.09 -11 -43.01 -79.1 -79.1 -35.1 -21.01 -99 -85.03 7.91 -125.1 -66
3.475 -35.1 -49.07 -21.01 -51.04 -37.08 -10.01 -33 -63.03 -56.11 -27.07 -12.11 -66 -53.02 18.91 -79.1 -53.02
3.48 -30.03 -39.06 -23.11 -43.01 -35.1 -12.11 -37.08 -48.08 -36.09 -27.07 -26.08 -48.08 -37.08 25.96 -47.09 -38.07
3.485 -26.08 -39.06 -28.06 -34.11 -23.11 -10.01 -32.01 -36.09 -25.09 -26.08 -29.04 -33 -29.04 16.93 -33 -27.07
3.49 -39.06 -55 -29.04 -27.07 -27.07 -17.06 -35.1 -33 -23.11 -31.02 -31.02 -33 -33 0.9888 -25.09 -17.06
3.495 -50.06 -53.02 -31.02 -41.03 -51.04 -28.06 -43.01 -44 -44 -41.03 -34.11 -46.1 -59.08 1.978 -15.08 -26.08
3.5 -57.1 -49.07 -36.09 -54.01 -73.04 -39.06 -40.04 -65.01 -75.02 -46.1 -35.1 -59.08 -83.06 2.966 -17.06 -31.02
3.505 -66 -53.02 -35.1 -67.11 -86.02 -44 -41.03 -86.02 -88 -47.09 -41.03 -66 -84.04 2.966 -13.1 -21.01
3.51 -52.03 -40.04 -29.04 -67.11 -85.03 -32.01 -43.01 -86.02 -90.1 -47.09 -37.08 -61.06 -73.04 7.91 -11 -22
3.515 -33 -35.1 -29.04 -55 -54.01 -19.03 -29.04 -69.09 -66 -39.06 -15.08 -44 -48.08 1.978 -1.112 -22
3.52 -23.11 -38.07 -23.11 -42.02 -29.04 -9.022 -11 -55 -38.07 -26.08 -5.067 -26.08 -25.09 -14.09 2.966 -12.11
3.525 -21.01 -33 -7.045 -41.03 -30.03 -3.09 -7.045 -53.02 -30.03 -29.04 -5.067 -28.06 -24.1 -12.11 -7.045 -12.11
3.53 -19.03 -28.06 -8.034 -40.04 -32.01 -3.09 -13.1 -49.07 -32.01 -34.11 -13.1 -40.04 -36.09 -24.1 -33 -18.04
3.535 -16.07 -31.02 -5.067 -27.07 -26.08 1.978 -21.01 -44 -36.09 -33 -35.1 -56.11 -40.04 -38.07 -67.11 -23.11
3.54 -1.112 -9.022 2.966 -16.07 -14.09 9.888 -32.01 -35.1 -38.07 -34.11 -46.1 -62.04 -32.01 -35.1 -87.01 -29.04
3.545 3.955 -3.09 0 -8.034 0 11.99 -41.03 -16.07 -20.02 -28.06 -45.11 -56.11 -21.01 -37.08 -89.11 -28.06
3.55 0.9888 -10.01 -5.067 -10.01 2.966 3.955 -32.01 -20.02 -8.034 -24.1 -61.06 -49.07 -10.01 -31.02 -93.07 -29.04
3.555 -3.09 -5.067 -3.09 -18.04 -2.101 -1.112 -23.11 -24.1 -6.056 -42.02 -63.03 -38.07 -3.09 -15.08 -87.01 -36.09
3.56 -11 -19.03 -24.1 -14.09 -6.056 -9.022 -28.06 -19.03 0 -46.1 -54.01 -30.03 -4.079 -13.1 -71.07 -27.07
3.565 -18.04 -25.09 -39.06 -15.08 -4.079 -8.034 -33 -16.07 -1.112 -33 -59.08 -24.1 -4.079 -4.079 -55 -21.01
3.57 -27.07 -24.1 -42.02 -24.1 -10.01 -3.09 -37.08 -17.06 -2.101 -32.01 -55 -22 -18.04 0.9888 -33 -20.02
3.575 -45.11 -53.02 -51.04 -35.1 -28.06 -11 -45.11 -29.04 -16.07 -21.01 -41.03 -30.03 -32.01 2.966 -5.067 -18.04
3.58 -59.08 -60.07 -55 -54.01 -49.07 -21.01 -43.01 -53.02 -38.07 -14.09 -45.11 -38.07 -43.01 20.89 -3.09 -10.01
3.585 -69.09 -51.04 -45.11 -57.1 -66 -33 -43.01 -63.03 -58.09 -29.04 -33 -42.02 -44 27.93 -1.112 1.978
3.59 -66 -56.11 -39.06 -45.11 -65.01 -32.01 -35.1 -52.03 -54.01 -25.09 -7.045 -31.02 -35.1 22 8.899 4.944
3.595 -48.08 -39.06 -25.09 -39.06 -46.1 -20.02 -13.1 -38.07 -40.04 -11 0 -8.034 -12.11 33 22.99 11.99
3.6 -21.01 -11 0.9888 -16.07 -9.022 0.9888 6.921 -9.022 -13.1 -8.034 23.98 13.97 9.888 30.9 50.92 22
3.605 -6.056 -9.022 15.94 7.91 15.94 11 31.89 11 18.91 1.978 55 44.99 44 22 84.91 36.96
3.61 0 7.91 22 22 25.96 13.97 35.97 19.9 35.97 15.94 61.92 55.99 63.9 27.93 88.99 51.91
3.615 -1.112 27.93 26.94 30.9 27.93 11 33 30.9 44 2.966 66 55.99 63.9 18.91 78.98 41.9
3.62 -6.056 11.99 17.92 27.93 17.92 6.921 37.94 28.92 40.91 0.9888 68.97 50.92 55.99 0 64.89 28.92
3.625 -7.045 11.99 11.99 9.888 -2.101 -1.112 35.97 15.94 26.94 -1.112 60.93 36.96 35.97 -2.101 44.99 23.98
3.63 -5.067 22 23.98 7.91 0 0 25.96 13.97 15.94 -9.022 44 25.96 22 -11 24.97 11
3.635 -7.045 9.888 15.94 11.99 0 0 15.94 13.97 7.91 -9.022 23.98 7.91 13.97 -15.08 0.9888 0.9888
3.64 -4.079 0 1.978 2.966 -1.112 1.978 -6.056 2.966 1.978 -12.11 0.9888 -11 -2.101 -15.08 -29.04 -6.056
3.645 -1.112 9.888 13.97 7.91 3.955 4.944 -11 4.944 0.9888 -23.11 -22 -18.04 -1.112 -20.02 -43.01 -14.09
3.65 2.966 11.99 15.94 17.92 11.99 12.98 -2.101 16.93 11 -33 -27.07 -8.034 0 -27.07 -35.1 -18.04
3.655 -1.112 15.94 9.888 22 7.91 6.921 1.978 26.94 12.98 -25.09 -26.08 6.921 1.978 -27.07 -19.03 -14.09
3.66 -7.045 17.92 13.97 31.89 11.99 0 15.94 33.99 7.91 -13.1 -21.01 29.91 9.888 -7.045 2.966 0
3.665 -29.04 -1.112 -2.101 19.9 -1.112 -9.022 11.99 22 0.9888 -21.01 -1.112 31.89 5.933 16.93 24.97 2.966
3.67 -39.06 -23.11 -15.08 0.9888 -21.01 -21.01 0.9888 -2.101 -11 -21.01 19.9 22 0.9888 25.96 40.91 3.955
3.675 -35.1 -21.01 -3.09 -1.112 -15.08 -15.08 0 -1.112 -13.1 -13.1 29.91 22 0 31.89 56.98 13.97
3.68 -31.02 -17.06 0.9888 -3.09 -11 -10.01 0.9888 0.9888 -5.067 -12.11 37.94 9.888 2.966 34.98 56.98 18.91
3.685 -27.07 -17.06 -3.09 0.9888 -11 -10.01 -1.112 0.9888 -1.112 0 39.92 3.955 0.9888 16.93 46.97 18.91
3.69 -29.04 -19.03 1.978 2.966 -8.034 -9.022 17.92 0 0 1.978 35.97 5.933 1.978 5.933 33 25.96
3.695 -41.03 -35.1 -3.09 -18.04 -32.01 -17.06 13.97 -15.08 -10.01 -37.08 31.89 -9.022 -15.08 8.899 16.93 3.955
3.7 -43.01 -45.11 -17.06 -39.06 -46.1 -16.07 1.978 -37.08 -27.07 -54.01 33.99 -15.08 -24.1 0.9888 16.93 -7.045
3.705 -40.04 -40.04 -17.06 -36.09 -33 -9.022 9.888 -37.08 -26.08 -48.08 27.93 0 -15.08 2.966 24.97 0
3.71 -43.01 -45.11 -23.11 -43.01 -35.1 -7.045 0.9888 -37.08 -21.01 -49.07 23.98 -5.067 -13.1 5.933 26.94 2.966
3.715 -33 -47.09 -21.01 -33 -25.09 0.9888 -1.112 -33 -17.06 -31.02 25.96 -2.101 -5.067 -2.101 26.94 0
3.72 -17.06 -19.03 -3.09 -13.1 -2.101 11 7.91 -17.06 -7.045 -18.04 22 1.978 1.978 1.978 14.96 0.9888
3.725 -9.022 -2.101 0 -16.07 -1.112 15.94 -3.09 -15.08 -1.112 -19.03 1.978 -17.06 -7.045 1.978 -13.1 -7.045
3.73 0.9888 2.966 0 -10.01 3.955 20.89 -13.1 -11 -1.112 -12.11 -11 -34.11 -12.11 -1.112 -31.02 -25.09
3.735 3.955 7.91 5.933 0 3.955 23.98 -7.045 -3.09 -2.101 -13.1 -17.06 -43.01 -17.06 -11 -53.02 -26.08
3.74 -9.022 -3.09 -2.101 -8.034 -8.034 19.9 -19.03 -15.08 -4.079 -15.08 -25.09 -63.03 -29.04 -9.022 -73.04 -31.02
3.745 -20.02 -30.03 -11 -22 -23.11 11 -29.04 -31.02 -20.02 -17.06 -35.1 -68.1 -36.09 -13.1 -77 -29.04
3.75 -25.09 -35.1 -14.09 -36.09 -35.1 5.933 -26.08 -41.03 -34.11 -26.08 -49.07 -65.01 -35.1 -15.08 -85.03 -24.1
3.755 -25.09 -43.01 -24.1 -56.11 -42.02 2.966 -37.08 -54.01 -41.03 -19.03 -80.09 -65.01 -38.07 -10.01 -95.04 -31.02
3.76 -21.01 -51.04 -27.07 -52.03 -40.04 7.91 -42.02 -50.06 -40.04 -14.09 -111.1 -59.08 -27.07 -13.1 -93.07 -30.03
3.765 -20.02 -36.09 -19.03 -39.06 -35.1 7.91 -37.08 -48.08 -37.08 -24.1 -102.1 -50.06 -25.09 -9.022 -81.08 -26.08
3.77 -31.02 -27.07 -23.11 -41.03 -42.02 2.966 -38.07 -46.1 -35.1 -33 -81.08 -43.01 -36.09 0 -63.03 -31.02
3.775 -48.08 -34.11 -24.1 -46.1 -46.1 -10.01 -42.02 -45.11 -45.11 -41.03 -52.03 -42.02 -45.11 6.921 -37.08 -25.09
3.78 -55 -35.1 -16.07 -54.01 -63.03 -27.07 -32.01 -51.04 -58.09 -50.06 -21.01 -41.03 -49.07 9.888 -11 -13.1
3.785 -60.07 -52.03 -21.01 -54.01 -74.03 -33 -20.02 -52.03 -66 -42.02 -9.022 -44 -55 7.91 -1.112 -8.034
3.79 -67.11 -64.02 -44 -52.03 -69.09 -35.1 -26.08 -48.08 -71.07 -41.03 -11 -49.07 -41.03 7.91 -1.112 -1.112
3.795 -57.1 -53.02 -54.01 -57.1 -68.1 -28.06 -22 -56.11 -60.07 -43.01 0 -35.1 -31.02 7.91 8.899 0.9888
3.8 -43.01 -40.04 -46.1 -50.06 -59.08 -17.06 -12.11 -50.06 -47.09 -37.08 11.99 -21.01 -15.08 11.99 8.899 1.978
3.805 -28.06 -32.01 -35.1 -34.11 -34.11 -3.09 -10.01 -34.11 -28.06 -26.08 19.9 -6.056 0.9888 5.933 14.96 14.96
3.81 -15.08 -27.07 -12.11 -26.08 -15.08 5.933 0 -25.09 -10.01 -12.11 31.89 0 11.99 1.978 22.99 22
3.815 -8.034 -36.09 -6.056 -14.09 0 12.98 4.944 -17.06 1.978 -3.09 28.92 0.9888 7.91 6.921 16.93 13.97
3.82 -17.06 -37.08 -29.04 -15.08 2.966 11 -2.101 -14.09 0 -11 17.92 -1.112 0.9888 7.91 6.921 7.91
3.825 -22 -18.04 -19.03 -21.01 0.9888 0 1.978 -18.04 0.9888 -20.02 14.96 -6.056 -1.112 0 -1.112 0
3.83 -13.1 3.955 15.94 -10.01 -20.02 -3.09 16.93 -16.07 -8.034 -34.11 3.955 -7.045 -21.01 -11 -23.11 -18.04
3.835 -13.1 15.94 42.89 2.966 -26.08 -16.07 13.97 -4.079 -17.06 -43.01 0.9888 -17.06 -36.09 -42.02 -49.07 -31.02
3.84 -17.06 17.92 44.99 2.966 -29.04 -19.03 18.91 0 -26.08 -44 5.933 -19.03 -33 -55 -49.07 -40.04
3.845 -14.09 4.944 39.92 6.921 -31.02 -16.07 25.96 0.9888 -28.06 -45.11 5.933 -14.09 -32.01 -59.08 -43.01 -39.06
3.85 -13.1 0 22 0.9888 -22 -7.045 19.9 -1.112 -22 -59.08 9.888 -11 -33 -71.07 -29.04 -37.08
3.855 -5.067 13.97 23.98 3.955 -5.067 0.9888 27.93 5.933 -11 -59.08 13.97 5.933 -15.08 -67.11 4.944 -30.03
3.86 4.944 22.99 37.94 20.89 0 2.966 31.89 15.94 -1.112 -50.06 -2.101 20.89 -6.056 -45.11 22.99 -15.08
3.865 3.955 27.93 29.91 24.97 4.944 0 9.888 17.92 4.944 -43.01 -11 19.9 -5.067 -29.04 12.98 -1.112
3.87 1.978 22 22 23.98 6.921 -1.112 1.978 29.91 3.955 -30.03 -15.08 31.89 6.921 2.966 22.99 0.9888
3.875 -1.112 9.888 25.96 19.9 0.9888 0 7.91 31.89 5.933 -23.11 -23.11 35.97 11.99 25.96 33 6.921
3.88 -11 15.94 27.93 9.888 -7.045 -1.112 9.888 23.98 1.978 -25.09 -17.06 23.98 7.91 17.92 33 18.91
3.885 -6.056 24.97 29.91 14.96 1.978 -7.045 25.96 29.91 6.921 -14.09 5.933 33 27.93 26.94 52.9 29.91
3.89 -9.022 9.888 22 19.9 0.9888 -12.11 27.93 27.93 15.94 -8.034 11.99 35.97 34.98 40.91 62.91 39.92
3.895 -11 5.933 9.888 16.93 6.921 -9.022 17.92 19.9 22.99 -7.045 19.9 31.89 37.94 38.93 56.98 35.97
3.9 1.978 11.99 19.9 27.93 24.97 1.978 31.89 35.97 36.96 0 31.89 53.89 66 41.9 66.99 35.97
3.905 7.91 15.94 35.97 39.92 37.94 4.944 41.9 53.89 55.99 2.966 23.98 69.96 77 33 74.9 40.91
3.91 5.933 33.99 37.94 39.92 39.92 0.9888 41.9 57.97 63.9 8.899 22 69.96 68.97 14.96 64.89 38.93
3.915 11.99 44 33.99 45.98 45.98 -2.101 47.96 63.9 69.96 15.94 37.94 73.91 73.91 19.9 62.91 33
3.92 0.9888 25.96 19.9 39.92 39.92 -3.09 33.99 53.89 69.96 7.91 35.97 59.94 61.92 19.9 55 27.93
3.925 -19.03 11.99 1.978 19.9 23.98 -5.067 13.97 31.89 50.92 0 23.98 35.97 44 12.98 34.98 29.91
3.93 -15.08 5.933 0 9.888 13.97 -1.112 13.97 17.92 31.89 -1.112 23.98 29.91 41.9 18.91 28.92 24.97
3.935 -10.01 -2.101 1.978 9.888 15.94 0 13.97 16.93 33 -3.09 12.98 28.92 39.92 17.92 22.99 14.96
3.94 -14.09 -1.112 -3.09 7.91 18.91 -6.056 9.888 18.91 34.98 2.966 6.921 24.97 39.92 13.97 12.98 8.899
3.945 -8.034 0.9888 -1.112 9.888 22 -5.067 19.9 22 40.91 5.933 23.98 29.91 41.9 24.97 14.96 6.921
3.95 0 3.955 3.955 13.97 28.92 0 15.94 28.92 45.98 4.944 26.94 24.97 35.97 11.99 12.98 1.978
3.955 -1.112 15.94 7.91 7.91 27.93 -2.101 13.97 25.96 35.97 0 22 17.92 25.96 3.955 8.899 0.9888
3.96 7.91 19.9 11.99 11.99 27.93 9.888 25.96 22 27.93 0.9888 29.91 23.98 22 9.888 16.93 0.9888
3.965 15.94 19.9 13.97 23.98 35.97 11.99 33.99 25.96 33 -1.112 35.97 27.93 23.98 4.944 26.94 8.899
3.97 1.978 9.888 5.933 15.94 31.89 -1.112 33.99 22.99 36.96 -1.112 33 30.9 27.93 11.99 36.96 11
3.975 -8.034 -1.112 3.955 2.966 18.91 -2.101 29.91 12.98 37.94 -1.112 28.92 40.91 35.97 26.94 55 19.9
3.98 -1.112 0.9888 11.99 3.955 17.92 -1.112 19.9 17.92 35.97 5.933 19.9 47.96 44 27.93 60.93 33
3.985 0.9888 11.99 13.97 11.99 25.96 -1.112 22 30.9 40.91 11.99 11 60.93 51.91 29.91 68.97 38.93
3.99 17.92 22 19.9 34.98 38.93 6.921 29.91 51.91 49.93 12.98 2.966 70.94 59.94 22.99 70.94 41.9
3.995 28.92 33.99 28.92 53.89 60.93 11.99 36.96 68.97 60.93 12.98 5.933 63.9 63.9 4.944 60.93 28.92
4 18.91 39.92 20.89 47.96 56.98 9.888 33.99 59.94 59.94 5.933 8.899 49.93 56.98 4.944 48.94 11
4.005 5.933 19.9 12.98 25.96 37.94 7.91 24.97 41.9 53.89 -2.101 14.96 39.92 44.99 12.98 42.89 16.93
4.01 -1.112 -2.101 -2.101 6.921 18.91 1.978 13.97 20.89 35.97 -9.022 23.98 27.93 22.99 0.9888 36.96 16.93
4.015 -1.112 -1.112 -22 -5.067 1.978 -2.101 6.921 1.978 14.96 -25.09 30.9 16.93 -1.112 -5.067 34.98 0
4.02 -2.101 -5.067 -16.07 -8.034 0 -1.112 4.944 -2.101 5.933 -27.07 26.94 13.97 -1.112 -12.11 33 -2.101
4.025 0.9888 -1.112 -2.101 -5.067 6.921 1.978 6.921 -2.101 6.921 -22 19.9 7.91 -1.112 -32.01 18.91 -6.056
4.03 0 0 0 -6.056 11 5.933 0 -1.112 4.944 -12.11 11.99 1.978 0 -30.03 0.9888 -17.06
4.035 1.978 -2.101 -2.101 0 22 4.944 -2.101 14.96 20.89 -3.09 -3.09 0 2.966 -17.06 -9.022 -20.02
4.04 -3.09 0.9888 -3.09 6.921 22 1.978 0 25.96 22.99 0.9888 -20.02 0 -1.112 -25.09 -29.04 -15.08
4.045 -8.034 3.955 -11 5.933 15.94 0 2.966 20.89 14.96 -3.09 -17.06 -5.067 0 -13.1 -37.08 -22
4.05 -15.08 0.9888 0.9888 4.944 14.96 -1.112 1.978 19.9 14.96 -2.101 -7.045 0 2.966 1.978 -25.09 -23.11
4.055 -20.02 -7.045 2.966 -3.09 2.966 -3.09 16.93 6.921 6.921 -2.101 9.888 9.888 1.978 0 -5.067 -14.09
4.06 -22 -13.1 1.978 -16.07 -3.09 -5.067 18.91 0 1.978 -1.112 34.98 15.94 5.933 1.978 14.96 -4.079
4.065 -19.03 -17.06 0 -7.045 3.955 -10.01 11 7.91 14.96 -1.112 42.89 30.9 14.96 7.91 46.97 9.888
4.07 -8.034 0.9888 -1.112 2.966 14.96 -1.112 25.96 16.93 25.96 1.978 37.94 47.96 26.94 0.9888 62.91 14.96
4.075 7.91 5.933 0 17.92 25.96 7.91 22.99 33.99 35.97 3.955 20.89 53.89 42.89 2.966 62.91 8.899
4.08 8.899 0.9888 -12.11 31.89 40.91 15.94 0 51.91 53.89 5.933 -6.056 49.93 56.98 18.91 56.98 14.96
4.085 6.921 -1.112 -22 27.93 36.96 19.9 -6.056 46.97 52.9 6.921 -15.08 37.94 55.99 20.89 28.92 14.96
4.09 0.9888 -13.1 -33 4.944 16.93 18.91 -19.03 22 44 6.921 -10.01 20.89 44 20.89 11 9.888
4.095 -14.09 -23.11 -29.04 -5.067 7.91 2.966 -27.07 11 34.98 3.955 1.978 12.98 37.94 29.91 12.98 12.98
4.1 -11 -3.09 -7.045 -3.09 -2.101 3.955 0 1.978 23.98 13.97 22 22 39.92 29.91 22.99 18.91
4.105 -1.112 3.955 -2.101 -1.112 6.921 11 17.92 6.921 29.91 22.99 30.9 30.9 45.98 24.97 34.98 29.91
4.11 4.944 11.99 0.9888 5.933 23.98 14.96 17.92 20.89 40.91 15.94 14.96 34.98 53.89 23.98 38.93 40.91
4.115 15.94 22 1.978 17.92 37.94 29.91 19.9 27.93 48.94 13.97 13.97 39.92 59.94 18.91 28.92 20.89
4.12 25.96 15.94 5.933 22 47.96 37.94 7.91 37.94 59.94 7.91 13.97 37.94 59.94 15.94 14.96 8.899
4.125 22 15.94 9.888 27.93 53.89 29.91 5.933 49.93 67.98 0 1.978 35.97 51.91 15.94 6.921 7.91
4.13 30.9 35.97 27.93 49.93 55 28.92 29.91 64.89 61.92 6.921 14.96 46.97 44 17.92 12.98 0.9888
4.135 40.91 39.92 37.94 61.92 59.94 29.91 39.92 77.99 62.91 9.888 31.89 53.89 44 20.89 30.9 -1.112
4.14 34.98 41.9 31.89 57.97 64.89 26.94 39.92 74.9 64.89 11 28.92 64.89 51.91 19.9 44.99 0.9888
4.145 28.92 31.89 19.9 55.99 67.98 28.92 35.97 68.97 72.92 15.94 34.98 77 67.98 19.9 58.96 6.921
4.15 15.94 1.978 0 41.9 61.92 27.93 17.92 61.92 85.9 19.9 35.97 77.99 81.94 24.97 66.99 16.93
4.155 0 -2.101 -5.067 22 49.93 15.94 17.92 47.96 82.93 17.92 27.93 77.99 83.92 28.92 64.89 22
4.16 0 15.94 0.9888 29.91 45.98 11.99 33.99 51.91 73.91 23.98 33.99 83.92 79.97 23.98 74.9 22
4.165 19.9 27.93 5.933 49.93 55.99 17.92 39.92 71.93 73.91 23.98 45.98 85.9 81.94 31.89 86.89 35.97
4.17 41.9 49.93 22 61.92 78.98 26.94 41.9 85.9 79.97 14.96 35.97 89.98 90.97 40.91 84.91 41.9
4.175 59.94 66 33.99 88 99.99 34.98 45.98 103.9 99.99 12.98 25.96 95.91 95.91 34.98 84.91 38.93
4.18 66.99 64.89 41.9 103 111 39.92 47.96 115.9 114.9 11.99 27.93 88 101 41.9 77 44.99
4.185 52.9 64.89 47.96 86.89 104.9 39.92 51.91 103.9 111 18.91 31.89 78.98 93.93 44.99 60.93 42.89
4.19 29.91 50.92 37.94 66 82.93 28.92 51.91 83.92 97.89 26.94 37.94 69.96 78.98 33 60.93 35.97
4.195 14.96 22.99 15.94 50.92 57.97 17.92 44 66 77 16.93 47.96 56.98 69.96 26.94 62.91 33
4.2 7.91 3.955 7.91 29.91 37.94 15.94 33.99 44 55.99 9.888 51.91 53.89 63.9 29.91 66.99 22
4.205 3.955 -2.101 13.97 25.96 31.89 17.92 31.89 35.97 49.93 11.99 51.91 57.97 59.94 19.9 74.9 16.93
4.21 5.933 5.933 23.98 31.89 28.92 18.91 35.97 39.92 49.93 8.899 47.96 47.96 50.92 16.93 58.96 17.92
4.215 4.944 16.93 23.98 24.97 26.94 23.98 29.91 29.91 40.91 0 31.89 29.91 36.96 11.99 26.94 0
4.22 4.944 16.93 15.94 16.93 27.93 24.97 19.9 22 30.9 0.9888 17.92 16.93 23.98 6.921 12.98 -6.056
4.225 7.91 13.97 5.933 22 23.98 19.9 19.9 22 27.93 -2.101 13.97 9.888 25.96 11.99 11 1.978
4.23 11 14.96 5.933 16.93 22.99 19.9 13.97 19.9 30.9 -2.101 19.9 9.888 30.9 25.96 16.93 1.978
4.235 4.944 5.933 15.94 8.899 19.9 14.96 13.97 15.94 30.9 9.888 31.89 18.91 30.9 33.99 30.9 3.955
4.24 -1.112 1.978 20.89 3.955 12.98 13.97 24.97 9.888 26.94 6.921 33 20.89 25.96 27.93 30.9 14.96
4.245 -8.034 -6.056 9.888 0 1.978 14.96 22 1.978 15.94 1.978 25.96 14.96 17.92 20.89 18.91 11.99
4.25 -4.079 -19.03 0 -2.101 5.933 17.92 14.96 -2.101 6.921 11 16.93 13.97 14.96 9.888 20.89 9.888
4.255 0 -7.045 5.933 7.91 13.97 26.94 20.89 6.921 9.888 11.99 13.97 22.99 30.9 7.91 26.94 9.888
4.26 18.91 15.94 22.99 26.94 22.99 30.9 22.99 24.97 25.96 8.899 18.91 27.93 41.9 18.91 26.94 9.888
4.265 30.9 33.99 34.98 40.91 36.96 30.9 33.99 44 41.9 15.94 24.97 36.96 50.92 24.97 34.98 23.98
4.27 39.92 44.99 48.94 57.97 50.92 39.92 55 57.97 52.9 12.98 33 50.92 61.92 27.93 56.98 31.89
4.275 49.93 57.97 45.98 61.92 56.98 44 57.97 66.99 64.89 11 41.9 64.89 66.99 38.93 66.99 30.9
4.28 39.92 33.99 23.98 49.93 57.97 38.93 40.91 60.93 67.98 15.94 35.97 60.93 68.97 40.91 66.99 34.98
4.285 17.92 -1.112 12.98 36.96 46.97 27.93 25.96 44.99 59.94 11.99 33 51.91 63.9 36.96 58.96 29.91
4.29 13.97 9.888 7.91 22 27.93 16.93 22.99 33 44 7.91 33.99 50.92 46.97 40.91 42.89 18.91
4.295 15.94 9.888 0 17.92 20.89 15.94 22 30.9 34.98 8.899 23.98 46.97 33 36.96 26.94 11
4.3 31.89 12.98 8.899 33.99 34.98 29.91 33 44 30.9 2.966 20.89 50.92 35.97 31.89 33 5.933
4.305 58.96 47.96 30.9 56.98 55 42.89 44 66 47.96 0.9888 26.94 62.91 42.89 34.98 30.9 9.888
4.31 60.93 44 36.96 64.89 70.94 42.89 36.96 74.9 63.9 0 28.92 53.89 47.96 28.92 26.94 15.94
4.315 51.91 31.89 44 69.96 77.99 42.89 36.96 77 67.98 -2.101 37.94 52.9 56.98 17.92 33 9.888
4.32 62.91 63.9 52.9 74.9 83.92 47.96 58.96 78.98 70.94 12.98 46.97 61.92 64.89 19.9 40.91 15.94
4.325 68.97 74.9 49.93 72.92 85.9 46.97 66 84.91 77.99 7.91 53.89 70.94 71.93 22.99 46.97 19.9
4.33 71.93 60.93 50.92 81.94 90.97 39.92 64.89 89.98 80.96 -2.101 58.96 78.98 77.99 19.9 55 14.96
4.335 64.89 59.94 51.91 78.98 77.99 28.92 66 85.9 84.91 -9.022 51.91 80.96 70.94 25.96 56.98 13.97
4.34 34.98 34.98 39.92 64.89 56.98 15.94 49.93 69.96 70.94 -11 49.93 68.97 55 31.89 50.92 11.99
4.345 9.888 11.99 33.99 49.93 31.89 9.888 39.92 49.93 45.98 -2.101 45.98 51.91 39.92 39.92 52.9 11.99
4.35 0.9888 20.89 29.91 34.98 13.97 11 41.9 35.97 26.94 11 29.91 33 22 42.89 42.89 14.96
4.355 -1.112 16.93 22 22.99 6.921 11.99 31.89 27.93 12.98 -2.101 31.89 7.91 6.921 41.9 26.94 7.91
4.36 7.91 13.97 29.91 27.93 18.91 18.91 29.91 25.96 9.888 -6.056 39.92 5.933 8.899 42.89 26.94 0
4.365 11.99 13.97 29.91 29.91 23.98 23.98 35.97 29.91 19.9 -5.067 31.89 13.97 13.97 41.9 30.9 8.899
4.37 3.955 3.955 13.97 15.94 17.92 25.96 33.99 25.96 17.92 -5.067 33.99 19.9 13.97 41.9 36.96 17.92
4.375 0.9888 0.9888 11.99 8.899 9.888 25.96 37.94 15.94 11 -6.056 41.9 30.9 23.98 44.99 42.89 8.899
4.38 -1.112 -9.022 5.933 0.9888 0.9888 24.97 33.99 3.955 9.888 -8.034 31.89 25.96 20.89 44.99 38.93 5.933
4.385 -8.034 -20.02 -2.101 -8.034 1.978 22 13.97 -5.067 8.899 -8.034 19.9 6.921 11.99 34.98 26.94 8.899
4.39 1.978 -4.079 11.99 0 8.899 27.93 11.99 -5.067 4.944 0 11.99 1.978 16.93 29.91 20.89 0.9888
4.395 7.91 -2.101 11.99 9.888 19.9 34.98 13.97 1.978 9.888 12.98 -5.067 0 23.98 33 6.921 -1.112
4.4 9.888 -5.067 0.9888 11.99 18.91 34.98 -2.101 11.99 15.94 12.98 -25.09 -15.08 12.98 22.99 -17.06 0
4.405 11.99 -3.09 3.955 15.94 9.888 31.89 0.9888 7.91 7.91 1.978 -21.01 -23.11 -2.101 3.955 -41.03 -8.034
4.41 13.97 -1.112 17.92 22 7.91 29.91 11.99 9.888 3.955 -7.045 -7.045 -19.03 -5.067 0 -45.11 -21.01
4.415 13.97 1.978 29.91 22 9.888 27.93 19.9 17.92 6.921 -15.08 1.978 -15.08 -15.08 -6.056 -37.08 -23.11
4.42 22 33.99 53.89 27.93 15.94 27.93 39.92 23.98 3.955 -19.03 22 -2.101 -11 -14.09 -17.06 -27.07
4.425 34.98 51.91 57.97 39.92 28.92 28.92 57.97 38.93 8.899 -29.04 34.98 20.89 -2.101 -7.045 2.966 -19.03
4.43 33 37.94 47.96 44 30.9 24.97 45.98 44.99 13.97 -35.1 24.97 22.99 0.9888 -5.067 16.93 -12.11
4.435 27.93 27.93 47.96 39.92 25.96 22 35.97 31.89 6.921 -31.02 11.99 15.94 -2.101 -10.01 12.98 -13.1
4.44 34.98 25.96 41.9 40.91 33 24.97 44 26.94 5.933 -19.03 12.98 22.99 15.94 0 14.96 -8.034
4.445 29.91 23.98 35.97 37.94 37.94 31.89 41.9 29.91 19.9 -9.022 19.9 22 23.98 13.97 12.98 1.978
4.45 27.93 25.96 41.9 39.92 37.94 33.99 35.97 37.94 25.96 -5.067 25.96 17.92 19.9 17.92 4.944 4.944
4.455 29.91 31.89 45.98 39.92 37.94 31.89 41.9 37.94 24.97 -7.045 29.91 13.97 15.94 26.94 11 2.966
4.46 24.97 22 49.93 41.9 28.92 30.9 49.93 36.96 18.91 -5.067 34.98 12.98 5.933 29.91 18.91 0.9888
4.465 24.97 13.97 57.97 38.93 14.96 30.9 49.93 30.9 5.933 -9.022 34.98 8.899 0.9888 20.89 20.89 6.921
4.47 27.93 11.99 45.98 22 7.91 27.93 44 11.99 -2.101 -11 27.93 1.978 -1.112 9.888 18.91 7.91
4.475 20.89 -2.101 15.94 3.955 2.966 34.98 27.93 0.9888 -1.112 -13.1 18.91 -2.101 -5.067 9.888 2.966 -4.079
4.48 22.99 -7.045 0 -4.079 8.899 48.94 3.955 -4.079 -2.101 -15.08 -1.112 -10.01 -13.1 14.96 -5.067 -6.056
4.485 23.98 -11 -10.01 -9.022 16.93 51.91 -11 -16.07 1.978 -8.034 -23.11 -20.02 -8.034 15.94 -17.06 -10.01
4.49 11.99 -19.03 -17.06 -3.09 12.98 44 -15.08 -11 -2.101 1.978 -30.03 -19.03 -2.101 20.89 -31.02 -21.01
4.495 12.98 -13.1 0.9888 13.97 8.899 42.89 -9.022 3.955 -3.09 6.921 -22 -11 2.966 35.97 -33 -16.07
4.5 19.9 -2.101 22.99 27.93 4.944 42.89 -1.112 8.899 0.9888 14.96 -16.07 -16.07 9.888 39.92 -29.04 -10.01
4.505 18.91 0 26.94 25.96 3.955 46.97 7.91 4.944 0 20.89 -1.112 -18.04 14.96 38.93 -25.09 -3.09
4.51 18.91 6.921 22 11.99 8.899 44 15.94 1.978 3.955 7.91 15.94 -14.09 13.97 33.99 -11 -1.112
4.515 11.99 0.9888 4.944 -3.09 8.899 31.89 5.933 -16.07 5.933 -6.056 15.94 -20.02 6.921 15.94 -3.09 -1.112
4.52 -1.112 -13.1 -5.067 -10.01 1.978 13.97 3.955 -17.06 1.978 -21.01 22 -15.08 0 1.978 0.9888 -9.022
4.525 -18.04 -14.09 -1.112 -7.045 -10.01 -1.112 13.97 -15.08 -6.056 -35.1 17.92 -7.045 -1.112 2.966 4.944 -1.112
4.53 -17.06 -7.045 13.97 -2.101 -16.07 -6.056 18.91 -8.034 -14.09 -38.07 8.899 -1.112 -5.067 2.966 11 5.933
4.535 -12.11 -2.101 18.91 1.978 -18.04 -5.067 19.9 -5.067 -22 -31.02 15.94 -1.112 -11 4.944 12.98 0
4.54 -13.1 -3.09 11.99 -4.079 -20.02 -9.022 19.9 -7.045 -24.1 -39.06 15.94 0.9888 -15.08 0 12.98 0
4.545 -11 -13.1 6.921 -9.022 -20.02 -3.09 7.91 -10.01 -25.09 -30.03 23.98 -2.101 -14.09 1.978 16.93 1.978
4.55 -2.101 -8.034 13.97 -1.112 -18.04 3.955 11.99 -4.079 -23.11 -23.11 44 2.966 -5.067 9.888 33 -1.112
4.555 -8.034 -5.067 16.93 0.9888 -21.01 0.9888 23.98 -4.079 -17.06 -30.03 42.89 14.96 -2.101 11 42.89 1.978
4.56 -11 -6.056 22.99 -5.067 -22 2.966 25.96 -16.07 -23.11 -28.06 44.99 4.944 -7.045 9.888 38.93 2.966
4.565 -10.01 -3.09 30.9 -7.045 -24.1 11 23.98 -19.03 -27.07 -26.08 48.94 -3.09 -10.01 13.97 24.97 -1.112
4.57 -19.03 -11 17.92 -15.08 -30.03 5.933 13.97 -31.02 -32.01 -35.1 28.92 -31.02 -22 8.899 -5.067 1.978
4.575 -7.045 -17.06 20.89 -13.1 -24.1 19.9 7.91 -32.01 -39.06 -26.08 17.92 -44 -22 11.99 -33 -8.034
4.58 18.91 1.978 45.98 8.899 1.978 40.91 17.92 -6.056 -27.07 -15.08 16.93 -34.11 -9.022 14.96 -35.1 -8.034
4.585 28.92 23.98 51.91 25.96 16.93 36.96 23.98 8.899 0 -19.03 2.966 -24.1 0.9888 1.978 -41.03 -2.101
4.59 31.89 41.9 57.97 37.94 27.93 29.91 35.97 23.98 5.933 -17.06 5.933 -11 3.955 -1.112 -41.03 -5.067
4.595 38.93 57.97 75.89 56.98 38.93 38.93 39.92 46.97 19.9 -17.06 14.96 2.966 17.92 6.921 -25.09 -8.034
4.6 26.94 51.91 61.92 57.97 34.98 42.89 23.98 48.94 33 -21.01 2.966 2.966 15.94 7.91 -27.07 -6.056
4.605 23.98 29.91 41.9 41.9 19.9 41.9 5.933 33.99 20.89 -17.06 0.9888 -7.045 0 0.9888 -31.02 -10.01
4.61 31.89 22 44 35.97 13.97 39.92 -2.101 27.93 3.955 -17.06 -5.067 -11 -7.045 -9.022 -27.07 -18.04
4.615 23.98 23.98 31.89 27.93 7.91 23.98 0 17.92 -1.112 -27.07 -17.06 -17.06 -23.11 -19.03 -27.07 -29.04
4.62 12.98 19.9 19.9 18.91 0.9888 8.899 7.91 12.98 -9.022 -35.1 -14.09 -10.01 -29.04 -11 -21.01 -30.03
4.625 3.955 15.94 22 25.96 5.933 -2.101 9.888 23.98 -10.01 -47.09 -17.06 3.955 -17.06 2.966 -3.09 -17.06
4.63 -2.101 17.92 15.94 27.93 6.921 -1.112 9.888 33 -1.112 -53.02 -14.09 11 -7.045 3.955 4.944 -10.01
4.635 0.9888 11.99 7.91 22 -1.112 1.978 7.91 26.94 0 -43.01 -1.112 6.921 0.9888 5.933 12.98 0.9888
4.64 9.888 7.91 9.888 22 0 -2.101 7.91 13.97 -1.112 -31.02 3.955 9.888 11.99 12.98 24.97 7.91
4.645 7.91 13.97 9.888 19.9 0 5.933 11.99 3.955 -1.112 -19.03 15.94 9.888 15.94 18.91 30.9 17.92
4.65 3.955 7.91 5.933 13.97 -2.101 3.955 5.933 0 1.978 -15.08 25.96 5.933 11.99 27.93 30.9 26.94
4.655 -5.067 -5.067 0.9888 5.933 -1.112 -1.112 -2.101 -2.101 0 -25.09 17.92 0 1.978 23.98 22.99 11.99
4.66 -21.01 -17.06 -9.022 -3.09 -14.09 -4.079 -2.101 -9.022 -11 -34.11 11.99 -11 -10.01 4.944 2.966 -1.112
4.665 -13.1 -15.08 -7.045 -15.08 -29.04 -2.101 -1.112 -27.07 -25.09 -40.04 3.955 -25.09 -20.02 1.978 -11 4.944
4.67 -1.112 -10.01 -7.045 -20.02 -22 3.955 -5.067 -35.1 -28.06 -35.1 -9.022 -25.09 -9.022 -2.101 -21.01 0
4.675 6.921 -10.01 -3.09 -20.02 -11 17.92 -7.045 -33 -20.02 -28.06 -15.08 -21.01 -5.067 1.978 -29.04 -5.067
4.68 20.89 0 3.955 -6.056 0.9888 24.97 -15.08 -21.01 -4.079 -22 -7.045 -21.01 1.978 2.966 -35.1 1.978
4.685 18.91 -2.101 -1.112 0 9.888 18.91 -17.06 -13.1 -1.112 -20.02 -19.03 -26.08 -3.09 0 -43.01 -17.06
4.69 -3.09 -17.06 -13.1 -11 -3.09 1.978 -21.01 -23.11 -13.1 -29.04 -31.02 -43.01 -29.04 -23.11 -63.03 -34.11
4.695 -5.067 -13.1 -1.112 -13.1 -17.06 1.978 -19.03 -31.02 -31.02 -29.04 -27.07 -41.03 -35.1 -17.06 -57.1 -30.03
4.7 6.921 1.978 -2.101 -8.034 -12.11 20.89 -9.022 -21.01 -29.04 -14.09 -19.03 -21.01 -16.07 -1.112 -29.04 -28.06
4.705 12.98 -4.079 -5.067 -4.079 0.9888 31.89 -5.067 -9.022 -8.034 -7.045 -7.045 -7.045 0.9888 1.978 -1.112 -15.08
4.71 23.98 -6.056 -2.101 0 11.99 38.93 -14.09 -5.067 4.944 -5.067 0.9888 -2.101 11 13.97 12.98 -2.101
4.715 25.96 -7.045 -19.03 -1.112 19.9 33.99 -25.09 -3.09 13.97 -3.09 -11 -9.022 15.94 13.97 11 -4.079
4.72 11 -12.11 -33 -8.034 5.933 17.92 -29.04 -11 11 -7.045 -27.07 -21.01 11.99 3.955 0.9888 -5.067
4.725 9.888 -1.112 -12.11 -7.045 1.978 13.97 -20.02 -13.1 3.955 -1.112 -25.09 -12.11 11 19.9 8.899 5.933
4.73 22 3.955 -2.101 -3.09 2.966 19.9 -13.1 -1.112 6.921 8.899 -21.01 -2.101 18.91 38.93 12.98 11
4.735 14.96 -7.045 -13.1 -3.09 3.955 18.91 -21.01 -2.101 8.899 4.944 -30.03 -1.112 7.91 28.92 11 2.966
4.74 8.899 -21.01 -19.03 -10.01 2.966 23.98 -31.02 -21.01 -2.101 1.978 -37.08 -13.1 -2.101 14.96 2.966 0.9888
4.745 14.96 -26.08 -24.1 -15.08 1.978 31.89 -39.06 -28.06 -9.022 0 -34.11 -30.03 -8.034 3.955 -13.1 -1.112
4.75 5.933 -17.06 -27.07 -15.08 -2.101 18.91 -31.02 -29.04 -11 -8.034 -31.02 -39.06 -15.08 -10.01 -17.06 -3.09
4.755 5.933 -2.101 -14.09 -18.04 -6.056 7.91 -20.02 -32.01 -13.1 -23.11 -20.02 -34.11 -21.01 -9.022 -15.08 -5.067
4.76 5.933 0 -5.067 -19.03 -8.034 0 -23.11 -29.04 -16.07 -24.1 -23.11 -33 -18.04 -2.101 -27.07 -2.101
4.765 1.978 -1.112 -12.11 -21.01 -19.03 -4.079 -30.03 -35.1 -13.1 -29.04 -31.02 -38.07 -23.11 -15.08 -47.09 -10.01
4.77 0.9888 0.9888 1.978 -13.1 -24.1 0.9888 -17.06 -27.07 -20.02 -24.1 -23.11 -32.01 -20.02 -26.08 -61.06 -23.11
4.775 27.93 13.97 23.98 3.955 -2.101 18.91 0.9888 -5.067 -14.09 -7.045 -5.067 -22 -3.09 -32.01 -69.09 -22
4.78 38.93 18.91 26.94 15.94 0.9888 25.96 5.933 5.933 0.9888 -6.056 -1.112 -32.01 -6.056 -40.04 -77 -27.07
4.785 34.98 13.97 28.92 1.978 0.9888 20.89 6.921 -3.09 -5.067 -17.06 -5.067 -42.02 -35.1 -35.1 -89.11 -32.01
4.79 15.94 1.978 27.93 -1.112 -6.056 15.94 -2.101 -17.06 -26.08 -28.06 -17.06 -51.04 -54.01 -32.01 -87.01 -26.08
4.795 -7.045 -12.11 11 -18.04 -30.03 -3.09 -14.09 -34.11 -47.09 -45.11 -22 -62.04 -81.08 -41.03 -83.06 -49.07
4.8 -19.03 -15.08 3.955 -29.04 -52.03 -22 -13.1 -43.01 -77 -48.08 -13.1 -53.02 -95.04 -30.03 -67.11 -63.03
4.805 -10.01 -6.056 6.921 -11 -41.03 -11 -9.022 -28.06 -81.08 -40.04 -6.056 -28.06 -70.08 -15.08 -31.02 -40.04
4.81 0.9888 -3.09 0 -6.056 -26.08 0 -11 -21.01 -57.1 -26.08 -7.045 -19.03 -44 1.978 -7.045 -20.02
4.815 14.96 1.978 0.9888 -5.067 -9.022 8.899 -11 -16.07 -34.11 -10.01 -6.056 -11 -21.01 16.93 0.9888 -8.034
4.82 25.96 3.955 5.933 7.91 16.93 25.96 -5.067 -5.067 -4.079 4.944 -9.022 3.955 14.96 24.97 30.9 14.96
4.825 25.96 1.978 -1.112 9.888 24.97 25.96 -8.034 -3.09 15.94 9.888 -7.045 11 26.94 23.98 40.91 25.96
4.83 14.96 -4.079 -13.1 -2.101 3.955 5.933 -11 -13.1 14.96 3.955 -1.112 3.955 7.91 27.93 36.96 27.93
4.835 11.99 -5.067 -5.067 -2.101 -5.067 1.978 -1.112 -13.1 -1.112 -2.101 -2.101 11.99 0 29.91 44.99 30.9
4.84 19.9 -1.112 4.944 5.933 -11 11 0.9888 -3.09 -12.11 1.978 -2.101 12.98 -2.101 37.94 42.89 31.89
4.845 22.99 12.98 11.99 8.899 -9.022 7.91 1.978 -2.101 -14.09 -3.09 -5.067 1.978 -11 23.98 26.94 23.98
4.85 28.92 18.91 19.9 18.91 2.966 11 3.955 3.955 -9.022 -6.056 -13.1 3.955 -4.079 1.978 24.97 6.921
4.855 31.89 13.97 25.96 15.94 11.99 13.97 -2.101 3.955 -3.09 -11 -27.07 3.955 0.9888 -13.1 14.96 0
4.86 22 1.978 11.99 0 -2.101 3.955 -3.09 -7.045 -1.112 -15.08 -37.08 -9.022 -7.045 -29.04 -5.067 -2.101
4.865 20.89 -2.101 12.98 -2.101 -1.112 8.899 -2.101 -13.1 -10.01 -14.09 -31.02 -8.034 -11 -38.07 -11 -7.045
4.87 24.97 2.966 27.93 -1.112 -4.079 14.96 5.933 -5.067 -18.04 -18.04 -15.08 -7.045 -18.04 -22 -13.1 -13.1
4.875 18.91 16.93 19.9 -1.112 -13.1 3.955 7.91 -11 -20.02 -30.03 -1.112 -21.01 -39.06 -30.03 -23.11 -21.01
4.88 12.98 8.899 19.9 0 -14.09 1.978 7.91 -17.06 -32.01 -39.06 0 -27.07 -49.07 -53.02 -31.02 -25.09
4.885 11.99 7.91 23.98 -1.112 -15.08 -1.112 -2.101 -15.08 -47.09 -42.02 0.9888 -31.02 -56.11 -54.01 -49.07 -20.02
4.89 5.933 11.99 7.91 -3.09 -22 -4.079 -7.045 -19.03 -51.04 -44 -17.06 -41.03 -62.04 -58.09 -77 -14.09
4.895 17.92 13.97 1.978 -1.112 -19.03 0.9888 -9.022 -13.1 -45.11 -29.04 -25.09 -39.06 -53.02 -49.07 -87.01 -30.03
4.9 25.96 23.98 9.888 1.978 -7.045 3.955 -7.045 -1.112 -31.02 -23.11 -11 -29.04 -41.03 -23.11 -75.02 -43.01
4.905 17.92 23.98 3.955 13.97 -5.067 -2.101 -3.09 0 -17.06 -21.01 0 -23.11 -37.08 -14.09 -51.04 -26.08
4.91 23.98 11.99 5.933 19.9 0.9888 3.955 -2.101 5.933 -21.01 -11 11.99 -3.09 -25.09 -13.1 -15.08 -11
4.915 33 11.99 15.94 19.9 3.955 11 0 11.99 -22 -19.03 22.99 3.955 -15.08 4.944 12.98 -12.11
4.92 28.92 16.93 3.955 17.92 5.933 8.899 0 15.94 -10.01 -19.03 14.96 11.99 -10.01 18.91 28.92 -1.112
4.925 33 13.97 0 17.92 13.97 17.92 3.955 17.92 2.966 3.955 11.99 31.89 7.91 34.98 50.92 12.98
4.93 34.98 20.89 9.888 19.9 23.98 24.97 11.99 19.9 22.99 11.99 26.94 45.98 33 45.98 66.99 17.92
4.935 25.96 15.94 9.888 29.91 31.89 19.9 22 33.99 35.97 9.888 29.91 53.89 49.93 35.97 72.92 27.93
4.94 35.97 11.99 15.94 39.92 39.92 25.96 17.92 45.98 44 22 27.93 67.98 61.92 31.89 72.92 36.96
4.945 46.97 19.9 22 44 44 27.93 22 51.91 48.94 7.91 33.99 63.9 59.94 34.98 62.91 26.94
4.95 44.99 25.96 22 47.96 51.91 24.97 31.89 57.97 55 0.9888 34.98 53.89 47.96 24.97 48.94 18.91
4.955 44.99 33 23.98 59.94 57.97 20.89 35.97 61.92 58.96 6.921 24.97 58.96 42.89 17.92 44.99 14.96
4.96 61.92 62.91 70.94 60.93 47.96 34.98 33.99 44.99 35.97 -32.01 1.978 22 14.96 -83.06 -15.08 -44
4.965 57.97 81.94 71.93 79.97 62.91 35.97 29.91 66 48.94 -31.02 -19.03 31.89 17.92 -101.1 -29.04 -50.06
4.97 59.94 97.89 79.97 80.96 60.93 34.98 33.99 69.96 46.97 -41.03 -21.01 35.97 11 -101.1 -41.03 -66
4.975 71.93 93.93 91.96 85.9 63.9 41.9 55.99 79.97 49.93 -35.1 -13.1 44 13.97 -97.02 -31.02 -58.09
4.98 66 93.93 91.96 95.91 63.9 41.9 45.98 81.94 51.91 -31.02 -25.09 33.99 9.888 -93.07 -33 -45.11
4.985 61.92 77.99 88 77.99 47.96 34.98 31.89 66 41.9 -36.09 -19.03 19.9 0.9888 -72.06 -39.06 -41.03
4.99 57.97 51.91 81.94 71.93 45.98 34.98 39.92 59.94 41.9 -16.07 -9.022 19.9 15.94 -48.08 -27.07 -35.1
4.995 34.98 55.99 59.94 66 38.93 23.98 29.91 55 39.92 -3.09 -18.04 12.98 26.94 -29.04 -23.11 -30.03
5 14.96 61.92 45.98 37.94 16.93 7.91 19.9 30.9 25.96 -17.06 -4.079 8.899 22.99 1.978 -21.01 -23.11
5.005 1.978 45.98 41.9 22 5.933 -1.112 29.91 22 15.94 -22 11.99 20.89 18.91 25.96 6.921 -9.022
5.01 -26.08 22 17.92 15.94 -6.056 -23.11 3.955 12.98 5.933 -40.04 0.9888 11 0 31.89 28.92 -5.067
5.015 -41.03 0.9888 -2.101 -3.09 -37.08 -35.1 -19.03 -7.045 -17.06 -55 7.91 -2.101 -17.06 41.9 38.93 -3.09
5.02 -37.08 -7.045 0 -11 -43.01 -25.09 -3.09 -15.08 -31.02 -45.11 27.93 0.9888 -17.06 51.91 52.9 -1.112
5.025 -28.06 5.933 0 -2.101 -31.02 -20.02 5.933 -5.067 -29.04 -36.09 35.97 1.978 -14.09 44.99 62.91 3.955
5.03 -2.101 29.91 13.97 9.888 -10.01 -7.045 13.97 8.899 -23.11 -25.09 50.92 14.96 -4.079 44.99 74.9 0.9888
5.035 14.96 47.96 37.94 27.93 12.98 -1.112 29.91 30.9 0 -16.07 46.97 37.94 7.91 41.9 78.98 -1.112
5.04 22 51.91 41.9 47.96 29.91 -5.067 31.89 45.98 22 -19.03 25.96 41.9 17.92 23.98 74.9 0
5.045 33 57.97 35.97 49.93 36.96 1.978 27.93 52.9 31.89 -7.045 26.94 50.92 34.98 18.91 68.97 0
5.05 33.99 51.91 29.91 45.98 42.89 12.98 22 46.97 44 -4.079 11 49.93 44 6.921 48.94 -9.022
5.055 33 44.99 22.99 46.97 45.98 17.92 7.91 40.91 47.96 -8.034 -12.11 33.99 36.96 -14.09 18.91 -20.02
5.06 44.99 49.93 15.94 49.93 48.94 26.94 -10.01 45.98 46.97 -8.034 -27.07 23.98 22 -25.09 -1.112 -26.08
5.065 47.96 46.97 16.93 44.99 44.99 23.98 -31.02 38.93 45.98 -20.02 -62.04 2.966 3.955 -35.1 -39.06 -37.08
5.07 42.89 41.9 15.94 39.92 41.9 11 -26.08 31.89 33 -27.07 -76.01 -9.022 -3.09 -40.04 -63.03 -54.01
5.075 44 46.97 14.96 44.99 44.99 6.921 -13.1 41.9 19.9 -23.11 -61.06 -13.1 -2.101 -14.09 -61.06 -49.07
5.08 29.91 33 6.921 40.91 38.93 -1.112 -12.11 44 22.99 -28.06 -63.03 -12.11 -1.112 1.978 -63.03 -32.01
5.085 14.96 14.96 4.944 26.94 25.96 -5.067 -13.1 28.92 15.94 -28.06 -64.02 -19.03 -4.079 4.944 -57.1 -30.03
5.09 19.9 29.91 2.966 24.97 23.98 -1.112 -19.03 22.99 13.97 -26.08 -38.07 -15.08 -2.101 23.98 -39.06 -22
5.095 22 39.92 0 18.91 20.89 -2.101 -11 15.94 23.98 -22 -22 -3.09 -1.112 30.9 -13.1 -8.034
5.1 16.93 34.98 2.966 17.92 23.98 0.9888 4.944 17.92 18.91 -8.034 0 3.955 11 27.93 33 0
5.105 13.97 39.92 9.888 24.97 24.97 -1.112 11.99 25.96 13.97 -6.056 42.89 22 11 36.96 68.97 11
5.11 13.97 35.97 14.96 28.92 19.9 -5.067 19.9 28.92 11.99 -12.11 58.96 33.99 8.899 33.99 88.99 12.98
5.115 4.944 20.89 12.98 20.89 7.91 -7.045 19.9 20.89 1.978 -8.034 60.93 33.99 4.944 34.98 88.99 4.944
5.12 1.978 20.89 8.899 14.96 4.944 -8.034 6.921 15.94 1.978 -22 63.9 18.91 -2.101 46.97 70.94 -1.112
5.125 1.978 20.89 1.978 11 6.921 -12.11 9.888 15.94 0 -31.02 55.99 7.91 0 56.98 48.94 -1.112
5.13 -8.034 11.99 -13.1 5.933 1.978 -12.11 8.899 13.97 0.9888 -23.11 48.94 1.978 -1.112 52.9 38.93 -12.11
5.135 -7.045 6.921 -6.056 1.978 0 -7.045 -2.101 2.966 -1.112 -22 46.97 -6.056 -11 44 26.94 -13.1
5.14 1.978 17.92 -3.09 -7.045 -2.101 4.944 4.944 -7.045 -2.101 -14.09 44 -5.067 -9.022 31.89 24.97 -6.056
5.145 0 6.921 -12.11 -6.056 -5.067 7.91 3.955 -16.07 -3.09 -4.079 30.9 -5.067 -10.01 20.89 14.96 -16.07
5.15 1.978 0.9888 -11 -9.022 -8.034 2.966 -7.045 -18.04 -3.09 -14.09 18.91 -17.06 -17.06 12.98 0.9888 -25.09
5.155 2.966 9.888 -9.022 -9.022 -4.079 3.955 -9.022 -10.01 -1.112 -19.03 12.98 -16.07 -6.056 9.888 -11 -22
5.16 5.933 19.9 -5.067 3.955 -3.09 3.955 -1.112 0 1.978 -9.022 5.933 -7.045 1.978 11.99 -23.11 -25.09
5.165 20.89 17.92 9.888 22 4.944 14.96 0.9888 16.93 11.99 -6.056 -2.101 1.978 9.888 13.97 -25.09 -28.06
5.17 28.92 27.93 17.92 23.98 18.91 22 3.955 26.94 22 -3.09 -6.056 2.966 14.96 11 -31.02 -30.03
5.175 26.94 22 11.99 35.97 22 14.96 7.91 37.94 29.91 -2.101 -3.09 6.921 4.944 2.966 -37.08 -35.1
5.18 29.91 25.96 19.9 35.97 17.92 11.99 3.955 39.92 27.93 -9.022 -7.045 3.955 -5.067 -2.101 -37.08 -34.11
5.185 31.89 55.99 25.96 23.98 13.97 7.91 1.978 29.91 22 -5.067 -3.09 7.91 -3.09 -5.067 -33 -23.11
5.19 38.93 69.96 31.89 37.94 20.89 9.888 15.94 34.98 17.92 0.9888 0.9888 24.97 9.888 -5.067 -11 -19.03
5.195 44.99 67.98 39.92 53.89 23.98 12.98 25.96 47.96 19.9 0.9888 0 33 22.99 5.933 2.966 -3.09
5.2 36.96 67.98 37.94 45.98 26.94 9.888 22 46.97 29.91 1.978 14.96 24.97 33 14.96 16.93 11.99
5.205 30.9 59.94 31.89 47.96 30.9 7.91 27.93 50.92 41.9 5.933 30.9 26.94 44.99 23.98 34.98 16.93
5.21 19.9 37.94 27.93 39.92 22 0.9888 27.93 41.9 39.92 1.978 31.89 22 29.91 36.96 42.89 19.9
5.215 0 23.98 19.9 15.94 5.933 -6.056 17.92 15.94 25.96 -4.079 27.93 13.97 14.96 28.92 36.96 17.92
5.22 -11 11.99 9.888 11.99 -5.067 -25.09 17.92 7.91 5.933 -15.08 25.96 17.92 -2.101 19.9 36.96 11
5.225 -25.09 -3.09 1.978 5.933 -21.01 -37.08 13.97 5.933 -13.1 -27.07 22 11.99 -17.06 19.9 28.92 -2.101
5.23 -35.1 -5.067 1.978 0 -30.03 -39.06 3.955 -1.112 -24.1 -24.1 23.98 0 -26.08 15.94 14.96 -17.06
5.235 -29.04 5.933 1.978 0.9888 -26.08 -35.1 5.933 -1.112 -22 -15.08 25.96 -2.101 -21.01 17.92 6.921 -26.08
5.24 -25.09 4.944 -1.112 -6.056 -25.09 -32.01 1.978 -2.101 -19.03 -16.07 19.9 -15.08 -26.08 15.94 -13.1 -25.09
5.245 -23.11 0 -1.112 -10.01 -31.02 -24.1 1.978 -14.09 -19.03 -13.1 12.98 -33 -31.02 0 -41.03 -36.09
5.25 -9.022 5.933 1.978 -4.079 -28.06 -14.09 -1.112 -17.06 -22 -12.11 7.91 -39.06 -26.08 -1.112 -57.1 -42.02
5.255 -5.067 4.944 0.9888 0.9888 -19.03 -6.056 0 -10.01 -19.03 -11 4.944 -41.03 -13.1 -3.09 -57.1 -37.08
5.26 0.9888 0 9.888 3.955 -3.09 5.933 0 -5.067 -5.067 3.955 1.978 -23.11 3.955 -11 -41.03 -33
5.265 3.955 23.98 9.888 13.97 5.933 11.99 1.978 0 9.888 15.94 0 0.9888 23.98 -19.03 -25.09 -22
5.27 5.933 35.97 9.888 16.93 16.93 6.921 -1.112 13.97 24.97 6.921 -3.09 3.955 24.97 -41.03 -19.03 -15.08
5.275 22 38.93 22.99 30.9 29.91 16.93 -1.112 28.92 29.91 6.921 -11 13.97 18.91 -57.1 -1.112 -13.1
5.28 35.97 52.9 26.94 45.98 38.93 25.96 -1.112 40.91 33 0 -10.01 22.99 11.99 -54.01 6.921 -2.101
5.285 31.89 49.93 19.9 39.92 45.98 13.97 1.978 45.98 31.89 -11 -7.045 23.98 11.99 -51.04 24.97 3.955
5.29 29.91 36.96 20.89 34.98 45.98 16.93 13.97 42.89 31.89 2.966 0.9888 37.94 26.94 -25.09 46.97 7.91
5.295 22 33 16.93 22 30.9 11.99 18.91 26.94 33 20.89 6.921 40.91 35.97 12.98 50.92 13.97
5.3 6.921 29.91 16.93 14.96 23.98 1.978 18.91 22.99 39.92 20.89 6.921 35.97 41.9 33.99 58.96 22
5.305 1.978 18.91 23.98 22 18.91 -3.09 25.96 22 36.96 26.94 12.98 47.96 40.91 51.91 77 24.97
5.31 -16.07 11 6.921 22 1.978 -16.07 23.98 17.92 25.96 14.96 22 45.98 25.96 51.91 77 14.96
5.315 -36.09 -3.09 -6.056 2.966 -6.056 -37.08 15.94 8.899 5.933 -2.101 25.96 33 5.933 31.89 68.97 8.899
5.32 -38.07 -16.07 -11 -8.034 -16.07 -33 5.933 0 -10.01 0.9888 31.89 25.96 -3.09 29.91 60.93 8.899
5.325 -33 -8.034 -15.08 -17.06 -26.08 -23.11 -1.112 -12.11 -24.1 -1.112 31.89 6.921 -21.01 26.94 36.96 0.9888
5.33 -26.08 -7.045 -10.01 -16.07 -29.04 -27.07 -6.056 -8.034 -25.09 -12.11 22.99 -2.101 -33 11.99 26.94 -12.11
5.335 -23.11 -7.045 -10.01 -12.11 -27.07 -24.1 -4.079 -5.067 -29.04 -13.1 16.93 2.966 -30.03 8.899 20.89 -13.1
5.34 -26.08 -12.11 -28.06 -14.09 -28.06 -20.02 -7.045 -6.056 -24.1 -12.11 14.96 0 -20.02 9.888 4.944 -14.09
5.345 -23.11 -28.06 -29.04 -18.04 -18.04 -13.1 -5.067 -9.022 -11 -7.045 9.888 1.978 -7.045 5.933 -3.09 -15.08
5.35 -4.079 -26.08 -22 -14.09 -2.101 0.9888 -13.1 -6.056 -4.079 0.9888 -1.112 0.9888 0.9888 11.99 -19.03 -16.07
5.355 1.978 1.978 -16.07 -4.079 3.955 12.98 -24.1 -1.112 3.955 1.978 -8.034 -14.09 -1.112 0 -41.03 -27.07
5.36 16.93 13.97 -6.056 4.944 15.94 9.888 -18.04 0.9888 13.97 0.9888 -14.09 -21.01 -1.112 -23.11 -53.02 -32.01
5.365 11.99 6.921 0 7.91 12.98 1.978 -9.022 -1.112 12.98 -1.112 -15.08 -16.07 -11 -26.08 -53.02 -31.02
5.37 -6.056 0.9888 -5.067 -1.112 1.978 -15.08 -9.022 0 2.966 -11 0.9888 -19.03 -17.06 -25.09 -41.03 -32.01
5.375 -20.02 -7.045 -6.056 -1.112 -12.11 -29.04 1.978 -4.079 -7.045 -16.07 9.888 -10.01 -25.09 -31.02 -17.06 -28.06
5.38 -16.07 -8.034 2.966 -3.09 -25.09 -28.06 0.9888 -3.09 -17.06 -24.1 5.933 1.978 -27.07 -23.11 0.9888 -16.07
5.385 -7.045 8.899 5.933 1.978 -18.04 -19.03 -9.022 1.978 -20.02 -26.08 0 3.955 -16.07 -17.06 18.91 -10.01
5.39 1.978 19.9 -6.056 2.966 0 -5.067 -10.01 8.899 -3.09 -16.07 -16.07 11.99 0.9888 -17.06 30.9 -3.09
5.395 3.955 6.921 -12.11 0.9888 11 -1.112 -20.02 0.9888 6.921 -10.01 -32.01 8.899 0 -4.079 20.89 -5.067
5.4 -2.101 -4.079 -18.04 -8.034 5.933 -6.056 -37.08 -4.079 7.91 -12.11 -47.09 -11 0 0.9888 2.966 0.9888
5.405 -15.08 -23.11 -47.09 -25.09 0.9888 -19.03 -53.02 -19.03 -1.112 -17.06 -55 -27.07 -19.03 -1.112 -1.112 -5.067
5.41 -27.07 -36.09 -54.01 -43.01 -24.1 -31.02 -64.02 -38.07 -18.04 -21.01 -52.03 -38.07 -37.08 6.921 -9.022 -22
5.415 -37.08 -48.08 -60.07 -58.09 -41.03 -28.06 -63.03 -52.03 -35.1 -10.01 -35.1 -47.09 -40.04 25.96 -9.022 -15.08
5.42 -59.08 -67.11 -87.01 -70.08 -46.1 -24.1 -57.1 -63.03 -38.07 1.978 -19.03 -41.03 -34.11 33.99 0.9888 -1.112
5.425 -59.08 -73.04 -73.04 -79.1 -57.1 -33 -51.04 -73.04 -43.01 -7.045 -3.09 -41.03 -37.08 25.96 -1.112 -12.11
5.43 -41.03 -55 -31.02 -73.04 -59.08 -33 -31.02 -73.04 -57.1 -15.08 1.978 -45.11 -43.01 7.91 -9.022 -15.08
5.435 -21.01 -28.06 -16.07 -45.11 -37.08 -24.1 -16.07 -50.06 -51.04 -19.03 1.978 -39.06 -41.03 -2.101 -15.08 -19.03
5.44 1.978 -2.101 1.978 -14.09 -12.11 -20.02 -9.022 -25.09 -32.01 -22 -5.067 -29.04 -30.03 3.955 -31.02 -26.08
5.445 22 16.93 33 6.921 3.955 -8.034 0.9888 0 -7.045 -7.045 -2.101 -17.06 -15.08 9.888 -41.03 -20.02
5.45 22 20.89 22.99 22.99 19.9 1.978 5.933 12.98 5.933 2.966 -19.03 -5.067 -6.056 7.91 -41.03 -17.06
5.455 22 29.91 25.96 25.96 18.91 -2.101 5.933 15.94 12.98 1.978 -25.09 -3.09 0.9888 -1.112 -47.09 -26.08
5.46 25.96 39.92 41.9 22.99 14.96 1.978 15.94 15.94 8.899 14.96 -9.022 -3.09 2.966 -17.06 -53.02 -23.11
5.465 27.93 41.9 33.99 22 22 11.99 15.94 25.96 13.97 23.98 -1.112 -1.112 7.91 -23.11 -49.07 -20.02
5.47 27.93 44 35.97 29.91 27.93 9.888 5.933 31.89 23.98 9.888 1.978 0.9888 13.97 -27.07 -41.03 -25.09
5.475 24.97 44 44 33.99 24.97 4.944 5.933 31.89 19.9 0.9888 13.97 0 6.921 -40.04 -25.09 -18.04
5.48 7.91 31.89 37.94 29.91 15.94 4.944 11.99 29.91 7.91 1.978 1.978 5.933 -1.112 -54.01 -7.045 -6.056
5.485 4.944 24.97 31.89 30.9 6.921 1.978 13.97 19.9 0.9888 -5.067 -2.101 11 -1.112 -62.04 -1.112 -5.067
5.49 17.92 33 35.97 26.94 4.944 7.91 17.92 15.94 0.9888 1.978 0.9888 20.89 1.978 -56.11 12.98 -9.022
5.495 36.96 37.94 37.94 35.97 26.94 28.92 22 31.89 19.9 20.89 0.9888 35.97 18.91 -43.01 26.94 -2.101
5.5 49.93 48.94 39.92 52.9 51.91 35.97 17.92 44 44 14.96 1.978 38.93 27.93 -33 33 13.97
5.505 45.98 61.92 41.9 53.89 57.97 27.93 13.97 45.98 49.93 0 -3.09 27.93 17.92 -35.1 30.9 9.888
5.51 23.98 39.92 31.89 45.98 49.93 13.97 15.94 41.9 39.92 -7.045 -13.1 17.92 7.91 -41.03 20.89 0.9888
5.515 14.96 22 19.9 33.99 33 6.921 7.91 23.98 22 -6.056 -13.1 11.99 8.899 -27.07 2.966 1.978
5.52 20.89 34.98 22 28.92 26.94 3.955 5.933 19.9 22 0 -2.101 12.98 15.94 -6.056 4.944 -2.101
5.525 25.96 34.98 25.96 28.92 31.89 -1.112 9.888 23.98 35.97 4.944 -1.112 18.91 18.91 0 6.921 -1.112
5.53 29.91 35.97 27.93 27.93 27.93 1.978 7.91 17.92 33.99 3.955 1.978 17.92 17.92 3.955 2.966 0.9888
5.535 24.97 44.99 29.91 28.92 22.99 1.978 13.97 22 25.96 0 4.944 12.98 3.955 -1.112 2.966 -13.1
5.54 14.96 24.97 23.98 28.92 19.9 -4.079 19.9 25.96 15.94 -4.079 5.933 12.98 -4.079 -14.09 2.966 -10.01
5.545 22 24.97 24.97 35.97 24.97 1.978 22.99 27.93 4.944 1.978 11 25.96 0 -21.01 -5.067 -8.034
5.55 37.94 47.96 36.96 46.97 34.98 7.91 33 36.96 15.94 -2.101 8.899 29.91 2.966 -27.07 0.9888 -26.08
5.555 44.99 45.98 38.93 44.99 51.91 0 33 39.92 36.96 -14.09 -1.112 26.94 5.933 -36.09 -7.045 -19.03
5.56 44.99 44 35.97 34.98 52.9 5.933 20.89 28.92 33.99 -11 -13.1 20.89 11.99 -33 -25.09 -11
5.565 25.96 36.96 13.97 16.93 40.91 0.9888 2.966 13.97 33 -9.022 -25.09 -2.101 0.9888 -37.08 -43.01 -27.07
5.57 11 8.899 -4.079 1.978 28.92 -7.045 -17.06 0 22.99 -14.09 -45.11 -35.1 -15.08 -42.02 -75.02 -27.07
5.575 11.99 6.921 -2.101 -2.101 14.96 -3.09 -28.06 -21.01 0.9888 -8.034 -58.09 -47.09 -15.08 -39.06 -99 -42.02
5.58 14.96 25.96 7.91 1.978 8.899 -7.045 -21.01 -21.01 1.978 -8.034 -59.08 -41.03 -11 -32.01 -97.02 -51.04
5.585 27.93 29.91 20.89 14.96 18.91 -7.045 -4.079 -2.101 9.888 -9.022 -45.11 -13.1 2.966 -18.04 -73.04 -17.06
5.59 35.97 35.97 29.91 39.92 44 3.955 12.98 33.99 22 12.98 -24.1 27.93 42.89 -1.112 -23.11 3.955
5.595 31.89 47.96 20.89 55 55 7.91 11 53.89 47.96 25.96 -1.112 57.97 64.89 0.9888 22.99 13.97
5.6 33 39.92 11.99 61.92 64.89 5.933 5.933 59.94 72.92 24.97 7.91 63.9 69.96 14.96 50.92 35.97
5.605 27.93 26.94 16.93 57.97 68.97 3.955 20.89 51.91 77 33 22.99 67.98 73.91 22 70.94 26.94
5.61 -1.112 11 8.899 37.94 42.89 -9.022 19.9 28.92 64.89 22.99 37.94 49.93 47.96 16.93 68.97 11.99
5.615 -17.06 -4.079 0 2.966 8.899 -24.1 14.96 0.9888 38.93 3.955 44 24.97 12.98 22 48.94 15.94
5.62 -22 -11 9.888 -2.101 -2.101 -29.04 28.92 -8.034 9.888 5.933 47.96 14.96 1.978 27.93 42.89 13.97
5.625 -30.03 1.978 11 0.9888 -9.022 -31.02 24.97 -1.112 1.978 -1.112 47.96 20.89 0.9888 20.89 44.99 4.944
5.63 -15.08 13.97 14.96 18.91 0 -33 22.99 18.91 1.978 -12.11 46.97 29.91 4.944 22 44.99 2.966
5.635 -1.112 8.899 22.99 39.92 12.98 -21.01 40.91 45.98 12.98 0 46.97 47.96 23.98 19.9 52.9 2.966
5.64 -8.034 4.944 5.933 36.96 17.92 -14.09 23.98 45.98 22 -1.112 39.92 40.91 22.99 11 50.92 12.98
5.645 0 8.899 -3.09 18.91 14.96 -9.022 3.955 23.98 15.94 -9.022 16.93 20.89 9.888 4.944 28.92 9.888
5.65 15.94 11.99 7.91 11.99 22 1.978 15.94 9.888 13.97 -7.045 5.933 13.97 9.888 1.978 18.91 -3.09
5.655 29.91 38.93 29.91 30.9 39.92 16.93 23.98 25.96 29.91 -2.101 -1.112 26.94 24.97 -9.022 14.96 0
5.66 44.99 60.93 47.96 60.93 52.9 17.92 31.89 49.93 45.98 -13.1 -12.11 42.89 37.94 -40.04 2.966 0.9888
5.665 55 53.89 57.97 75.89 58.96 20.89 51.91 69.96 55.99 -16.07 -13.1 57.97 40.91 -59.08 0.9888 -3.09
5.67 51.91 53.89 51.91 73.91 61.92 23.98 51.91 75.89 63.9 -11 -15.08 63.9 35.97 -73.04 0.9888 -8.034
5.675 49.93 51.91 41.9 67.98 53.89 25.96 37.94 63.9 55.99 -9.022 -31.02 55.99 29.91 -71.07 0.9888 -11
5.68 45.98 34.98 33.99 56.98 51.91 31.89 25.96 53.89 45.98 2.966 -30.03 44.99 29.91 -39.06 6.921 -5.067
5.685 30.9 27.93 22 44 46.97 33 7.91 44 45.98 12.98 -24.1 23.98 26.94 -15.08 6.921 0.9888
5.69 17.92 33 15.94 33 28.92 13.97 -1.112 27.93 29.91 3.955 -18.04 0.9888 13.97 -14.09 -1.112 -5.067
5.695 2.966 12.98 13.97 16.93 4.944 -1.112 5.933 5.933 1.978 -1.112 2.966 -10.01 0.9888 1.978 -1.112 0.9888
5.7 -11 -1.112 0 0.9888 -5.067 -18.04 22 -5.067 -9.022 -16.07 33.99 -5.067 -10.01 8.899 12.98 4.944
5.705 -16.07 -5.067 -2.101 -5.067 -14.09 -30.03 27.93 -15.08 -21.01 -26.08 51.91 5.933 -12.11 11 30.9 6.921
5.71 -19.03 -23.11 -3.09 0.9888 -13.1 -31.02 27.93 -11 -21.01 -31.02 66 19.9 -3.09 25.96 52.9 9.888
5.715 -31.02 -27.07 -15.08 -7.045 -9.022 -33 19.9 -7.045 -5.067 -41.03 63.9 23.98 -1.112 31.89 56.98 3.955
5.72 -35.1 -3.09 -2.101 -14.09 -14.09 -40.04 9.888 -13.1 -2.101 -52.03 49.93 7.91 -12.11 15.94 40.91 -1.112
5.725 -31.02 1.978 23.98 -7.045 -22 -47.09 22 -15.08 -16.07 -57.1 41.9 -2.101 -15.08 17.92 38.93 6.921
5.73 -35.1 -2.101 27.93 0 -19.03 -52.03 25.96 -6.056 -13.1 -50.06 34.98 3.955 -6.056 24.97 36.96 2.966
5.735 -33 -8.034 26.94 0.9888 -17.06 -46.1 11.99 0 -7.045 -35.1 18.91 4.944 0 28.92 18.91 -1.112
5.74 -29.04 -13.1 17.92 8.899 -8.034 -26.08 7.91 0.9888 1.978 -16.07 9.888 1.978 16.93 52.9 12.98 11.99
5.745 -39.06 -16.07 4.944 -3.09 -15.08 -17.06 2.966 -12.11 1.978 -7.045 6.921 -4.079 17.92 66.99 -3.09 0
5.75 -41.03 -7.045 0 -27.07 -25.09 -21.01 -7.045 -33 0.9888 -13.1 -2.101 -23.11 -1.112 53.89 -37.08 -10.01
5.755 -17.06 3.955 11.99 -15.08 -17.06 -7.045 3.955 -29.04 -13.1 -11 0 -15.08 -1.112 49.93 -33 -2.101
5.76 1.978 5.933 15.94 4.944 0.9888 2.966 17.92 -5.067 0 -6.056 5.933 0 11 38.93 -19.03 -1.112
5.765 13.97 6.921 13.97 22.99 27.93 12.98 13.97 16.93 22 -14.09 1.978 11.99 22.99 11 -15.08 -3.09
5.77 22 20.89 22.99 31.89 42.89 22 24.97 26.94 34.98 -23.11 -8.034 26.94 33.99 -6.056 -7.045 -1.112
5.775 13.97 23.98 29.91 22 33.99 22 23.98 15.94 35.97 -39.06 -13.1 22 27.93 -33 -13.1 -17.06
5.78 5.933 26.94 27.93 18.91 23.98 14.96 9.888 11 35.97 -54.01 -22 9.888 11 -60.07 -23.11 -21.01
5.785 5.933 28.92 30.9 29.91 24.97 15.94 14.96 20.89 26.94 -50.06 -26.08 24.97 9.888 -62.04 -11 -7.045
5.79 16.93 15.94 30.9 36.96 24.97 18.91 23.98 33 23.98 -39.06 -13.1 33 15.94 -42.02 -1.112 0
5.795 23.98 24.97 33 44 22.99 20.89 27.93 41.9 23.98 -29.04 -8.034 33.99 18.91 -27.07 16.93 7.91
5.8 22.99 36.96 41.9 39.92 22.99 26.94 44 37.94 15.94 -14.09 1.978 45.98 25.96 -3.09 34.98 26.94
5.805 14.96 23.98 41.9 29.91 14.96 23.98 52.9 24.97 15.94 -16.07 11.99 47.96 27.93 0.9888 44.99 33.99
5.81 11 11 37.94 30.9 11.99 16.93 47.96 22.99 18.91 -25.09 22.99 45.98 28.92 -1.112 52.9 29.91
5.815 0.9888 0.9888 23.98 30.9 18.91 14.96 34.98 24.97 29.91 -22 22.99 49.93 37.94 6.921 56.98 33
5.82 0.9888 -1.112 12.98 30.9 28.92 11 25.96 28.92 37.94 -27.07 19.9 40.91 37.94 20.89 40.91 34.98
5.825 13.97 22 18.91 36.96 34.98 11 22.99 31.89 39.92 -26.08 15.94 26.94 30.9 25.96 22.99 17.92
5.83 15.94 37.94 16.93 31.89 37.94 13.97 11 19.9 34.98 -14.09 11.99 19.9 17.92 16.93 6.921 -3.09
5.835 8.899 23.98 6.921 22 29.91 15.94 7.91 8.899 20.89 -17.06 16.93 5.933 -2.101 19.9 0.9888 -10.01
5.84 0 15.94 11 11.99 22 9.888 11 1.978 8.899 -10.01 27.93 1.978 -7.045 22.99 2.966 -14.09
5.845 -3.09 13.97 12.98 -1.112 12.98 14.96 12.98 -1.112 -2.101 0.9888 35.97 4.944 -4.079 23.98 -1.112 -17.06
5.85 -2.101 5.933 18.91 0.9888 11 4.944 33.99 -2.101 -2.101 -13.1 47.96 6.921 -3.09 30.9 -5.067 -14.09
5.855 1.978 14.96 35.97 8.899 11 0 52.9 1.978 3.955 -24.1 50.92 9.888 1.978 26.94 -11 -18.04
5.86 -1.112 14.96 39.92 16.93 11.99 0 49.93 2.966 11 -21.01 48.94 19.9 4.944 8.899 -9.022 -17.06
5.865 6.921 17.92 37.94 37.94 22.99 0.9888 56.98 28.92 17.92 -32.01 57.97 37.94 13.97 4.944 4.944 -2.101
5.87 16.93 44.99 59.94 55.99 38.93 0.9888 71.93 51.91 27.93 -20.02 62.91 57.97 19.9 5.933 22.99 2.966
5.875 29.91 62.91 74.9 63.9 50.92 12.98 71.93 55.99 45.98 -3.09 66.99 61.92 30.9 -1.112 24.97 1.978
5.88 26.94 49.93 66.99 70.94 52.9 14.96 73.91 55 51.91 -27.07 63.9 50.92 29.91 -1.112 14.96 0.9888
5.885 9.888 26.94 48.94 47.96 40.91 7.91 56.98 34.98 44.99 -30.03 36.96 26.94 15.94 0 -1.112 -1.112
5.89 0 14.96 27.93 24.97 29.91 11 29.91 11 29.91 -14.09 18.91 7.91 12.98 -12.11 -7.045 -17.06
5.895 1.978 7.91 15.94 19.9 22 17.92 19.9 5.933 15.94 -11 17.92 1.978 13.97 -9.022 -3.09 -9.022
5.9 7.91 14.96 18.91 22 16.93 29.91 24.97 11 11 -2.101 8.899 6.921 11.99 -4.079 2.966 1.978
5.905 15.94 22.99 35.97 28.92 19.9 33 29.91 11 13.97 11 8.899 15.94 16.93 -2.101 12.98 1.978
5.91 22 13.97 35.97 40.91 16.93 38.93 31.89 17.92 18.91 0.9888 1.978 22 16.93 3.955 28.92 4.944
5.915 15.94 11.99 25.96 27.93 11.99 33.99 23.98 19.9 13.97 0.9888 -9.022 19.9 11.99 11.99 33 11
5.92 19.9 33.99 29.91 25.96 22 25.96 13.97 15.94 15.94 1.978 -5.067 17.92 15.94 13.97 24.97 12.98
5.925 33.99 44.99 33 35.97 31.89 33.99 14.96 24.97 25.96 3.955 0.9888 16.93 33.99 18.91 18.91 23.98
5.93 41.9 35.97 22 33 34.98 42.89 3.955 25.96 33 -1.112 1.978 7.91 36.96 20.89 4.944 22
5.935 39.92 33 16.93 34.98 35.97 36.96 0.9888 22.99 31.89 0 16.93 4.944 29.91 16.93 2.966 11
5.94 29.91 20.89 11.99 30.9 29.91 20.89 -2.101 18.91 31.89 -8.034 30.9 0 14.96 12.98 2.966 11
5.945 9.888 3.955 1.978 9.888 8.899 -2.101 -2.101 7.91 4.944 -35.1 41.9 -7.045 -7.045 9.888 -9.022 2.966
5.95 -2.101 3.955 13.97 2.966 -6.056 -24.1 7.91 0.9888 -18.04 -48.08 55.99 -11 -26.08 3.955 -19.03 -14.09
5.955 3.955 19.9 35.97 13.97 -13.1 -27.07 25.96 -2.101 -25.09 -51.04 63.9 -5.067 -23.11 1.978 -17.06 -14.09
5.96 9.888 23.98 41.9 22 -11 -19.03 31.89 9.888 -21.01 -57.1 55.99 -1.112 -21.01 0.9888 -15.08 -11
5.965 -2.101 3.955 29.91 22 -7.045 -24.1 27.93 9.888 -17.06 -62.04 33.99 -1.112 -32.01 -4.079 -15.08 -18.04
5.97 -11 0.9888 22 11.99 -17.06 -30.03 22 -2.101 -23.11 -66 27.93 -5.067 -49.07 -8.034 -11 -16.07
5.975 -16.07 -4.079 17.92 -7.045 -32.01 -31.02 13.97 -15.08 -45.11 -69.09 30.9 -12.11 -60.07 -2.101 -3.09 -15.08
5.98 -14.09 -14.09 13.97 -9.022 -30.03 -27.07 13.97 -23.11 -55 -63.03 33 -10.01 -57.1 16.93 0.9888 -14.09
5.985 -2.101 -2.101 22 1.978 -17.06 -10.01 23.98 -11 -39.06 -46.1 40.91 1.978 -34.11 18.91 26.94 -2.101
5.99 1.978 2.966 7.91 7.91 1.978 -7.045 22 -1.112 -15.08 -31.02 18.91 12.98 -1.112 8.899 38.93 9.888
5.995 -9.022 -27.07 -19.03 0 3.955 -11 5.933 -5.067 0.9888 -25.09 -23.11 5.933 -2.101 -1.112 30.9 11.99
6 -19.03 -29.04 -29.04 -7.045 -1.112 -5.067 -13.1 -17.06 0 -15.08 -43.01 -3.09 0 -27.07 16.93 12.98
6.005 -16.07 -15.08 -27.07 -23.11 -5.067 1.978 -33 -29.04 1.978 -10.01 -50.06 -13.1 6.921 -36.09 -1.112 9.888
6.01 -10.01 -16.07 -27.07 -25.09 0 5.933 -43.01 -31.02 1.978 -17.06 -62.04 -20.02 4.944 -35.1 -23.11 -3.09
6.015 -9.022 -8.034 -19.03 -12.11 0.9888 11 -43.01 -20.02 11.99 -22 -59.08 -26.08 3.955 -35.1 -39.06 -12.11
6.02 -3.09 -9.022 -15.08 -13.1 1.978 5.933 -35.1 -17.06 11.99 -15.08 -71.07 -31.02 0.9888 -27.07 -63.03 -15.08
6.025 1.978 -14.09 -23.11 -15.08 1.978 1.978 -35.1 -29.04 -2.101 -9.022 -70.08 -46.1 -24.1 -17.06 -85.03 -30.03
6.03 -5.067 -10.01 -21.01 -8.034 0 0 -33 -20.02 -5.067 -6.056 -49.07 -48.08 -33 -8.034 -81.08 -42.02
6.035 -2.101 -6.056 -14.09 -1.112 -2.101 -9.022 -19.03 -9.022 -8.034 0 -33 -32.01 -19.03 6.921 -59.08 -34.11
6.04 -7.045 -5.067 -8.034 -4.079 1.978 -24.1 -9.022 -12.11 -9.022 -5.067 -15.08 -27.07 -18.04 19.9 -49.07 -11
6.045 -16.07 -6.056 -1.112 -9.022 -8.034 -31.02 -1.112 -11 -10.01 -7.045 -1.112 -19.03 -15.08 15.94 -27.07 -10.01
6.05 -2.101 -1.112 13.97 -1.112 -6.056 -20.02 8.899 -5.067 -12.11 -2.101 3.955 -4.079 -4.079 13.97 -11 -5.067
6.055 11 5.933 19.9 2.966 1.978 -6.056 15.94 0 -12.11 -2.101 29.91 -1.112 0 8.899 0.9888 0.9888
6.06 13.97 13.97 24.97 3.955 8.899 2.966 18.91 4.944 -2.101 3.955 56.98 11 14.96 5.933 28.92 15.94
6.065 16.93 16.93 24.97 15.94 25.96 13.97 35.97 15.94 14.96 14.96 59.94 28.92 33.99 16.93 55 24.97
6.07 14.96 8.899 19.9 11 23.98 7.91 31.89 4.944 19.9 17.92 69.96 25.96 28.92 19.9 55 23.98
6.075 0.9888 -2.101 0.9888 -5.067 8.899 -2.101 12.98 -6.056 16.93 15.94 70.94 6.921 11.99 23.98 48.94 19.9
6.08 -1.112 -19.03 -10.01 -1.112 11 0 6.921 -5.067 7.91 4.944 52.9 0 2.966 33 46.97 16.93
6.085 -26.08 -53.02 -26.08 -7.045 -6.056 -15.08 -2.101 -14.09 -4.079 -9.022 48.94 -10.01 -17.06 29.91 22.99 7.91
6.09 -60.07 -68.1 -45.11 -50.06 -45.11 -33 -31.02 -50.06 -29.04 -15.08 29.91 -43.01 -52.03 17.92 2.966 -5.067
6.095 -80.09 -78.11 -48.08 -73.04 -79.1 -45.11 -43.01 -73.04 -64.02 -36.09 -5.067 -70.08 -93.07 4.944 -33 -30.03
6.1 -96.03 -93.07 -56.11 -97.02 -114.1 -56.11 -60.07 -106 -105.1 -55 -28.06 -102.1 -138.1 -3.09 -73.04 -51.04
6.105 -94.06 -83.06 -59.08 -114.1 -128 -56.11 -79.1 -126.1 -130 -54.01 -47.09 -124.1 -158.1 -16.07 -99 -58.09
6.11 -68.1 -57.1 -39.06 -87.01 -94.06 -36.09 -68.1 -107 -130 -48.08 -69.09 -114.1 -150 -29.04 -107 -57.1
6.115 -30.03 -40.04 -17.06 -53.02 -54.01 -11 -55 -75.02 -106 -19.03 -76.01 -89.11 -117 -43.01 -107 -62.04
6.12 5.933 -1.112 0.9888 -24.1 -10.01 6.921 -41.03 -42.02 -65.01 15.94 -89.11 -59.08 -66 -57.1 -95.04 -53.02
6.125 48.94 33 28.92 23.98 37.94 25.96 -15.08 5.933 -12.11 20.89 -93.07 -10.01 -3.09 -64.02 -69.09 -30.03
6.13 83.92 56.98 51.91 70.94 80.96 50.92 9.888 52.9 39.92 28.92 -77 34.98 59.94 -56.11 -27.07 -10.01
6.135 113 103 73.91 103.9 121 73.91 39.92 91.96 95.91 53.89 -48.08 88.99 114.9 -55 20.89 14.96
6.14 137.9 146 103.9 146 159.9 93.93 77.99 136 141.9 59.94 -17.06 129.9 141.9 -55 62.91 49.93
6.145 156 152.9 124 174.9 179 103 114 167 168 70.94 13.97 158.9 147.9 -49.07 96.9 50.92
6.15 145 143 117.9 176 179 89.98 115.9 173.9 171.9 67.98 34.98 162.9 135 -57.1 123 45.98
6.155 116.9 119.9 102 151.9 154 55 97.89 154 149.9 28.92 52.9 136 103 -54.01 123 55.99
6.16 91.96 81.94 79.97 112 122 29.91 81.94 115.9 119.9 5.933 66 105.9 83.92 -37.08 126.9 55
6.165 59.94 49.93 47.96 67.98 89.98 7.91 55.99 71.93 93.93 1.978 66 77.99 59.94 -21.01 125 45.98
6.17 31.89 30.9 27.93 31.89 52.9 -13.1 29.91 27.93 59.94 -11 64.89 46.97 25.96 -10.01 96.9 33.99
6.175 18.91 13.97 17.92 23.98 22 -24.1 29.91 9.888 27.93 -22 68.97 29.91 4.944 0.9888 82.93 22
6.18 2.966 -1.112 7.91 13.97 6.921 -35.1 13.97 -2.101 3.955 -29.04 68.97 12.98 -7.045 2.966 72.92 20.89
6.185 -4.079 -1.112 0.9888 -7.045 -14.09 -51.04 -1.112 -19.03 -17.06 -51.04 70.94 -8.034 -36.09 -2.101 46.97 15.94
6.19 -7.045 -3.09 -7.045 -25.09 -27.07 -48.08 0 -29.04 -39.06 -48.08 71.93 -19.03 -43.01 4.944 38.93 -1.112
6.195 -11 -17.06 -15.08 -33 -25.09 -36.09 0.9888 -39.06 -45.11 -26.08 55.99 -25.09 -28.06 6.921 28.92 0.9888
6.2 -15.08 -13.1 -15.08 -37.08 -27.07 -31.02 -9.022 -47.09 -43.01 -19.03 33.99 -33 -23.11 0 -1.112 3.955
6.205 -1.112 -3.09 -9.022 -23.11 -13.1 -13.1 -7.045 -35.1 -33 -5.067 5.933 -27.07 -1.112 -3.09 -27.07 0
6.21 11.99 0 0.9888 -10.01 2.966 1.978 -19.03 -25.09 -14.09 11 -29.04 -23.11 8.899 -17.06 -53.02 -1.112
6.215 25.96 17.92 1.978 -3.09 11 11.99 -29.04 -9.022 0.9888 15.94 -63.03 -27.07 -2.101 -31.02 -79.1 -10.01
6.22 35.97 28.92 8.899 8.899 23.98 24.97 -22 14.96 13.97 26.94 -80.09 -17.06 1.978 -30.03 -81.08 -14.09
6.225 29.91 26.94 12.98 16.93 23.98 24.97 -22 22.99 11.99 37.94 -86.02 -6.056 0 -26.08 -67.11 -6.056
6.23 31.89 31.89 9.888 18.91 18.91 16.93 -17.06 19.9 6.921 22.99 -78.11 0 1.978 -26.08 -43.01 -3.09
6.235 35.97 34.98 0.9888 29.91 27.93 20.89 -6.056 26.94 11.99 22 -62.04 28.92 13.97 -10.01 -5.067 -1.112
6.24 47.96 35.97 0 35.97 45.98 31.89 0 29.91 27.93 37.94 -45.11 57.97 44 1.978 33 15.94
6.245 59.94 49.93 3.955 45.98 63.9 44 11.99 47.96 55.99 51.91 -29.04 71.93 66 9.888 64.89 26.94
6.25 55.99 47.96 0 50.92 77 55 3.955 59.94 77 60.93 -20.02 75.89 77 12.98 72.92 33.99
6.255 35.97 20.89 1.978 28.92 66 48.94 -4.079 36.96 71.93 64.89 -14.09 53.89 66.99 12.98 70.94 33.99
6.26 15.94 -2.101 -8.034 5.933 40.91 35.97 -8.034 8.899 52.9 39.92 0.9888 28.92 35.97 6.921 62.91 30.9
6.265 1.978 -17.06 -15.08 -3.09 15.94 17.92 -9.022 -7.045 27.93 17.92 7.91 13.97 13.97 1.978 50.92 27.93
6.27 -3.09 -20.02 -6.056 -10.01 1.978 -1.112 -4.079 -14.09 7.91 6.921 16.93 3.955 4.944 8.899 50.92 15.94
6.275 -5.067 -16.07 -10.01 -13.1 -8.034 -9.022 -4.079 -12.11 0 -4.079 15.94 -2.101 -4.079 5.933 42.89 5.933
6.28 -12.11 -19.03 -29.04 -24.1 -20.02 -17.06 -29.04 -20.02 -15.08 -16.07 0 -22 -27.07 0 14.96 3.955
6.285 -26.08 -49.07 -55 -47.09 -33 -24.1 -50.06 -51.04 -36.09 -24.1 -13.1 -44 -51.04 -1.112 -3.09 -4.079
6.29 -34.11 -72.06 -72.06 -67.11 -45.11 -28.06 -58.09 -73.04 -49.07 -34.11 -22 -61.06 -72.06 1.978 -27.07 -23.11
6.295 -34.11 -69.09 -72.06 -78.11 -54.01 -25.09 -67.11 -84.04 -61.06 -31.02 -33 -63.03 -77 3.955 -51.04 -19.03
6.3 -32.01 -62.04 -60.07 -78.11 -52.03 -26.08 -70.08 -82.07 -64.02 -23.11 -39.06 -61.06 -73.04 9.888 -59.08 -25.09
6.305 -27.07 -56.11 -54.01 -67.11 -49.07 -24.1 -64.02 -68.1 -61.06 -13.1 -43.01 -59.08 -68.1 1.978 -65.01 -25.09
6.31 -20.02 -39.06 -51.04 -50.06 -42.02 -15.08 -59.08 -48.08 -55 1.978 -49.07 -48.08 -53.02 -10.01 -71.07 -23.11
6.315 -11 -23.11 -47.09 -30.03 -23.11 -4.079 -53.02 -33 -45.11 7.91 -57.1 -40.04 -37.08 -7.045 -69.09 -27.07
6.32 -2.101 -22 -42.02 -17.06 -14.09 0 -48.08 -25.09 -29.04 0.9888 -60.07 -30.03 -22 -3.09 -53.02 -23.11
6.325 -1.112 -7.045 -31.02 -16.07 -8.034 1.978 -48.08 -17.06 -20.02 5.933 -65.01 -13.1 -8.034 -6.056 -33 -3.09
6.33 2.966 1.978 -28.06 -13.1 0 -2.101 -42.02 -13.1 -15.08 8.899 -64.02 -2.101 1.978 -1.112 -1.112 1.978
6.335 1.978 -7.045 -29.04 -4.079 1.978 0 -31.02 0.9888 -5.067 9.888 -59.08 11 7.91 -5.067 28.92 13.97
6.34 2.966 -3.09 -25.09 -2.101 5.933 1.978 -25.09 0.9888 1.978 30.9 -43.01 24.97 19.9 -4.079 52.9 35.97
6.345 9.888 -8.034 -32.01 -1.112 9.888 8.899 -22 2.966 -2.101 37.94 -21.01 23.98 24.97 1.978 64.89 31.89
6.35 11 -24.1 -38.07 -16.07 6.921 16.93 -28.06 -2.101 4.944 19.9 -9.022 15.94 15.94 1.978 58.96 19.9
6.355 14.96 -19.03 -30.03 -36.09 -1.112 23.98 -25.09 -22 0 15.94 0 3.955 19.9 0 42.89 27.93
6.36 20.89 -12.11 -20.02 -27.07 7.91 26.94 1.978 -21.01 3.955 14.96 14.96 0 20.89 0 36.96 23.98
6.365 16.93 -11 -13.1 -13.1 9.888 24.97 4.944 -9.022 12.98 14.96 13.97 1.978 23.98 -1.112 28.92 26.94
6.37 6.921 0.9888 -5.067 -16.07 0.9888 17.92 -5.067 -8.034 11.99 24.97 7.91 -8.034 19.9 -1.112 14.96 23.98
6.375 -1.112 -12.11 -22 -21.01 -2.101 11.99 -18.04 -14.09 0.9888 24.97 0 -22 4.944 0.9888 2.966 7.91
6.38 -17.06 -38.07 -46.1 -40.04 -19.03 0.9888 -44 -30.03 -5.067 6.921 -18.04 -51.04 -16.07 0 -27.07 1.978
6.385 -29.04 -41.03 -55 -67.11 -39.06 -7.045 -73.04 -61.06 -33 -3.09 -39.06 -73.04 -45.11 -5.067 -63.03 -9.022
6.39 -31.02 -48.08 -50.06 -65.01 -38.07 -11 -58.09 -66 -50.06 -11 -39.06 -78.11 -63.03 -24.1 -75.02 -28.06
6.395 -35.1 -50.06 -44 -58.09 -47.09 -24.1 -56.11 -60.07 -61.06 -18.04 -52.03 -81.08 -78.11 -34.11 -83.06 -43.01
6.4 -35.1 -39.06 -45.11 -56.11 -60.07 -34.11 -71.07 -59.08 -72.06 -26.08 -60.07 -77 -86.02 -38.07 -91.09 -53.02
