    T[sec] Fp1 Fp2  F7  F3  F4  F8  T3  C3  C4  T4  T5  P3  P4  T6  O1  O2
41 232.1 232.1 232.1 232.1 232.1 232.1 232.1 232.1 232.1 232.1 232.1 232.1 232.1 232.1 232.1 232.1
0.625 29.92 16.89 -2.04 15.98 19.95 25.95 13.94 0.9067 -15.07 7.934 -37.06 -23.01 -47.03 -9.067 -51 -71.06
0.63 43.97 30.94 0.9067 33.89 42.95 44.99 19.95 25.95 9.974 40.91 -24.03 16.89 -2.04 26.97 0 -4.08
0.635 58.94 40.91 3.967 45.9 64.94 62.9 21.99 51.91 52.93 68.91 -2.04 56.89 62.9 70.95 51.91 71.97
0.64 67.89 46.92 0 49.98 75.94 67.89 21.99 62 83.98 81.94 11.9 83.98 113.9 97.92 75.94 131.9
0.645 62.9 42.95 -1.02 42.95 68.91 59.96 15.98 64.94 96 74.92 24.93 90.9 130.9 96.9 83.98 154.9
0.65 44.99 26.97 -2.04 27.99 47.94 37.97 11.9 56.89 79.9 48.96 22.89 85.91 111 59.96 74.92 130
0.655 19.95 6.914 -7.027 3.967 15.98 11.9 5.894 39.89 35.93 11.9 11.9 65.96 62 13.94 59.96 75.94
0.66 1.927 -7.027 -12.01 -9.067 -6.007 -5.1 1.927 22.89 -2.04 -15.07 3.967 44.99 5.894 -23.01 49.98 21.99
0.665 -15.07 -23.01 -18.02 -22.1 -23.01 -19.04 -2.04 4.987 -36.04 -37.06 1.927 19.95 -31.05 -43.07 38.99 -6.007
0.67 -21.08 -29.01 -21.08 -31.05 -27.09 -21.08 0.9067 -9.067 -51 -43.07 7.934 -2.04 -53.04 -41.03 27.99 -13.03
0.675 -23.01 -29.01 -19.04 -30.03 -25.05 -15.07 0 -23.01 -46.01 -39.1 15.98 -15.07 -54.06 -25.05 21.99 -6.007
0.68 -21.08 -25.05 -15.07 -30.03 -24.03 -5.1 3.967 -39.1 -36.04 -31.05 23.91 -32.07 -50.09 -13.03 13.94 -4.08
0.685 -19.04 -19.04 -9.067 -29.01 -29.01 0.9067 5.894 -49.07 -33.09 -29.01 23.91 -47.03 -51 -15.07 -2.04 -17
0.69 -15.07 -9.067 -5.1 -24.03 -32.07 -2.04 1.927 -53.04 -41.03 -35.02 15.98 -54.06 -62.11 -31.05 -12.01 -48.05
0.695 -7.027 0.9067 -1.02 -18.02 -32.07 -2.04 -2.04 -51 -55.08 -43.07 1.927 -62.11 -78.09 -55.08 -30.03 -85
0.7 -2.04 6.914 0.9067 -7.027 -31.05 0.9067 -1.02 -43.07 -65.06 -49.07 -5.1 -65.06 -87.04 -71.06 -49.07 -111.1
0.705 11.9 16.89 0.9067 1.927 -16.09 0 -5.1 -37.06 -63.02 -43.07 -9.067 -64.04 -83.08 -69.02 -64.04 -117.1
0.71 25.95 22.89 0.9067 13.94 -2.04 5.894 -5.1 -33.09 -49.07 -23.01 -9.067 -61.09 -65.06 -51 -70.04 -101.1
0.715 35.93 26.97 -2.04 19.95 15.98 17.91 -5.1 -29.01 -23.01 -2.04 -5.1 -53.04 -37.06 -23.01 -71.06 -67.1
0.72 43.97 32.98 1.927 23.91 29.92 29.92 -3.06 -19.04 -2.04 23.91 -3.06 -33.09 -5.1 1.927 -57.01 -23.01
0.725 49.98 36.95 7.934 27.99 37.97 37.97 0 -1.02 19.95 39.89 -5.1 -5.1 15.98 23.91 -35.02 13.94
0.73 49.98 38.99 11.9 31.96 37.97 39.89 11.9 19.95 33.89 45.9 -9.067 21.99 35.93 39.89 -7.027 47.94
0.735 43.97 34.91 9.974 33.89 33.89 37.97 23.91 43.97 41.93 45.9 -13.03 47.94 49.98 49.98 9.974 71.97
0.74 35.93 22.89 0 29.92 27.99 31.96 27.99 55.99 43.97 39.89 -13.03 55.99 53.95 53.95 17.91 79.9
0.745 25.95 4.987 -9.067 19.95 21.99 21.99 17.91 47.94 39.89 29.92 -11.11 45.9 45.9 49.98 11.9 73.9
0.75 15.98 -9.067 -21.08 1.927 13.94 11.9 0 23.91 29.92 17.91 -5.1 21.99 31.96 35.93 0 55.99
0.755 7.934 -23.01 -27.09 -9.067 3.967 3.967 -13.03 0.9067 13.94 3.967 0.9067 0.9067 9.974 15.98 -6.007 33.89
0.76 0 -25.05 -25.05 -21.08 0.9067 -1.02 -21.08 -19.04 0 -3.06 1.927 -15.07 -3.06 -2.04 -10.09 15.98
0.765 -1.02 -21.08 -19.04 -27.09 -9.067 -7.027 -17 -27.09 -7.027 -11.11 1.927 -17 -17 -9.067 -9.067 5.894
0.77 -9.067 -13.03 -17 -27.09 -15.07 -13.03 -7.027 -23.01 -15.07 -15.07 -2.04 -17 -23.01 -15.07 -8.047 -2.04
0.775 -15.07 -9.067 -19.04 -25.05 -23.01 -15.07 -3.06 -19.04 -21.08 -17 -7.027 -19.04 -29.01 -19.04 -18.02 -9.067
0.78 -17 -7.027 -23.01 -25.05 -25.05 -13.03 -5.1 -19.04 -25.05 -19.04 -13.03 -33.09 -39.1 -27.09 -39.1 -31.05
0.785 -13.03 -3.06 -21.08 -23.01 -21.08 -7.027 -9.067 -25.05 -29.01 -21.08 -13.03 -49.07 -53.04 -36.04 -59.05 -61.09
0.79 -5.1 2.947 -10.09 -12.01 -13.03 0 -9.067 -29.01 -29.01 -19.04 -7.027 -57.01 -65.06 -40.01 -71.06 -90.1
0.795 3.967 8.954 0 0 -2.04 11.9 0.9067 -25.05 -23.01 -11.11 -2.04 -51 -67.1 -33.09 -65.06 -103
0.8 17.91 22.89 16.89 20.97 17.91 22.89 11.9 -11.11 -8.047 0.9067 6.914 -28.11 -51 -6.007 -40.01 -92.03
0.805 27.99 32.98 20.97 32.98 29.92 32.98 17.91 5.894 2.947 16.89 8.954 -2.04 -23.01 16.89 -10.09 -56.1
0.81 33.89 36.95 15.98 37.97 39.89 39.89 17.91 21.99 19.95 31.96 3.967 15.98 9.974 39.89 9.974 -5.1
0.815 35.93 36.95 10.99 38.99 48.96 50.89 7.934 29.92 36.95 46.92 0 28.9 41.93 52.93 21.99 46.92
0.82 39.89 38.99 12.92 36.95 56.89 58.94 1.927 27.99 52.93 58.94 -4.08 30.94 63.92 59.96 26.97 86.93
0.825 43.97 44.99 25.95 39.89 63.92 65.96 5.894 21.99 65.96 67.89 -11.11 27.99 71.97 62 21.99 103.9
0.83 48.96 56.89 39.89 49.98 70.95 69.93 15.98 13.94 77.98 75.94 -11.11 21.99 67.89 62.9 17.91 97.92
0.835 50.89 68.91 52.93 56.89 70.95 63.92 25.95 7.934 77.98 68.91 -15.07 9.974 52.93 56.89 9.974 74.92
0.84 45.9 72.99 53.95 57.91 59.96 47.94 27.99 1.927 71.97 51.91 -15.07 -2.04 33.89 37.97 5.894 47.94
0.845 36.95 68.91 45.9 47.94 40.91 25.95 24.93 0.9067 52.93 26.97 -7.027 -3.06 16.89 14.96 4.987 31.96
0.85 20.97 58.94 34.91 29.92 16.89 5.894 17.91 -1.02 28.9 0.9067 2.947 0 1.927 -3.06 10.99 27.99
0.855 4.987 42.95 29.92 16.89 -1.02 -5.1 15.98 3.967 2.947 -16.09 20.97 3.967 -2.04 -14.05 19.95 32.98
0.86 1.927 38.99 22.89 5.894 -12.01 -19.04 25.95 0.9067 -10.09 -28.11 36.95 14.96 -11.11 -17 30.94 29.92
0.865 -4.08 34.91 21.99 5.894 -18.02 -21.08 30.94 0.9067 -22.1 -34 45.9 15.98 -22.1 -12.01 30.94 17.91
0.87 -9.067 30.94 13.94 5.894 -19.04 -19.04 29.92 0.9067 -27.09 -37.06 47.94 3.967 -33.09 -19.04 21.99 -7.027
0.875 -10.09 26.97 6.914 8.954 -14.05 -15.07 21.99 -5.1 -23.01 -38.08 41.93 -11.11 -40.01 -34 0 -38.08
0.88 -14.05 16.89 0 3.967 -12.01 -11.11 13.94 -11.11 -15.07 -35.02 35.93 -25.05 -45.11 -52.02 -17 -69.02
0.885 -21.08 8.954 0.9067 -2.04 -15.07 -13.03 9.974 -9.067 -13.03 -35.02 29.92 -31.05 -47.03 -61.09 -19.04 -85
0.89 -23.01 0.9067 -1.02 -2.04 -16.09 -10.09 13.94 0.9067 -10.09 -30.03 32.98 -14.05 -43.07 -51 1.927 -84.1
0.895 -21.08 -1.02 0.9067 -10.09 -22.1 -12.01 23.91 11.9 -10.09 -22.1 38.99 12.92 -37.06 -32.07 39.89 -68
0.9 -19.04 -5.1 1.927 -13.03 -27.09 -19.04 31.96 27.99 -13.03 -19.04 45.9 49.98 -25.05 -11.11 85.91 -43.07
0.905 -17 -3.06 0.9067 -8.047 -29.01 -22.1 29.92 39.89 -14.05 -16.09 48.96 79 -9.067 1.927 118.9 -12.01
0.91 -13.03 2.947 -1.02 -2.04 -25.05 -22.1 21.99 41.93 -14.05 -12.01 42.95 92.94 -2.04 1.927 120.9 6.914
0.915 -9.067 4.987 -1.02 1.927 -9.067 -15.07 11.9 31.96 -13.03 -7.027 29.92 81.94 5.894 -2.04 93.96 17.91
0.92 -1.02 12.92 0 10.99 5.894 0.9067 3.967 13.94 -5.1 -2.04 9.974 53.95 1.927 4.987 49.98 20.97
0.925 1.927 16.89 -3.06 11.9 21.99 13.94 0 -5.1 -2.04 9.974 -5.1 11.9 -5.1 18.93 0 13.94
0.93 5.894 12.92 -5.1 7.934 27.99 21.99 0.9067 -27.09 7.934 15.98 -21.08 -29.01 -19.04 31.96 -37.06 7.934
0.935 5.894 0.9067 -11.11 -2.04 19.95 17.91 -9.067 -43.07 9.974 15.98 -33.09 -65.06 -25.05 39.89 -64.04 5.894
0.94 0.9067 -13.03 -21.08 -11.11 1.927 1.927 -21.08 -49.07 5.894 5.894 -41.03 -81.04 -15.07 35.93 -74.01 13.94
0.945 -9.067 -27.09 -27.09 -23.01 -11.11 -13.03 -29.01 -45.11 0 -3.06 -45.11 -75.03 -2.04 25.95 -67.1 23.91
0.95 -19.04 -31.05 -25.05 -27.09 -19.04 -21.08 -27.09 -29.01 -1.02 -13.03 -45.11 -49.07 15.98 11.9 -48.05 31.96
0.955 -19.04 -23.01 -15.07 -21.08 -15.07 -15.07 -17 -11.11 -1.02 -15.07 -41.03 -19.04 25.95 0 -30.03 29.92
0.96 -11.11 -9.067 -1.02 -9.067 -1.02 -2.04 -5.1 0.9067 1.927 -7.027 -31.05 -2.04 23.91 -5.1 -21.08 15.98
0.965 0.9067 2.947 5.894 -2.04 9.974 13.94 -2.04 0 13.94 1.927 -15.07 1.927 11.9 -15.07 -23.01 -7.027
0.97 1.927 8.954 7.934 5.894 17.91 19.95 0 -2.04 23.91 9.974 -2.04 -1.02 -2.04 -23.01 -31.05 -35.02
0.975 1.927 4.987 1.927 5.894 15.98 9.974 -2.04 -3.06 25.95 11.9 11.9 -11.11 -7.027 -27.09 -33.09 -55.08
0.98 0.9067 -1.02 -5.1 -2.04 5.894 -3.06 -2.04 -3.06 15.98 1.927 21.99 -11.11 -13.03 -25.05 -19.04 -59.05
0.985 -7.027 -13.03 -17 -9.067 -5.1 -21.08 1.927 0.9067 1.927 -7.027 21.99 0 -11.11 -15.07 7.934 -43.07
0.99 -13.03 -19.04 -25.05 -21.08 -17 -33.09 5.894 3.967 -7.027 -19.04 15.98 25.95 -3.06 -3.06 45.9 -11.11
0.995 -15.07 -23.01 -29.01 -29.01 -23.01 -37.06 5.894 11.9 -11.11 -21.08 7.934 47.94 1.927 3.967 75.94 21.99
1 -17 -23.01 -31.05 -33.09 -21.08 -35.02 3.967 11.9 -7.027 -17 1.927 59.96 9.974 13.94 83.98 53.95
1.005 -19.04 -25.05 -33.09 -31.05 -14.05 -31.05 0 5.894 -2.04 -7.027 1.927 51.91 13.94 19.95 71.97 69.93
1.01 -25.05 -29.01 -33.09 -29.01 -11.11 -25.05 -1.02 -2.04 1.927 -1.02 5.894 33.89 9.974 17.91 45.9 65.96
1.015 -31.05 -29.01 -31.05 -25.05 -12.01 -21.08 -3.06 -7.027 -2.04 -1.02 7.934 12.92 -1.02 9.974 20.97 50.89
1.02 -33.09 -27.09 -27.09 -22.1 -20.06 -17 -5.1 -13.03 -11.11 -9.067 3.967 -4.08 -14.05 -2.04 -1.02 28.9
1.025 -27.09 -21.08 -23.01 -21.08 -25.05 -15.07 -7.027 -21.08 -31.05 -19.04 -1.02 -21.08 -31.05 -13.03 -15.07 9.974
1.03 -13.03 -13.03 -21.08 -16.09 -28.11 -15.07 -9.067 -27.09 -45.11 -25.05 -11.11 -32.07 -38.08 -23.01 -30.03 -1.02
1.035 -2.04 -5.1 -19.04 -6.007 -23.01 -17 -7.027 -29.01 -46.01 -25.05 -21.08 -36.04 -32.07 -25.05 -42.05 0
1.04 9.974 0.9067 -17 -2.04 -11.11 -13.03 -3.06 -25.05 -37.06 -17 -25.05 -37.06 -19.04 -17 -51 0.9067
1.045 13.94 0.9067 -11.11 8.954 -2.04 -6.007 2.947 -15.07 -14.05 -7.027 -24.03 -29.01 -1.02 -7.027 -51 -1.02
1.05 11.9 6.914 -3.06 19.95 10.99 0 8.954 0.9067 0.9067 0.9067 -14.05 -19.04 3.967 -3.06 -47.03 -9.067
1.055 7.934 12.92 -2.04 23.91 11.9 0 9.974 7.934 9.974 0.9067 -1.02 -9.067 0 -9.067 -41.03 -29.01
1.06 3.967 16.89 -2.04 21.99 11.9 2.947 6.914 13.94 8.954 -1.02 8.954 0 -8.047 -21.08 -30.03 -51
1.065 1.927 16.89 0.9067 18.93 8.954 -1.02 2.947 16.89 0 -5.1 24.93 0.9067 -24.03 -29.01 -20.06 -70.04
1.07 1.927 12.92 -5.1 13.94 7.934 -5.1 3.967 15.98 -5.1 -9.067 31.96 7.934 -35.02 -33.09 0.9067 -83.08
1.075 3.967 6.914 -8.047 11.9 4.987 -9.067 15.98 16.89 -7.027 -8.047 37.97 16.89 -34 -25.05 20.97 -78.09
1.08 0 0.9067 -4.08 10.99 2.947 -17 27.99 16.89 1.927 -6.007 37.97 28.9 -17 -12.01 49.98 -55.08
1.085 0.9067 -1.02 0.9067 7.934 0.9067 -23.01 37.97 19.95 9.974 -3.06 39.89 35.93 -2.04 0.9067 71.97 -19.04
1.09 0 -1.02 1.927 5.894 -2.04 -21.08 38.99 23.91 21.99 1.927 41.93 43.97 22.89 8.954 82.96 23.91
1.095 1.927 -1.02 1.927 6.914 -4.08 -16.09 29.92 24.93 24.93 6.914 40.91 44.99 34.91 15.98 77.98 59.96
1.1 3.967 2.947 0.9067 6.914 -4.08 -8.047 11.9 21.99 19.95 13.94 30.94 42.95 36.95 18.93 62 82.96
1.105 7.934 -1.02 -3.06 4.987 1.927 0 0.9067 14.96 6.914 10.99 2.947 32.98 28.9 13.94 37.97 79.9
1.11 10.99 4.987 -5.1 1.927 2.947 0 -6.007 0 0.9067 7.934 -27.09 17.91 16.89 6.914 12.92 67.89
1.115 5.894 2.947 -7.027 -2.04 3.967 1.927 -13.03 -15.07 -5.1 1.927 -53.04 -5.1 5.894 0 -11.11 39.89
1.12 1.927 -1.02 -10.09 -2.04 0.9067 -2.04 -21.08 -34 -4.08 -1.02 -61.09 -32.07 -2.04 1.927 -41.03 19.95
1.125 0 0.9067 -18.02 -7.027 -2.04 -1.02 -25.05 -54.06 -1.02 1.927 -45.11 -60.07 -2.04 -3.06 -66.08 2.947
1.13 -2.04 -5.1 -27.09 -13.03 -15.07 -13.03 -33.09 -61.09 -3.06 -3.06 -25.05 -79.11 -11.11 -3.06 -81.04 -3.06
1.135 -2.04 -5.1 -31.05 -10.09 -22.1 -20.06 -30.03 -54.06 -7.027 -11.11 0 -76.05 -16.09 -11.11 -78.09 -10.09
1.14 -1.02 -5.1 -29.01 -7.027 -27.09 -24.03 -22.1 -37.06 -18.02 -23.01 6.914 -60.07 -22.1 -21.08 -64.04 -15.07
1.145 -9.067 -5.1 -23.01 -3.06 -25.05 -27.09 -9.067 -13.03 -29.01 -29.01 7.934 -31.05 -27.09 -29.01 -35.02 -23.01
1.15 -21.08 -5.1 -15.07 1.927 -22.1 -20.06 2.947 5.894 -28.11 -29.01 6.914 -2.04 -25.05 -31.05 -1.02 -33.09
1.155 -29.01 -5.1 -13.03 -1.02 -17 -12.01 10.99 21.99 -20.06 -21.08 8.954 27.99 -19.04 -23.01 21.99 -37.06
1.16 -31.05 -5.1 -21.08 0 -13.03 -7.027 13.94 23.91 -7.027 -11.11 9.974 41.93 -11.11 -9.067 37.97 -41.03
1.165 -27.09 -5.1 -33.09 1.927 -9.067 -7.027 9.974 13.94 -1.02 -3.06 11.9 46.92 -2.04 -2.04 48.96 -34
1.17 -19.04 -5.1 -43.07 -4.08 -12.01 -15.07 1.927 0 -2.04 -3.06 5.894 36.95 -2.04 -2.04 50.89 -20.06
1.175 -9.067 -5.1 -43.07 -11.11 -15.07 -25.05 0.9067 -7.027 -5.1 -11.11 0 21.99 -5.1 -7.027 43.97 0.9067
1.18 -3.06 -5.1 -37.06 -12.01 -14.05 -29.01 -5.1 -13.03 -13.03 -15.07 -3.06 8.954 -8.047 -19.04 34.91 14.96
1.185 -2.04 -5.1 -25.05 -13.03 -12.01 -21.08 -7.027 -5.1 -15.07 -11.11 -7.027 2.947 -8.047 -19.04 28.9 34.91
1.19 1.927 -3.06 -17 -9.067 -7.027 -5.1 -9.067 3.967 -7.027 0.9067 -7.027 5.894 -1.02 -5.1 19.95 45.9
1.195 5.894 -1.02 -13.03 -5.1 0 5.894 -9.067 15.98 3.967 11.9 -9.067 15.98 11.9 15.98 15.98 53.95
1.2 7.934 -3.06 -17 -1.02 -2.04 11.9 -11.11 17.91 19.95 19.95 -11.11 25.95 31.96 37.97 15.98 53.95
1.205 11.9 -9.067 -23.01 -1.02 0 11.9 -15.07 9.974 27.99 21.99 -17 27.99 47.94 49.98 15.98 51.91
1.21 13.94 -11.11 -25.05 -1.02 3.967 7.934 -19.04 0 29.92 21.99 -25.05 21.99 53.95 47.94 9.974 47.94
1.215 15.98 -9.067 -21.08 0 9.974 7.934 -17 -3.06 27.99 19.95 -31.05 9.974 49.98 33.89 0.9067 43.97
1.22 19.95 -1.02 -9.067 11.9 17.91 13.94 -7.027 0.9067 27.99 23.91 -33.09 -1.02 35.93 19.95 -25.05 37.97
1.225 23.91 12.92 0 23.91 21.99 19.95 3.967 7.934 29.92 23.91 -33.09 -13.03 21.99 7.934 -53.04 21.99
1.23 21.99 24.93 9.974 31.96 19.95 19.95 15.98 17.91 25.95 17.91 -27.09 -23.01 3.967 0.9067 -77.07 -1.02
1.235 15.98 24.93 11.9 27.99 9.974 7.934 15.98 17.91 15.98 1.927 -15.07 -27.09 -7.027 -11.11 -85 -37.06
1.24 5.894 16.89 9.974 13.94 0.9067 -3.06 7.934 7.934 0 -13.03 0.9067 -27.09 -23.01 -25.05 -73.1 -73.1
1.245 -1.02 6.914 7.934 0 -13.03 -17 0 -2.04 -13.03 -29.01 17.91 -17 -35.02 -35.02 -41.03 -93.05
1.25 -7.027 -1.02 9.974 -1.02 -19.04 -19.04 1.927 -3.06 -23.01 -31.05 37.97 -1.02 -39.1 -33.09 -2.04 -89.08
1.255 -9.067 0.9067 15.98 -2.04 -15.07 -13.03 13.94 0 -23.01 -19.04 51.91 13.94 -31.05 -19.04 39.89 -61.09
1.26 -7.027 8.954 23.91 7.934 -9.067 -3.06 29.92 15.98 -13.03 0.9067 57.91 31.96 -19.04 0.9067 71.97 -23.01
1.265 -5.1 16.89 27.99 15.98 -1.02 0 37.97 29.92 -1.02 9.974 51.91 41.93 -3.06 11.9 86.93 5.894
1.27 -3.06 18.93 23.91 17.91 -2.04 1.927 31.96 33.89 5.894 17.91 39.89 45.9 3.967 15.98 81.94 23.91
1.275 1.927 14.96 15.98 12.92 2.947 3.967 16.89 27.99 15.98 19.95 19.95 41.93 14.96 11.9 70.95 28.9
1.28 0.9067 8.954 5.894 4.987 4.987 5.894 0.9067 16.89 21.99 17.91 2.947 35.93 22.89 7.934 54.97 24.93
1.285 7.934 4.987 0 -2.04 7.934 11.9 -1.02 3.967 25.95 19.95 -7.027 23.91 25.95 7.934 37.97 17.91
1.29 18.93 2.947 0 1.927 14.96 19.95 -1.02 1.927 29.92 23.91 -14.05 16.89 30.94 13.94 22.89 16.89
1.295 26.97 4.987 4.987 -1.02 14.96 25.95 2.947 0 31.96 27.99 -14.05 2.947 36.95 19.95 3.967 18.93
1.3 33.89 8.954 9.974 3.967 15.98 29.92 0 -1.02 29.92 27.99 -11.11 -5.1 35.93 21.99 -19.04 21.99
1.305 39.89 12.92 14.96 11.9 16.89 29.92 0.9067 0 27.99 28.9 -2.04 -14.05 35.93 21.99 -41.03 29.92
1.31 39.89 16.89 14.96 11.9 19.95 25.95 -7.027 -1.02 27.99 28.9 -1.02 -16.09 31.96 20.97 -56.1 35.93
1.315 33.89 16.89 11.9 11.9 19.95 21.99 -13.03 -2.04 25.95 25.95 0 -15.07 29.92 15.98 -61.09 35.93
1.32 24.93 10.99 10.99 6.914 18.93 13.94 -10.09 0.9067 24.93 20.97 -1.02 -8.047 24.93 12.92 -53.04 30.94
1.325 11.9 2.947 3.967 -1.02 6.914 1.927 -3.06 -6.007 14.96 11.9 -4.08 -7.027 11.9 6.914 -40.01 15.98
1.33 -1.02 -13.03 -1.02 -15.07 -3.06 -3.06 -1.02 -15.07 -2.04 -1.02 -9.067 -9.067 0.9067 0.9067 -23.01 -3.06
1.335 -14.05 -25.05 -13.03 -25.05 -20.06 -10.09 -1.02 -19.04 -13.03 -14.05 -1.02 -7.027 -19.04 -7.027 -2.04 -26.07
1.34 -22.1 -33.09 -23.01 -30.03 -33.09 -14.05 0.9067 -22.1 -32.07 -27.09 3.967 1.927 -36.04 -11.11 14.96 -36.04
1.345 -19.04 -35.02 -30.03 -29.01 -40.01 -8.047 1.927 -15.07 -39.1 -25.05 16.89 13.94 -42.05 -6.007 37.97 -29.01
1.35 -14.05 -29.01 -23.01 -24.03 -35.02 1.927 0.9067 -6.007 -38.08 -19.04 23.91 33.89 -34 0.9067 52.93 -8.047
1.355 -4.08 -21.08 -9.067 -19.04 -18.02 8.954 0.9067 1.927 -24.03 -6.007 29.92 49.98 -13.03 5.894 58.94 14.96
1.36 1.927 -11.11 1.927 -11.11 -1.02 17.91 0 -2.04 -5.1 1.927 23.91 49.98 5.894 13.94 55.99 31.96
1.365 15.98 -1.02 15.98 -1.02 14.96 27.99 1.927 0.9067 8.954 15.98 20.97 45.9 25.95 22.89 46.92 43.97
1.37 28.9 14.96 18.93 6.914 32.98 39.89 2.947 3.967 24.93 28.9 11.9 32.98 34.91 32.98 33.89 44.99
1.375 41.93 24.93 17.91 17.91 47.94 49.98 3.967 9.974 35.93 39.89 3.967 23.91 33.89 37.97 21.99 41.93
1.38 53.95 32.98 14.96 27.99 55.99 55.99 5.894 20.97 43.97 50.89 1.927 20.97 29.92 44.99 12.92 43.97
1.385 59.96 30.94 18.93 35.93 56.89 59.96 0 24.93 51.91 60.98 -4.08 14.96 33.89 43.97 1.927 45.9
1.39 57.91 24.93 25.95 39.89 53.95 57.91 -1.02 23.91 55.99 59.96 -5.1 7.934 33.89 39.89 -5.1 45.9
1.395 52.93 18.93 34.91 42.95 50.89 51.91 -2.04 20.97 57.91 53.95 1.927 0.9067 44.99 37.97 -13.03 42.95
1.4 48.96 16.89 39.89 44.99 48.96 45.9 -1.02 16.89 59.96 43.97 6.914 0 52.93 31.96 -20.06 28.9
1.405 43.97 24.93 43.97 45.9 47.94 39.89 13.94 21.99 55.99 31.96 13.94 -2.04 53.95 25.95 -23.01 7.934
1.41 40.91 36.95 43.97 48.96 42.95 33.89 32.98 32.98 51.91 23.91 14.96 9.974 44.99 19.95 -20.06 -10.09
1.415 34.91 44.99 43.97 48.96 34.91 27.99 44.99 45.9 41.93 15.98 9.974 23.91 26.97 5.894 -14.05 -34
1.42 23.91 44.99 39.89 41.93 19.95 19.95 45.9 49.98 27.99 7.934 5.894 29.92 1.927 -5.1 -17 -51
1.425 9.974 32.98 29.92 27.99 0 7.934 33.89 41.93 13.94 -1.02 1.927 21.99 -17 -19.04 -16.09 -55.08
1.43 -1.02 12.92 9.974 5.894 -19.04 -5.1 11.9 21.99 0.9067 -17 0 5.894 -37.06 -27.09 -17 -45.11
1.435 -15.07 -7.027 -9.067 -13.03 -41.03 -23.01 -9.067 0.9067 -21.08 -35.02 0.9067 -7.027 -49.07 -31.05 -11.11 -29.01
1.44 -27.09 -27.09 -31.05 -35.02 -57.01 -39.1 -31.05 -23.01 -41.03 -49.07 -5.1 -15.07 -51 -29.01 -2.04 -9.067
1.445 -35.02 -37.06 -41.03 -47.03 -61.09 -43.07 -39.1 -35.02 -53.04 -53.04 -9.067 -15.07 -45.11 -19.04 13.94 3.967
1.45 -37.06 -35.02 -39.1 -49.07 -57.01 -37.06 -33.09 -39.1 -55.08 -43.07 -7.027 -7.027 -33.09 -3.06 25.95 17.91
1.455 -33.09 -23.01 -27.09 -39.1 -43.07 -19.04 -21.08 -33.09 -45.11 -23.01 -2.04 0.9067 -19.04 7.934 27.99 25.95
1.46 -21.08 -9.067 -15.07 -25.05 -27.09 0.9067 -7.027 -25.05 -27.09 -3.06 7.934 -2.04 -9.067 17.91 21.99 25.95
1.465 -7.027 0.9067 -3.06 -11.11 -11.11 13.94 0.9067 -19.04 -11.11 7.934 11.9 -1.02 -5.1 17.91 11.9 15.98
1.47 5.894 10.99 0 0.9067 0.9067 23.91 0 -17 -3.06 11.9 7.934 -9.067 -7.027 7.934 1.927 0
1.475 19.95 14.96 11.9 3.967 3.967 31.96 1.927 -13.03 0.9067 11.9 1.927 -13.03 -9.067 -2.04 -2.04 -17
1.48 31.96 16.89 25.95 13.94 15.98 37.97 7.934 -5.1 1.927 13.94 0 -11.11 -3.06 -1.02 0.9067 -33.09
1.485 39.89 22.89 39.89 27.99 31.96 47.94 15.98 9.974 17.91 23.91 5.894 0.9067 9.974 3.967 -1.02 -35.02
1.49 47.94 34.91 47.94 45.9 53.95 59.96 25.95 33.89 45.9 41.93 11.9 13.94 37.97 25.95 -7.027 -23.01
1.495 55.99 48.96 45.9 63.92 75.94 69.93 29.92 57.91 75.94 62 9.974 31.96 67.89 51.91 -17 -2.04
1.5 59.96 56.89 37.97 73.9 85.91 71.97 31.96 71.97 96 75.94 0 45.9 89.99 69.93 -23.01 27.99
1.505 57.91 56.89 29.92 75.94 80.92 62 29.92 71.97 96 73.9 -7.027 51.91 91.92 73.9 -15.07 49.98
1.51 45.9 48.96 23.91 69.93 56.89 41.93 27.99 63.92 75.94 57.91 -11.11 49.98 73.9 62 0.9067 57.91
1.515 25.95 32.98 19.95 53.95 19.95 15.98 29.92 49.98 43.97 29.92 -3.06 43.97 43.97 37.97 31.96 51.91
1.52 3.967 14.96 13.94 31.96 -2.04 -1.02 27.99 36.95 13.94 0 11.9 37.97 9.974 11.9 60.98 34.91
1.525 -9.067 -1.02 0 10.99 -20.06 -17 17.91 24.93 -3.06 -18.02 25.95 33.89 -11.11 -9.067 70.95 16.89
1.53 -21.08 -15.07 -13.03 -3.06 -23.01 -23.01 -2.04 11.9 -15.07 -35.02 27.99 25.95 -23.01 -29.01 65.96 1.927
1.535 -27.09 -27.09 -29.01 -18.02 -21.08 -23.01 -16.09 -1.02 -17 -40.01 17.91 14.96 -25.05 -43.07 52.93 0
1.54 -27.09 -37.06 -33.09 -24.03 -21.08 -20.06 -28.11 -8.047 -19.04 -42.05 7.934 6.914 -25.05 -43.07 45.9 0
1.545 -27.09 -41.03 -29.01 -23.01 -23.01 -19.04 -25.05 -17 -21.08 -43.07 9.974 1.927 -25.05 -37.06 47.94 -1.02
1.55 -23.01 -35.02 -19.04 -14.05 -26.07 -16.09 -10.09 -15.07 -25.05 -36.04 21.99 4.987 -23.01 -22.1 57.91 1.927
1.555 -15.07 -25.05 -7.027 -2.04 -21.08 -12.01 0.9067 -11.11 -23.01 -23.01 37.97 10.99 -17 -2.04 64.94 7.934
1.56 -1.02 -13.03 -1.02 3.967 -9.067 -1.02 7.934 -9.067 -13.03 -3.06 41.93 11.9 -3.06 15.98 55.99 17.91
1.565 10.99 -1.02 -1.02 13.94 11.9 10.99 11.9 -6.007 0.9067 17.91 27.99 9.974 15.98 36.95 33.89 28.9
1.57 22.89 2.947 2.947 18.93 32.98 31.96 6.914 -5.1 24.93 44.99 3.967 0 44.99 50.89 6.914 31.96
1.575 27.99 10.99 9.974 17.91 45.9 41.93 7.934 -5.1 43.97 57.91 -17 -1.02 67.89 51.91 -5.1 25.95
1.58 26.97 16.89 16.89 19.95 46.92 45.9 16.89 0.9067 55.99 57.91 -29.01 -1.02 74.92 42.95 -8.047 10.99
1.585 22.89 16.89 24.93 21.99 37.97 37.97 26.97 6.914 55.99 43.97 -24.03 5.894 63.92 23.91 -2.04 -11.11
1.59 16.89 12.92 22.89 19.95 21.99 25.95 30.94 18.93 43.97 26.97 -12.01 17.91 44.99 2.947 0.9067 -31.05
1.595 16.89 2.947 16.89 19.95 17.91 13.94 22.89 22.89 31.96 13.94 -1.02 21.99 17.91 -1.02 -2.04 -45.11
1.6 18.93 -1.02 8.954 17.91 14.96 9.974 12.92 27.99 17.91 11.9 3.967 22.89 2.947 0 -12.01 -38.08
1.605 17.91 0.9067 3.967 9.974 15.98 5.894 1.927 25.95 9.974 13.94 3.967 17.91 -1.02 5.894 -21.08 -23.01
1.61 12.92 -1.02 2.947 2.947 18.93 7.934 -1.02 25.95 6.914 16.89 0.9067 13.94 0 16.89 -20.06 -5.1
1.615 6.914 2.947 2.947 -3.06 15.98 2.947 0 20.97 2.947 9.974 -3.06 9.974 -5.1 16.89 -15.07 1.927
1.62 -1.02 -1.02 1.927 -9.067 7.934 0.9067 -2.04 11.9 -2.04 -2.04 -3.06 -2.04 -15.07 0 -15.07 -5.1
1.625 -9.067 -1.02 1.927 -8.047 1.927 -6.007 -1.02 3.967 -5.1 -7.027 -3.06 -8.047 -31.05 -10.09 -14.05 -21.08
1.63 -11.11 -3.06 7.934 -6.007 1.927 -8.047 1.927 -3.06 -7.027 -10.09 -5.1 -24.03 -39.1 -22.1 -17 -31.05
1.635 -7.027 -1.02 15.98 0.9067 1.927 -5.1 0.9067 -11.11 -5.1 -3.06 -13.03 -33.09 -35.02 -23.01 -17 -33.09
1.64 -1.02 4.987 23.91 8.954 13.94 2.947 -1.02 0 0 6.914 -25.05 -26.07 -15.07 -9.067 -9.067 -14.05
1.645 1.927 18.93 31.96 22.89 31.96 14.96 6.914 10.99 15.98 22.89 -35.02 -10.09 11.9 3.967 0 10.99
1.65 9.974 28.9 35.93 29.92 39.89 21.99 11.9 29.92 33.89 31.96 -31.05 5.894 43.97 19.95 5.894 39.89
1.655 13.94 34.91 35.93 32.98 44.99 21.99 13.94 38.99 47.94 34.91 -19.04 23.91 63.92 27.99 16.89 54.97
1.66 13.94 34.91 29.92 27.99 40.91 15.98 13.94 36.95 49.98 25.95 0.9067 29.92 65.96 29.92 16.89 48.96
1.665 9.974 30.94 19.95 19.95 29.92 7.934 7.934 23.91 43.97 15.98 15.98 21.99 43.97 25.95 9.974 23.91
1.67 3.967 24.93 13.94 9.974 18.93 0 3.967 5.894 31.96 5.894 23.91 7.934 17.91 17.91 -1.02 -1.02
1.675 -2.04 16.89 9.974 5.894 10.99 -1.02 0 -1.02 15.98 0 19.95 0.9067 -1.02 7.934 -5.1 -21.08
1.68 -1.02 8.954 11.9 5.894 3.967 -1.02 0 -3.06 3.967 0 7.934 -7.027 -13.03 1.927 -11.11 -21.08
1.685 -3.06 0.9067 13.94 9.974 3.967 0.9067 3.967 0.9067 0 7.934 -3.06 -9.067 -9.067 1.927 -13.03 -3.06
1.69 -3.06 -1.02 17.91 11.9 9.974 0 7.934 3.967 7.934 17.91 -17 -7.027 0 7.934 -11.11 17.91
1.695 -5.1 -1.02 17.91 9.974 13.94 3.967 7.934 11.9 19.95 25.95 -25.05 -1.02 19.95 15.98 -9.067 43.97
1.7 -9.067 -1.02 11.9 7.934 15.98 1.927 3.967 15.98 33.89 23.91 -25.05 0 29.92 21.99 -5.1 55.99
1.705 -13.03 0.9067 3.967 1.927 11.9 -1.02 -2.04 13.94 35.93 11.9 -15.07 5.894 27.99 17.91 0.9067 49.98
1.71 -19.04 -3.06 -1.02 0.9067 0 -19.04 -1.02 5.894 25.95 -5.1 0.9067 9.974 9.974 1.927 3.967 27.99
1.715 -25.05 -13.03 -13.03 -9.067 -15.07 -41.03 -1.02 -1.02 1.927 -31.05 11.9 7.934 -15.07 -19.04 13.94 0
1.72 -33.09 -27.09 -25.05 -21.08 -35.02 -61.09 -3.06 -17 -25.05 -53.04 19.95 3.967 -43.07 -43.07 23.91 -19.04
1.725 -41.03 -41.03 -35.02 -31.05 -53.04 -71.06 -7.027 -35.02 -49.07 -63.02 15.98 0.9067 -59.05 -55.08 27.99 -27.09
1.73 -47.03 -51 -41.03 -39.1 -61.09 -65.06 -13.03 -47.03 -59.05 -57.01 1.927 -7.027 -55.08 -49.07 31.96 -15.07
1.735 -49.07 -51 -43.07 -41.03 -55.08 -47.03 -17 -49.07 -49.07 -37.06 -5.1 -11.11 -31.05 -25.05 29.92 3.967
1.74 -41.03 -43.07 -37.06 -37.06 -41.03 -27.09 -17 -41.03 -27.09 -11.11 -11.11 -11.11 -3.06 0 26.97 27.99
1.745 -27.09 -31.05 -27.09 -27.09 -25.05 -13.03 -13.03 -27.09 -5.1 1.927 -7.027 -5.1 13.94 23.91 15.98 37.97
1.75 -13.03 -19.04 -15.07 -17 -11.11 -9.067 -5.1 -15.07 1.927 5.894 -2.04 -2.04 17.91 25.95 2.947 27.99
1.755 -5.1 -9.067 -5.1 -9.067 -9.067 -17 -1.02 -9.067 0 -3.06 5.894 1.927 3.967 5.894 -6.007 -1.02
1.76 -5.1 -1.02 0.9067 -5.1 -9.067 -27.09 -1.02 -7.027 -7.027 -25.05 5.894 3.967 -17 -23.01 -15.07 -43.07
1.765 -9.067 -1.02 -2.04 -3.06 -13.03 -29.01 -3.06 -5.1 -23.01 -43.07 -2.04 2.947 -39.1 -53.04 -13.03 -79.11
1.77 -11.11 2.947 -2.04 -1.02 -15.07 -18.02 -3.06 -3.06 -28.11 -46.01 -9.067 1.927 -49.07 -65.06 -9.067 -98.04
1.775 -5.1 4.987 -2.04 -2.04 -11.11 -3.06 -5.1 -3.06 -25.05 -33.09 -21.08 -7.027 -45.11 -57.01 -13.03 -99.06
1.78 3.967 6.914 -2.04 0 -3.06 4.987 -5.1 -6.007 -12.01 -12.01 -31.05 -20.06 -37.06 -32.07 -27.09 -82.06
1.785 17.91 10.99 0.9067 5.894 2.947 6.914 -9.067 -14.05 -2.04 2.947 -35.02 -34 -29.01 -10.09 -52.02 -64.04
1.79 25.95 14.96 -2.04 5.894 5.894 0 -11.11 -23.01 -2.04 7.934 -35.02 -47.03 -29.01 -1.02 -73.1 -51
1.795 23.91 14.96 1.927 7.934 8.954 -4.08 -11.11 -26.07 0 8.954 -31.05 -51 -31.05 -2.04 -81.04 -40.01
1.8 17.91 14.96 5.894 9.974 8.954 -10.09 -6.007 -18.02 -2.04 0.9067 -27.09 -41.03 -29.01 -4.08 -70.04 -31.05
1.805 11.9 6.914 7.934 9.974 9.974 -9.067 -1.02 -7.027 -1.02 -2.04 -23.01 -31.05 -21.08 -1.02 -49.07 -23.01
1.81 7.934 0.9067 8.954 7.934 14.96 -1.02 -1.02 0.9067 1.927 1.927 -23.01 -10.09 -4.08 5.894 -22.1 -1.02
1.815 9.974 -1.02 -1.02 3.967 19.95 -1.02 0 7.934 14.96 4.987 -19.04 0 10.99 15.98 -3.06 22.89
1.82 9.974 -1.02 -7.027 0 17.91 0.9067 -7.027 3.967 17.91 3.967 -15.07 7.934 23.91 19.95 3.967 47.94
1.825 3.967 -1.02 -9.067 0.9067 13.94 -7.027 -11.11 0 19.95 1.927 -11.11 15.98 32.98 14.96 17.91 65.96
1.83 0 2.947 -7.027 -4.08 6.914 -21.08 -11.11 1.927 7.934 -7.027 -3.06 22.89 32.98 7.934 29.92 66.98
1.835 -12.01 -3.06 0 -8.047 1.927 -28.11 -4.08 9.974 1.927 -21.08 -1.02 26.97 26.97 0 37.97 50.89
1.84 -20.06 -11.11 5.894 -8.047 -2.04 -31.05 -2.04 23.91 -3.06 -23.01 -2.04 30.94 18.93 1.927 33.89 20.97
1.845 -25.05 -23.01 7.934 -9.067 -5.1 -25.05 1.927 27.99 -3.06 -21.08 1.927 27.99 10.99 -4.08 19.95 -11.11
1.85 -21.08 -25.05 -2.04 -11.11 -9.067 -23.01 1.927 21.99 -7.027 -19.04 7.934 13.94 -3.06 -11.11 0.9067 -43.07
1.855 -15.07 -27.09 -8.047 -17 -7.027 -22.1 0.9067 3.967 -14.05 -14.05 9.974 0.9067 -20.06 -21.08 -11.11 -62.11
1.86 -7.027 -27.09 -20.06 -25.05 -10.09 -23.01 0 -20.06 -25.05 -13.03 13.94 -20.06 -36.04 -25.05 -12.01 -71.06
1.865 -3.06 -27.09 -27.09 -35.02 -9.067 -23.01 -9.067 -43.07 -35.02 -17 7.934 -29.01 -47.03 -25.05 -2.04 -65.06
1.87 0 -29.01 -27.09 -41.03 -8.047 -20.06 -16.09 -52.02 -40.01 -18.02 0.9067 -25.05 -45.11 -20.06 16.89 -49.07
1.875 1.927 -31.05 -25.05 -37.06 -4.08 -12.01 -25.05 -44.09 -36.04 -20.06 -13.03 -13.03 -39.1 -16.09 29.92 -38.08
1.88 1.927 -27.09 -21.08 -31.05 0.9067 -9.067 -29.01 -29.01 -31.05 -23.01 -23.01 -1.02 -31.05 -23.01 27.99 -29.01
1.885 1.927 -21.08 -19.04 -21.08 2.947 -2.04 -27.09 -16.09 -20.06 -22.1 -21.08 -1.02 -27.09 -30.03 12.92 -26.07
1.89 0 -15.07 -25.05 -19.04 5.894 -2.04 -25.05 -19.04 -14.05 -20.06 -9.067 -10.09 -27.09 -36.04 -9.067 -26.07
1.895 0.9067 -17 -33.09 -21.08 3.967 -3.06 -27.09 -33.09 -13.03 -17 -1.02 -41.03 -31.05 -33.09 -41.03 -23.01
1.9 -1.02 -27.09 -41.03 -29.01 0.9067 -2.04 -33.09 -51 -10.09 -10.09 -5.1 -72.08 -29.01 -21.08 -65.06 -14.05
1.905 -5.1 -41.03 -45.11 -39.1 -9.067 -3.06 -39.1 -59.05 -9.067 -5.1 -17 -90.1 -17 -5.1 -79.11 -2.04
1.91 -7.027 -49.07 -43.07 -41.03 -15.07 -3.06 -39.1 -53.04 -7.027 -1.02 -31.05 -85 -1.02 1.927 -73.1 17.91
1.915 -9.067 -49.07 -33.09 -35.02 -15.07 -5.1 -31.05 -35.02 -7.027 -2.04 -35.02 -53.04 9.974 9.974 -46.01 35.93
1.92 -11.11 -41.03 -23.01 -23.01 -13.03 -9.067 -17 -13.03 -7.027 1.927 -25.05 -13.03 23.91 15.98 -10.09 49.98
1.925 -15.07 -27.09 -19.04 -13.03 -9.067 -13.03 -5.1 -2.04 -9.067 1.927 -7.027 15.98 29.92 23.91 13.94 55.99
1.93 -19.04 -15.07 -21.08 -7.027 -5.1 -19.04 -1.02 3.967 -9.067 -2.04 5.894 29.92 29.92 25.95 26.97 53.95
1.935 -21.08 -9.067 -27.09 -7.027 -7.027 -21.08 -5.1 0 -9.067 -3.06 11.9 25.95 23.91 17.91 17.91 41.93
1.94 -17 -7.027 -31.05 -9.067 -9.067 -21.08 -13.03 -3.06 -9.067 -11.11 7.934 7.934 13.94 0.9067 -2.04 21.99
1.945 -11.11 -9.067 -29.01 -11.11 -9.067 -21.08 -19.04 -11.11 -9.067 -19.04 -2.04 -3.06 -2.04 -27.09 -15.07 -2.04
1.95 -3.06 -11.11 -25.05 -11.11 -7.027 -19.04 -23.01 -13.03 -11.11 -27.09 -3.06 -9.067 -13.03 -49.07 -19.04 -17
1.955 -2.04 -11.11 -19.04 -9.067 -5.1 -21.08 -23.01 -11.11 -17 -31.05 -5.1 -5.1 -31.05 -57.01 -9.067 -33.09
1.96 -2.04 -7.027 -15.07 -9.067 -9.067 -23.01 -21.08 -11.11 -27.09 -37.06 -5.1 -2.04 -45.11 -53.04 -2.04 -47.03
1.965 -2.04 -5.1 -17 -13.03 -15.07 -25.05 -15.07 -15.07 -41.03 -41.03 -7.027 0 -57.01 -45.11 1.927 -59.05
1.97 -2.04 -3.06 -15.07 -17 -21.08 -23.01 -9.067 -23.01 -51 -43.07 -15.07 -3.06 -63.02 -37.06 -3.06 -73.1
1.975 0 -1.02 -13.03 -19.04 -21.08 -17 -5.1 -31.05 -55.08 -37.06 -21.08 -21.08 -63.02 -31.05 -31.05 -83.08
1.98 5.894 0.9067 -9.067 -15.07 -13.03 -5.1 -5.1 -37.06 -47.03 -25.05 -23.01 -43.07 -51 -23.01 -65.06 -81.04
1.985 11.9 0.9067 -9.067 -7.027 0.9067 3.967 -11.11 -37.06 -29.01 -9.067 -21.08 -61.09 -33.09 -11.11 -91.01 -61.09
1.99 17.91 -1.02 -15.07 -1.02 15.98 13.94 -21.08 -31.05 -9.067 5.894 -19.04 -69.02 -11.11 1.927 -103 -29.01
1.995 19.95 -7.027 -27.09 0.9067 26.97 17.91 -27.09 -25.05 1.927 17.91 -19.04 -63.02 3.967 17.91 -93.05 1.927
2 15.98 -15.07 -39.1 -6.007 28.9 17.91 -27.09 -21.08 7.934 25.95 -19.04 -47.03 15.98 27.99 -65.06 31.96
2.005 11.9 -23.01 -43.07 -19.04 23.91 11.9 -21.08 -23.01 5.894 25.95 -19.04 -29.01 21.99 29.92 -33.09 49.98
2.01 3.967 -31.05 -39.1 -30.03 16.89 1.927 -14.05 -27.09 1.927 23.91 -10.09 -13.03 25.95 28.9 -9.067 55.99
2.015 0 -31.05 -31.05 -34 13.94 -3.06 -8.047 -25.05 3.967 20.97 0 -7.027 29.92 28.9 0.9067 52.93
2.02 -1.02 -29.01 -21.08 -33.09 5.894 -13.03 -5.1 -19.04 7.934 15.98 5.894 -5.1 29.92 31.96 -3.06 43.97
2.025 -9.067 -25.05 -17 -22.1 0 -21.08 0 -8.047 9.974 8.954 14.96 -2.04 29.92 30.94 -5.1 40.91
2.03 -19.04 -27.09 -21.08 -18.02 -2.04 -31.05 0.9067 0 5.894 0 20.97 0 19.95 20.97 -2.04 38.99
2.035 -31.05 -31.05 -25.05 -23.01 -15.07 -41.03 3.967 0.9067 -5.1 -23.01 19.95 -2.04 1.927 0.9067 19.95 29.92
2.04 -39.1 -39.1 -35.02 -33.09 -27.09 -47.03 3.967 -2.04 -25.05 -44.09 20.97 10.99 -14.05 -27.09 48.96 18.93
2.045 -43.07 -41.03 -37.06 -41.03 -37.06 -49.07 0 -6.007 -45.11 -58.03 21.99 20.97 -36.04 -57.01 72.99 4.987
2.05 -37.06 -35.02 -33.09 -39.1 -37.06 -43.07 -2.04 -11.11 -55.08 -61.09 17.91 25.95 -51 -71.06 79.9 -13.03
2.055 -24.03 -17 -23.01 -23.01 -26.07 -33.09 1.927 -6.007 -53.04 -51 14.96 25.95 -52.02 -64.04 72.99 -31.05
2.06 -8.047 2.947 -9.067 -2.04 -11.11 -18.02 -2.04 1.927 -40.01 -34 12.92 17.91 -46.01 -51 49.98 -50.09
2.065 1.927 10.99 0.9067 9.974 0.9067 -11.11 0.9067 3.967 -29.01 -21.08 7.934 3.967 -39.1 -35.02 17.91 -67.1
2.07 11.9 16.89 -1.02 17.91 0.9067 -6.007 -2.04 5.894 -20.06 -13.03 2.947 -4.08 -36.04 -25.05 -6.007 -73.1
2.075 11.9 12.92 0 13.94 1.927 -7.027 -7.027 1.927 -19.04 -11.11 -1.02 -19.04 -36.04 -20.06 -30.03 -73.1
2.08 7.934 4.987 -7.027 1.927 -4.08 -4.08 -3.06 -1.02 -18.02 -9.067 -8.047 -30.03 -30.03 -14.05 -43.07 -56.1
2.085 3.967 -1.02 -8.047 -1.02 -4.08 0 -2.04 -9.067 -13.03 1.927 -11.11 -37.06 -16.09 0.9067 -46.01 -29.01
2.09 1.927 -1.02 -2.04 -3.06 -1.02 12.92 8.954 -15.07 -1.02 19.95 -6.007 -38.08 4.987 25.95 -44.09 5.894
2.095 1.927 2.947 3.967 0.9067 11.9 25.95 11.9 -13.03 17.91 33.89 -3.06 -33.09 33.89 49.98 -41.03 39.89
2.1 4.987 6.914 5.894 4.987 23.91 28.9 5.894 -1.02 38.99 44.99 0 -23.01 62.9 62 -35.02 66.98
2.105 2.947 2.947 0 7.934 26.97 17.91 0 6.914 49.98 39.89 -4.08 -7.027 76.96 60.98 -34 79.9
2.11 -1.02 -3.06 -9.067 -2.04 11.9 0 -11.11 21.99 43.97 25.95 -7.027 1.927 71.97 45.9 -21.08 75.94
2.115 -15.07 -17 -21.08 -9.067 -1.02 -15.07 -11.11 32.98 27.99 12.92 1.927 20.97 56.89 31.96 0.9067 70.95
2.12 -29.01 -25.05 -25.05 -19.04 -17 -31.05 -1.02 30.94 5.894 2.947 12.92 32.98 34.91 19.95 36.95 58.94
2.125 -39.1 -27.09 -23.01 -29.01 -37.06 -39.1 0.9067 17.91 -13.03 -5.1 27.99 37.97 11.9 5.894 69.93 47.94
2.13 -43.07 -21.08 -17 -30.03 -42.05 -41.03 -1.02 1.927 -29.01 -18.02 32.98 32.98 -1.02 -4.08 85.91 36.95
2.135 -41.03 -17 -11.11 -28.11 -47.03 -43.07 -2.04 -17 -39.1 -32.07 22.89 20.97 -13.03 -24.03 81.94 20.97
2.14 -39.1 -15.07 -9.067 -29.01 -47.03 -45.11 -9.067 -27.09 -39.1 -47.03 3.967 3.967 -21.08 -45.11 53.95 0
2.145 -39.1 -17 -5.1 -24.03 -43.07 -47.03 -4.08 -25.05 -39.1 -48.05 -2.04 -3.06 -25.05 -50.09 21.99 -16.09
2.15 -39.1 -17 -3.06 -18.02 -44.09 -47.03 0 -17 -37.06 -43.07 -6.007 -13.03 -29.01 -50.09 -1.02 -47.03
2.155 -37.06 -13.03 0.9067 -13.03 -41.03 -41.03 0 -9.067 -37.06 -33.09 -7.027 -21.08 -35.02 -41.03 -21.08 -73.1
2.16 -31.05 -5.1 -2.04 -6.007 -36.04 -33.09 0.9067 -5.1 -39.1 -23.01 -9.067 -23.01 -43.07 -33.09 -29.01 -93.05
2.165 -19.04 -1.02 0.9067 -5.1 -30.03 -21.08 -13.03 -7.027 -41.03 -19.04 -17 -25.05 -49.07 -27.09 -35.02 -99.06
2.17 -5.1 -1.02 -3.06 -7.027 -23.01 -11.11 -27.09 -11.11 -43.07 -17 -25.05 -23.01 -51 -25.05 -37.06 -91.01
2.175 3.967 0.9067 -3.06 -11.11 -14.05 -3.06 -35.02 -19.04 -39.1 -15.07 -23.01 -19.04 -45.11 -21.08 -39.1 -69.02
2.18 11.9 -3.06 0.9067 -11.11 -7.027 -2.04 -33.09 -23.01 -29.01 -9.067 -13.03 -21.08 -31.05 -13.03 -47.03 -41.03
2.185 17.91 -3.06 5.894 -5.1 0.9067 3.967 -21.08 -25.05 -13.03 0.9067 0.9067 -27.09 -13.03 -1.02 -61.09 -17
2.19 17.91 0.9067 17.91 0.9067 1.927 5.894 -7.027 -23.01 0 7.934 3.967 -37.06 1.927 1.927 -75.03 -2.04
2.195 15.98 8.954 27.99 1.927 3.967 3.967 1.927 -17 13.94 15.98 -2.04 -47.03 15.98 7.934 -83.08 11.9
2.2 11.9 10.99 27.99 1.927 -2.04 -2.04 9.974 -9.067 17.91 13.94 -9.067 -49.07 17.91 9.974 -79.11 19.95
2.205 1.927 2.947 23.91 0.9067 -9.067 -11.11 13.94 -1.02 5.894 3.967 -19.04 -37.06 11.9 7.934 -53.04 25.95
2.21 -7.027 -11.11 11.9 -11.11 -27.09 -27.09 13.94 -2.04 -13.03 -11.11 -17 -17 -1.02 3.967 -13.03 23.91
2.215 -23.01 -31.05 0 -25.05 -45.11 -41.03 11.9 -2.04 -41.03 -33.09 -7.027 1.927 -25.05 -1.02 25.95 9.974
2.22 -33.09 -41.03 -3.06 -35.02 -57.01 -47.03 7.934 0.9067 -63.02 -53.04 0 21.99 -51 -17 63.92 -5.1
2.225 -37.06 -39.1 -5.1 -37.06 -59.05 -47.03 0 -3.06 -73.1 -63.02 11.9 35.93 -67.1 -37.06 87.95 -25.05
2.23 -33.09 -31.05 -1.02 -35.02 -51 -37.06 -3.06 -5.1 -69.02 -61.09 17.91 39.89 -69.02 -53.04 93.96 -35.02
2.235 -25.05 -21.08 0 -27.09 -35.02 -23.01 -11.11 -7.027 -53.04 -49.07 17.91 37.97 -59.05 -53.04 83.98 -33.09
2.24 -13.03 -13.03 3.967 -19.04 -19.04 -9.067 -17 -11.11 -35.02 -31.05 13.94 23.91 -43.07 -39.1 55.99 -25.05
2.245 -1.02 -9.067 3.967 -15.07 -3.06 -1.02 -23.01 -21.08 -21.08 -13.03 3.967 1.927 -27.09 -19.04 20.97 -23.01
2.25 5.894 -5.1 1.927 -11.11 0 0 -29.01 -33.09 -11.11 -2.04 -7.027 -19.04 -19.04 0.9067 -13.03 -29.01
2.255 13.94 -1.02 1.927 -7.027 7.934 0 -31.05 -39.1 -3.06 7.934 -25.05 -41.03 -13.03 3.967 -40.01 -41.03
2.26 19.95 10.99 3.967 -1.02 13.94 1.927 -29.01 -35.02 -1.02 13.94 -37.06 -49.07 -11.11 3.967 -54.06 -47.03
2.265 25.95 22.89 11.9 5.894 19.95 5.894 -21.08 -19.04 5.894 19.95 -39.1 -45.11 -9.067 -2.04 -55.08 -41.03
2.27 31.96 34.91 21.99 21.99 25.95 13.94 -7.027 -2.04 14.96 21.99 -35.02 -33.09 -5.1 -3.06 -58.03 -24.03
2.275 37.97 38.99 29.92 35.93 32.98 21.99 0 13.94 24.93 21.99 -30.03 -25.05 0.9067 -3.06 -69.02 -4.08
2.28 39.89 32.98 33.89 43.97 37.97 25.95 3.967 15.98 27.99 17.91 -31.05 -27.09 -2.04 -3.06 -95.09 0.9067
2.285 37.97 20.97 31.96 41.93 36.95 19.95 0 11.9 28.9 11.9 -28.11 -37.06 0 0 -115 0
2.29 25.95 6.914 27.99 31.96 26.97 7.934 -5.1 1.927 22.89 5.894 -26.07 -47.03 -6.007 -4.08 -114 -8.047
2.295 9.974 -1.02 21.99 17.91 11.9 -3.06 -11.11 -3.06 11.9 0 -19.04 -43.07 -11.11 -11.11 -87.04 -11.11
2.3 -3.06 0.9067 13.94 3.967 0 -14.05 -6.007 -4.08 -2.04 0 -10.09 -31.05 -12.01 -10.09 -41.03 -1.02
2.305 -15.07 -1.02 4.987 -1.02 -11.11 -18.02 1.927 -2.04 -8.047 -8.047 -3.06 -9.067 -13.03 -7.027 -1.02 0
2.31 -17 0.9067 0.9067 -5.1 -15.07 -17 5.894 -1.02 -17 -13.03 -2.04 3.967 -21.08 -7.027 27.99 -2.04
2.315 -9.067 0.9067 -4.08 -5.1 -9.067 -6.007 6.914 -1.02 -19.04 -13.03 7.934 15.98 -26.07 -4.08 39.89 -4.08
2.32 0 4.987 -3.06 1.927 -2.04 0.9067 2.947 2.947 -17 -11.11 17.91 19.95 -31.05 -6.007 40.91 -15.07
2.325 13.94 10.99 -1.02 6.914 -1.02 11.9 2.947 6.914 -13.03 -7.027 20.97 23.91 -29.01 -3.06 40.91 -19.04
2.33 21.99 12.92 1.927 12.92 2.947 12.92 10.99 8.954 -5.1 1.927 19.95 23.91 -23.01 -4.08 44.99 -9.067
2.335 23.91 10.99 0.9067 9.974 3.967 13.94 16.89 4.987 0.9067 3.967 9.974 23.91 -6.007 0 43.97 -1.02
2.34 19.95 10.99 -1.02 3.967 0 7.934 13.94 0.9067 0.9067 5.894 -1.02 17.91 0 -2.04 35.93 11.9
2.345 19.95 8.954 -10.09 0.9067 1.927 4.987 4.987 -6.007 0.9067 8.954 -9.067 9.974 9.974 0 20.97 13.94
2.35 23.91 12.92 -13.03 0.9067 8.954 6.914 -8.047 -10.09 1.927 10.99 -6.007 1.927 12.92 0.9067 1.927 5.894
2.355 31.96 20.97 -7.027 5.894 19.95 13.94 -19.04 -9.067 5.894 13.94 -3.06 0.9067 11.9 0 -15.07 -1.02
2.36 39.89 28.9 -2.04 19.95 38.99 25.95 -15.07 0.9067 16.89 21.99 1.927 -1.02 12.92 2.947 -30.03 -4.08
2.365 47.94 38.99 13.94 39.89 48.96 37.97 -2.04 7.934 26.97 27.99 -6.007 -7.027 10.99 4.987 -47.03 -2.04
2.37 51.91 44.99 25.95 51.91 51.91 41.93 19.95 13.94 35.93 27.99 -21.08 -19.04 0 5.894 -67.1 -3.06
2.375 49.98 44.99 33.89 49.98 40.91 33.89 27.99 11.9 34.91 19.95 -26.07 -35.02 -11.11 1.927 -83.08 -8.047
2.38 37.97 40.91 37.97 39.89 21.99 17.91 23.91 0 20.97 3.967 -19.04 -53.04 -33.09 0.9067 -96.11 -24.03
2.385 23.91 36.95 37.97 25.95 1.927 1.927 9.974 -5.1 -2.04 -9.067 0.9067 -61.09 -53.04 -9.067 -91.01 -37.06
2.39 9.974 32.98 33.89 17.91 -7.027 -1.02 1.927 -9.067 -18.02 -17 13.94 -51 -59.05 -15.07 -66.08 -39.1
2.395 3.967 26.97 25.95 13.94 -7.027 -1.02 3.967 -3.06 -25.05 -17 19.95 -25.05 -49.07 -21.08 -28.11 -25.05
2.4 3.967 20.97 17.91 17.91 -2.04 0 9.974 5.894 -17 -7.027 9.974 3.967 -21.08 -19.04 1.927 -1.02
2.405 5.894 12.92 9.974 17.91 9.974 0 11.9 19.95 -2.04 0.9067 -1.02 33.89 3.967 -15.07 32.98 13.94
2.41 5.894 2.947 1.927 9.974 15.98 -3.06 5.894 27.99 15.98 -2.04 -13.03 49.98 23.91 -13.03 45.9 21.99
2.415 0 -1.02 0.9067 -2.04 9.974 -17 0.9067 25.95 19.95 -7.027 -13.03 53.95 27.99 -11.11 53.95 17.91
2.42 -5.1 -3.06 -3.06 -11.11 0.9067 -31.05 -9.067 13.94 9.974 -19.04 -5.1 45.9 17.91 -13.03 55.99 7.934
2.425 -13.03 -5.1 -7.027 -21.08 -15.07 -37.06 -11.11 -2.04 -3.06 -25.05 0 31.96 5.894 -13.03 55.99 0
2.43 -15.07 -3.06 -5.1 -23.01 -23.01 -29.01 -9.067 -9.067 -15.07 -21.08 1.927 17.91 0.9067 -9.067 51.91 -2.04
2.435 -9.067 -1.02 0.9067 -17 -15.07 -9.067 -5.1 -17 -13.03 -7.027 0.9067 3.967 -2.04 -1.02 41.93 0
2.44 1.927 0.9067 5.894 -5.1 1.927 7.934 -3.06 -15.07 0.9067 5.894 -7.027 -3.06 3.967 3.967 25.95 5.894
2.445 21.99 8.954 15.98 3.967 31.96 27.99 -1.02 -7.027 15.98 21.99 -9.067 -11.11 13.94 15.98 9.974 9.974
2.45 39.89 18.93 21.99 13.94 53.95 37.97 0 -2.04 31.96 29.92 -5.1 -15.07 19.95 27.99 0.9067 15.98
2.455 49.98 24.93 21.99 17.91 63.92 37.97 9.974 7.934 37.97 33.89 -2.04 -11.11 23.91 35.93 -5.1 19.95
2.46 47.94 22.89 15.98 13.94 51.91 27.99 19.95 11.9 31.96 31.96 3.967 -7.027 23.91 37.97 -9.067 23.91
2.465 29.92 12.92 5.894 0 25.95 11.9 17.91 9.974 15.98 21.99 1.927 -7.027 19.95 29.92 -19.04 19.95
2.47 5.894 -1.02 0.9067 -11.11 0.9067 -1.02 3.967 1.927 -2.04 7.934 -1.02 -13.03 9.974 15.98 -32.07 5.894
2.475 -13.03 -13.03 -5.1 -23.01 -17 -9.067 -11.11 -5.1 -11.11 -3.06 -9.067 -25.05 -2.04 -2.04 -48.05 -7.027
2.48 -23.01 -23.01 -7.027 -29.01 -17 -9.067 -27.09 -15.07 -17 -15.07 -9.067 -35.02 -11.11 -9.067 -57.01 -23.01
2.485 -23.01 -25.05 -5.1 -27.09 -5.1 -1.02 -27.09 -21.08 -17 -15.07 0.9067 -32.07 -21.08 -9.067 -46.01 -33.09
2.49 -13.03 -23.01 -3.06 -19.04 6.914 0 -13.03 -17 -13.03 -7.027 7.934 -20.06 -21.08 -3.06 -24.03 -31.05
2.495 -5.1 -19.04 -1.02 -13.03 9.974 -2.04 0 -9.067 -7.027 0.9067 13.94 -1.02 -17 -2.04 0.9067 -21.08
2.5 -3.06 -13.03 -3.06 -13.03 6.914 -5.1 14.96 -2.04 -5.1 -2.04 13.94 14.96 -11.11 0.9067 21.99 -9.067
2.505 -9.067 -13.03 -7.027 -15.07 0 -17 18.93 8.954 -5.1 -4.08 5.894 28.9 -7.027 -13.03 31.96 1.927
2.51 -17 -17 -9.067 -17 -7.027 -19.04 11.9 9.974 -1.02 -11.11 1.927 29.92 -1.02 -23.01 35.93 3.967
2.515 -19.04 -17 -9.067 -17 -2.04 -11.11 4.987 10.99 3.967 -10.09 0 29.92 1.927 -24.03 36.95 14.96
2.52 -14.05 -21.08 -9.067 -13.03 5.894 -1.02 -1.02 6.914 17.91 0 1.927 25.95 18.93 -8.047 37.97 30.94
2.525 -9.067 -27.09 -13.03 -11.11 13.94 3.967 -1.02 1.927 29.92 7.934 0 27.99 35.93 7.934 35.93 47.94
2.53 -4.08 -27.09 -17 -9.067 13.94 0 -1.02 2.947 35.93 16.89 -3.06 30.94 50.89 24.93 32.98 56.89
2.535 -2.04 -29.01 -18.02 -4.08 6.914 -5.1 -1.02 10.99 29.92 16.89 -8.047 29.92 52.93 26.97 25.95 56.89
2.54 -3.06 -23.01 -9.067 1.927 0 -15.07 -1.02 19.95 19.95 5.894 -13.03 25.95 41.93 13.94 13.94 43.97
2.545 0 -7.027 2.947 14.96 3.967 -10.09 0.9067 25.95 13.94 1.927 -10.09 15.98 24.93 3.967 -2.04 23.91
2.55 5.894 6.914 22.89 32.98 14.96 0.9067 5.894 22.89 13.94 6.914 -4.08 -1.02 9.974 -1.02 -33.09 4.987
2.555 17.91 22.89 39.89 43.97 33.89 17.91 3.967 5.894 17.91 13.94 -1.02 -29.01 0 -3.06 -69.02 -7.027
2.56 27.99 36.95 45.9 47.94 45.9 27.99 2.947 -5.1 21.99 23.91 -3.06 -60.07 1.927 0 -102 -19.04
2.565 25.95 38.99 41.93 41.93 46.92 20.97 0.9067 -19.04 21.99 23.91 -9.067 -85 0.9067 0.9067 -120 -30.03
2.57 13.94 36.95 32.98 36.95 39.89 3.967 5.894 -17 11.9 9.974 -6.007 -90.1 -3.06 -2.04 -112.1 -29.01
2.575 0 22.89 17.91 31.96 22.89 -14.05 10.99 -1.02 0 -1.02 -2.04 -69.02 -7.027 -2.04 -78.09 -22.1
2.58 -7.027 6.914 5.894 25.95 7.934 -26.07 18.93 15.98 -3.06 -15.07 9.974 -32.07 -9.067 4.987 -28.11 -3.06
2.585 -15.07 -7.027 0.9067 17.91 0.9067 -29.01 15.98 29.92 -5.1 -23.01 15.98 0 -7.027 9.974 15.98 9.974
2.59 -17 -23.01 -10.09 4.987 -6.007 -18.02 3.967 30.94 -1.02 -18.02 10.99 25.95 0.9067 9.974 49.98 20.97
2.595 -20.06 -31.05 -20.06 -10.09 -11.11 -10.09 -12.01 15.98 0.9067 -13.03 1.927 33.89 0.9067 1.927 66.98 17.91
2.6 -21.08 -39.1 -27.09 -25.05 -15.07 -5.1 -31.05 0.9067 -3.06 -11.11 -13.03 25.95 0 -9.067 67.89 3.967
2.605 -24.03 -41.03 -24.03 -34 -14.05 -3.06 -35.02 -14.05 -5.1 -8.047 -18.02 17.91 -1.02 -20.06 59.96 -8.047
2.61 -22.1 -41.03 -21.08 -35.02 -15.07 -5.1 -29.01 -18.02 -3.06 -10.09 -17 14.96 -1.02 -26.07 54.97 -16.09
2.615 -21.08 -45.11 -17 -33.09 -15.07 -11.11 -17 -13.03 0.9067 -13.03 -9.067 13.94 1.927 -27.09 41.93 -19.04
2.62 -22.1 -45.11 -15.07 -31.05 -17 -19.04 -2.04 0 0 -16.09 -1.02 19.95 10.99 -26.07 31.96 -16.09
2.625 -27.09 -47.03 -15.07 -29.01 -26.07 -27.09 0.9067 2.947 3.967 -18.02 0 19.95 16.89 -26.07 12.92 -18.02
2.63 -29.01 -47.03 -11.11 -27.09 -31.05 -31.05 1.927 1.927 0 -19.04 0 9.974 13.94 -31.05 -1.02 -23.01
2.635 -29.01 -37.06 -3.06 -23.01 -30.03 -29.01 1.927 -1.02 -1.02 -18.02 0.9067 0 1.927 -33.09 -23.01 -32.07
2.64 -21.08 -23.01 1.927 -13.03 -24.03 -23.01 -4.08 -9.067 -11.11 -19.04 -9.067 -20.06 -13.03 -31.05 -41.03 -41.03
2.645 -9.067 -11.11 7.934 -3.06 -15.07 -15.07 -7.027 -21.08 -19.04 -17 -19.04 -43.07 -35.02 -23.01 -61.09 -43.07
2.65 0.9067 0.9067 11.9 1.927 -2.04 -7.027 -5.1 -23.01 -23.01 -11.11 -25.05 -52.02 -49.07 -13.03 -70.04 -41.03
2.655 1.927 6.914 13.94 9.974 -2.04 -1.02 -2.04 -17 -21.08 0.9067 -21.08 -48.05 -51 -1.02 -68 -33.09
2.66 1.927 10.99 15.98 17.91 5.894 0 5.894 -3.06 -9.067 9.974 -11.11 -29.01 -35.02 3.967 -51 -19.04
2.665 0.9067 8.954 13.94 21.99 5.894 1.927 11.9 7.934 3.967 21.99 0.9067 -1.02 -7.027 13.94 -24.03 0.9067
2.67 -9.067 0.9067 1.927 15.98 1.927 -2.04 9.974 15.98 19.95 23.91 1.927 15.98 15.98 17.91 0.9067 15.98
2.675 -21.08 -9.067 -19.04 -2.04 -5.1 -9.067 0 9.974 19.95 11.9 -2.04 23.91 31.96 13.94 19.95 27.99
2.68 -33.09 -27.09 -47.03 -19.04 -23.01 -27.09 -9.067 -7.027 3.967 -7.027 -7.027 11.9 27.99 0 23.91 29.92
2.685 -45.11 -39.1 -67.1 -35.02 -39.1 -45.11 -21.08 -31.05 -21.08 -31.05 -11.11 -3.06 7.934 -17 17.91 17.91
2.69 -49.07 -41.03 -71.06 -41.03 -47.03 -55.08 -29.01 -45.11 -47.03 -51 -7.027 -19.04 -13.03 -39.1 9.974 -2.04
2.695 -45.11 -35.02 -61.09 -31.05 -43.07 -55.08 -31.05 -43.07 -57.01 -59.05 -2.04 -17 -31.05 -53.04 11.9 -17
2.7 -37.06 -29.01 -45.11 -19.04 -33.09 -47.03 -25.05 -23.01 -47.03 -55.08 5.894 0.9067 -33.09 -55.08 23.91 -27.09
2.705 -27.09 -25.05 -33.09 -11.11 -23.01 -37.06 -15.07 0.9067 -27.09 -45.11 9.974 19.95 -25.05 -47.03 39.89 -33.09
2.71 -23.01 -29.01 -31.05 -11.11 -21.08 -31.05 -5.1 9.974 -13.03 -35.02 5.894 37.97 -15.07 -33.09 49.98 -37.06
2.715 -21.08 -33.09 -33.09 -19.04 -27.09 -31.05 0 5.894 -15.07 -27.09 1.927 33.89 -17 -21.08 41.93 -47.03
2.72 -21.08 -33.09 -35.02 -25.05 -35.02 -31.05 1.927 -7.027 -33.09 -23.01 -2.04 11.9 -29.01 -15.07 13.94 -59.05
2.725 -17 -27.09 -33.09 -27.09 -39.1 -33.09 0.9067 -31.05 -51 -21.08 -5.1 -19.04 -43.07 -15.07 -27.09 -65.06
2.73 -11.11 -19.04 -29.01 -25.05 -34 -33.09 -13.03 -51 -58.03 -21.08 -17 -55.08 -53.04 -19.04 -79.11 -59.05
2.735 -5.1 -15.07 -25.05 -23.01 -28.11 -35.02 -31.05 -61.09 -50.09 -25.05 -31.05 -85 -51 -23.01 -117.1 -41.03
2.74 -3.06 -15.07 -23.01 -25.05 -25.05 -37.06 -43.07 -59.05 -35.02 -29.01 -47.03 -101.1 -43.07 -21.08 -137 -17
2.745 -5.1 -21.08 -21.08 -29.01 -26.07 -38.08 -43.07 -51 -24.03 -31.05 -53.04 -101.1 -37.06 -17 -129.1 -1.02
2.75 -11.11 -25.05 -15.07 -33.09 -36.04 -40.01 -33.09 -45.11 -26.07 -30.03 -49.07 -91.01 -40.01 -15.07 -104 -2.04
2.755 -19.04 -27.09 -11.11 -33.09 -47.03 -45.11 -19.04 -39.1 -43.07 -33.09 -39.1 -71.06 -55.08 -19.04 -71.06 -3.06
2.76 -27.09 -29.01 -9.067 -35.02 -53.04 -48.05 -7.027 -35.02 -57.01 -38.08 -29.01 -47.03 -64.04 -26.07 -36.04 -13.03
2.765 -31.05 -29.01 -13.03 -36.04 -55.08 -52.02 0 -23.01 -69.02 -40.01 -21.08 -16.09 -64.04 -36.04 0 -21.08
2.77 -33.09 -37.06 -23.01 -39.1 -55.08 -51 0 -3.06 -63.02 -43.07 -13.03 11.9 -51 -43.07 27.99 -23.01
2.775 -35.02 -39.1 -31.05 -42.05 -50.09 -40.01 4.987 12.92 -44.09 -38.08 0 42.95 -24.03 -44.09 64.94 -25.05
2.78 -35.02 -41.03 -33.09 -42.05 -42.05 -27.09 8.954 22.89 -23.01 -28.11 10.99 64.94 -3.06 -38.08 85.91 -29.01
2.785 -37.06 -45.11 -31.05 -41.03 -35.02 -17 3.967 15.98 -11.11 -19.04 21.99 59.96 -2.04 -31.05 87.95 -43.07
2.79 -37.06 -41.03 -31.05 -42.05 -36.04 -14.05 -1.02 -2.04 -11.11 -15.07 26.97 38.99 -7.027 -27.09 67.89 -55.08
2.795 -37.06 -43.07 -34 -43.07 -41.03 -22.1 -9.067 -31.05 -28.11 -20.06 16.89 5.894 -26.07 -28.11 40.91 -63.02
2.8 -33.09 -47.03 -39.1 -49.07 -53.04 -39.1 -19.04 -57.01 -51 -37.06 0 -19.04 -47.03 -33.09 5.894 -59.05
2.805 -30.03 -47.03 -40.01 -49.07 -65.06 -52.02 -19.04 -64.04 -66.08 -49.07 -7.027 -33.09 -55.08 -32.07 -13.03 -47.03
2.81 -24.03 -43.07 -35.02 -45.11 -68 -53.04 -16.09 -57.01 -71.06 -55.08 -12.01 -38.08 -50.09 -26.07 -33.09 -29.01
2.815 -15.07 -33.09 -22.1 -35.02 -57.01 -40.01 -12.01 -43.07 -60.07 -42.05 -13.03 -38.08 -36.04 -12.01 -52.02 -17
2.82 -6.007 -15.07 -5.1 -19.04 -34 -17 -16.09 -33.09 -41.03 -23.01 -22.1 -42.05 -18.02 1.927 -81.04 -9.067
2.825 -1.02 2.947 6.914 -5.1 -11.11 0.9067 -23.01 -30.03 -14.05 1.927 -41.03 -57.01 -1.02 6.914 -109 -1.02
2.83 3.967 10.99 11.9 0 3.967 13.94 -35.02 -31.05 1.927 21.99 -63.02 -73.1 7.934 7.934 -129.1 -2.04
2.835 7.934 18.93 8.954 7.934 17.91 16.89 -37.06 -29.01 18.93 30.94 -74.01 -79.11 20.97 8.954 -126 3.967
2.84 5.894 14.96 0 6.914 12.92 8.954 -32.07 -24.03 23.91 23.91 -72.08 -68 21.99 3.967 -97.02 7.934
2.845 0 8.954 -3.06 3.967 3.967 -1.02 -25.05 -15.07 15.98 5.894 -51 -43.07 17.91 -2.04 -53.04 5.894
2.85 0.9067 2.947 -9.067 2.947 -2.04 -7.027 -12.01 -1.02 5.894 -8.047 -18.02 -4.08 7.934 -6.007 1.927 0.9067
2.855 -1.02 -1.02 -9.067 2.947 -10.09 -10.09 0 16.89 -4.08 -24.03 2.947 30.94 -2.04 -16.09 44.99 -13.03
2.86 0.9067 0.9067 -3.06 1.927 -9.067 -3.06 3.967 33.89 -13.03 -31.05 17.91 59.96 -13.03 -25.05 75.94 -27.09
2.865 1.927 -1.02 -2.04 6.914 0.9067 4.987 12.92 45.9 -17 -22.1 25.95 80.92 -16.09 -26.07 90.9 -39.1
2.87 9.974 4.987 3.967 10.99 7.934 14.96 17.91 47.94 -7.027 -4.08 25.95 79.9 -14.05 -20.06 88.97 -47.03
2.875 13.94 8.954 5.894 11.9 13.94 19.95 17.91 35.93 -1.02 5.894 25.95 63.92 -5.1 -5.1 69.93 -49.07
2.88 13.94 12.92 7.934 11.9 20.97 24.93 15.98 15.98 4.987 22.89 23.91 35.93 2.947 7.934 42.95 -41.03
2.885 11.9 10.99 7.934 9.974 18.93 24.93 15.98 -3.06 16.89 29.92 21.99 3.967 17.91 21.99 17.91 -23.01
2.89 7.934 4.987 7.934 1.927 11.9 21.99 15.98 -17 23.91 33.89 15.98 -13.03 35.93 31.96 1.927 0
2.895 3.967 0.9067 3.967 -2.04 4.987 17.91 15.98 -17 30.94 31.96 7.934 -21.08 49.98 31.96 1.927 35.93
2.9 -2.04 -1.02 0 -5.1 1.927 11.9 9.974 -7.027 26.97 27.99 0 -15.07 59.96 29.92 5.894 67.89
2.905 -7.027 -3.06 0.9067 -11.11 -7.027 5.894 0 0.9067 19.95 17.91 0.9067 -7.027 59.96 27.99 5.894 85.91
2.91 -15.07 -1.02 -1.02 -13.03 -17 -2.04 -9.067 0.9067 5.894 5.894 0.9067 -5.1 47.94 25.95 -2.04 83.98
2.915 -15.07 -1.02 0 -9.067 -19.04 -1.02 -17 -11.11 -5.1 -1.02 -2.04 -15.07 25.95 19.95 -19.04 62
2.92 -9.067 4.987 11.9 -1.02 -19.04 -1.02 -15.07 -25.05 -17 -11.11 0.9067 -31.05 0 7.934 -41.03 27.99
2.925 -2.04 16.89 25.95 5.894 -15.07 0.9067 -7.027 -33.09 -23.01 -13.03 -1.02 -43.07 -21.08 0.9067 -55.08 -1.02
2.93 7.934 26.97 35.93 19.95 -9.067 0.9067 0 -27.09 -23.01 -13.03 -3.06 -43.07 -35.02 -9.067 -55.08 -25.05
2.935 11.9 34.91 39.89 29.92 -5.1 -5.1 13.94 -7.027 -19.04 -11.11 -1.02 -29.01 -41.03 -15.07 -43.07 -37.06
2.94 7.934 34.91 37.97 31.96 -3.06 -13.03 23.91 11.9 -17 -9.067 5.894 -7.027 -35.02 -19.04 -21.08 -41.03
2.945 1.927 28.9 27.99 23.91 -7.027 -19.04 27.99 27.99 -19.04 -9.067 19.95 9.974 -29.01 -19.04 0 -41.03
2.95 -1.02 14.96 13.94 5.894 -15.07 -17 25.95 29.92 -23.01 -11.11 33.89 25.95 -25.05 -23.01 23.91 -45.11
2.955 -7.027 -1.02 -1.02 -11.11 -25.05 -11.11 13.94 15.98 -25.05 -11.11 35.93 29.92 -27.09 -27.09 41.93 -49.07
2.96 -13.03 -21.08 -21.08 -33.09 -35.02 -5.1 -1.02 -3.06 -29.01 -13.03 25.95 21.99 -29.01 -27.09 49.98 -49.07
2.965 -23.01 -35.02 -41.03 -49.07 -45.11 -1.02 -25.05 -31.05 -33.09 -15.07 5.894 7.934 -27.09 -23.01 43.97 -39.1
2.97 -35.02 -41.03 -51 -55.08 -53.04 -5.1 -41.03 -53.04 -39.1 -17 -7.027 -7.027 -21.08 -13.03 25.95 -21.08
2.975 -45.11 -39.1 -53.04 -51 -60.07 -15.07 -47.03 -63.02 -43.07 -17 -17 -22.1 -5.1 -2.04 6.914 -2.04
2.98 -47.03 -31.05 -43.07 -43.07 -62.11 -21.08 -41.03 -57.01 -43.07 -15.07 -10.09 -28.11 9.974 15.98 0 23.91
2.985 -43.07 -21.08 -27.09 -33.09 -59.05 -21.08 -25.05 -39.1 -35.02 -5.1 0.9067 -23.01 31.96 33.89 -1.02 51.91
2.99 -29.01 -13.03 -7.027 -21.08 -46.01 -9.067 -6.007 -15.07 -19.04 3.967 8.954 -4.08 53.95 45.9 0.9067 75.94
2.995 -13.03 -5.1 8.954 -6.007 -28.11 3.967 4.987 0 1.927 19.95 14.96 4.987 70.95 53.95 6.914 91.92
3 1.927 0.9067 25.95 1.927 -5.1 25.95 17.91 13.94 23.91 31.96 13.94 9.974 75.94 53.95 1.927 91.92
3.005 23.91 18.93 46.92 24.93 15.98 41.93 32.98 19.95 37.97 33.89 12.92 10.99 68.91 37.97 -5.1 72.99
3.01 47.94 44.99 66.98 48.96 37.97 47.94 46.92 27.99 45.9 29.92 15.98 11.9 52.93 7.934 -15.07 32.98
3.015 65.96 74.92 79.9 79.9 55.99 47.94 59.96 43.97 47.94 17.91 21.99 15.98 31.96 -19.04 -9.067 -5.1
3.02 77.98 96.9 90.9 104.9 68.91 43.97 72.99 68.91 51.91 9.974 27.99 37.97 18.93 -43.07 4.987 -36.04
3.025 79.9 102.9 93.96 122 72.99 43.97 79.9 96.9 62 9.974 34.91 66.98 17.91 -47.03 33.89 -46.01
3.03 77.98 94.98 81.94 119.9 67.89 47.94 75.94 115.9 69.93 21.99 39.89 96 23.91 -29.01 55.99 -35.02
3.035 67.89 79 67.89 99.96 60.98 54.97 64.94 120.9 75.94 37.97 45.9 112 33.89 -3.06 64.94 -17
3.04 57.91 60.98 52.93 72.99 47.94 58.94 48.96 106 73.9 52.93 44.99 107.9 36.95 19.95 58.94 -7.027
3.045 47.94 40.91 27.99 41.93 29.92 55.99 27.99 73.9 57.91 55.99 39.89 83.98 27.99 33.89 41.93 -13.03
3.05 36.95 24.93 3.967 15.98 11.9 45.9 12.92 40.91 34.91 52.93 25.95 52.93 11.9 42.95 27.99 -19.04
3.055 22.89 4.987 -13.03 1.927 -2.04 29.92 0.9067 15.98 8.954 39.89 8.954 26.97 0.9067 43.97 24.93 -7.027
3.06 7.934 -7.027 -32.07 -11.11 -17 11.9 -10.09 5.894 -2.04 30.94 1.927 13.94 0.9067 49.98 28.9 19.95
3.065 0 -21.08 -43.07 -20.06 -30.03 5.894 -21.08 1.927 -8.047 25.95 -6.007 14.96 18.93 63.92 40.91 63.92
3.07 -12.01 -31.05 -51 -31.05 -35.02 3.967 -30.03 4.987 -2.04 28.9 -5.1 22.89 45.9 76.96 49.98 112
3.075 -15.07 -35.02 -51 -37.06 -31.05 7.934 -37.06 3.967 3.967 37.97 0.9067 29.92 71.97 81.94 51.91 137.9
3.08 -11.11 -29.01 -46.01 -36.04 -17 16.89 -38.08 0.9067 15.98 44.99 0.9067 23.91 88.97 71.97 38.99 140
3.085 -5.1 -23.01 -39.1 -33.09 -6.007 22.89 -30.03 -16.09 23.91 39.89 1.927 -2.04 79.9 49.98 10.99 115.9
3.09 0 -17 -23.01 -21.08 -1.02 21.99 -21.08 -35.02 19.95 25.95 -7.027 -29.01 53.95 19.95 -21.08 75.94
3.095 3.967 -1.02 0.9067 -3.06 -1.02 17.91 -7.027 -48.05 11.9 5.894 -12.01 -58.03 19.95 -7.027 -53.04 30.94
3.1 7.934 10.99 16.89 10.99 -1.02 13.94 -2.04 -48.05 1.927 -9.067 -15.07 -71.06 -10.09 -29.01 -74.01 -4.08
3.105 7.934 26.97 37.97 25.95 0 9.974 -1.02 -29.01 0.9067 -21.08 -13.03 -63.02 -31.05 -39.1 -81.04 -39.1
3.11 5.894 40.91 50.89 38.99 5.894 9.974 1.927 0.9067 0.9067 -23.01 -9.067 -37.06 -36.04 -43.07 -69.02 -66.08
3.115 5.894 46.92 50.89 40.91 13.94 9.974 4.987 25.95 -2.04 -17 -8.047 0 -30.03 -43.07 -41.03 -86.02
3.12 7.934 48.96 45.9 41.93 19.95 13.94 15.98 47.94 3.967 -9.067 -9.067 27.99 -19.04 -41.03 -15.07 -95.09
3.125 13.94 50.89 38.99 38.99 28.9 17.91 30.94 55.99 5.894 0.9067 -6.007 46.92 -6.007 -37.06 4.987 -97.02
3.13 21.99 52.93 29.92 35.93 32.98 23.91 36.95 51.91 5.894 3.967 0 52.93 -1.02 -27.09 22.89 -93.05
3.135 27.99 50.89 23.91 33.89 37.97 27.99 29.92 37.97 7.934 11.9 1.927 45.9 0 -11.11 31.96 -81.04
3.14 31.96 40.91 15.98 29.92 38.99 25.95 15.98 25.95 13.94 19.95 8.954 32.98 7.934 3.967 36.95 -57.01
3.145 25.95 20.97 1.927 19.95 32.98 17.91 0.9067 13.94 19.95 21.99 5.894 16.89 17.91 23.91 40.91 -25.05
3.15 9.974 -3.06 -13.03 0 17.91 3.967 -17 3.967 17.91 19.95 0 3.967 27.99 33.89 41.93 7.934
3.155 -9.067 -29.01 -33.09 -19.04 -2.04 -11.11 -31.05 -3.06 7.934 7.934 -3.06 0.9067 35.93 33.89 39.89 47.94
3.16 -35.02 -45.11 -51 -39.1 -21.08 -27.09 -41.03 -17 -7.027 -3.06 -7.027 -1.02 37.97 25.95 41.93 81.94
3.165 -51 -47.03 -57.01 -51 -37.06 -35.02 -45.11 -29.01 -29.01 -21.08 -5.1 -2.04 35.93 15.98 45.9 101.9
3.17 -55.08 -39.1 -53.04 -51 -41.03 -33.09 -45.11 -37.06 -41.03 -29.01 0.9067 -2.04 29.92 11.9 43.97 107.9
3.175 -45.11 -27.09 -41.03 -41.03 -31.05 -25.05 -39.1 -41.03 -45.11 -27.09 0 -5.1 23.91 11.9 33.89 99.96
3.18 -29.01 -17 -27.09 -27.09 -15.07 -15.07 -35.02 -45.11 -37.06 -17 0.9067 -25.05 17.91 11.9 5.894 79.9
3.185 -15.07 -15.07 -15.07 -15.07 -1.02 -11.11 -33.09 -51 -29.01 -9.067 -9.067 -53.04 5.894 7.934 -27.09 49.98
3.19 -9.067 -15.07 -7.027 -9.067 3.967 -9.067 -31.05 -53.04 -23.01 -7.027 -19.04 -77.07 -5.1 -3.06 -59.05 9.974
3.195 -5.1 -13.03 -2.04 -5.1 9.974 -9.067 -25.05 -45.11 -19.04 -11.11 -17 -81.04 -29.01 -23.01 -69.02 -33.09
3.2 -3.06 -5.1 13.94 0 13.94 -5.1 -9.067 -21.08 -17 -17 -1.02 -55.08 -53.04 -43.07 -51 -81.04
3.205 0 6.914 33.89 19.95 21.99 0 11.9 9.974 -9.067 -17 21.99 -7.027 -67.1 -53.04 -9.067 -117.1
3.21 9.974 26.97 55.99 43.97 29.92 9.974 39.89 47.94 0.9067 -9.067 41.93 39.89 -65.06 -51 30.94 -133.1
3.215 19.95 44.99 67.89 62 33.89 15.98 59.96 71.97 5.894 -2.04 45.9 73.9 -47.03 -37.06 49.98 -129.1
3.22 21.99 50.89 65.96 65.96 29.92 15.98 62 71.97 13.94 3.967 29.92 77.98 -23.01 -21.08 42.95 -106.1
3.225 13.94 42.95 49.98 51.91 17.91 7.934 43.97 53.95 11.9 1.927 0 57.91 -1.02 -11.11 8.954 -74.01
3.23 -2.04 20.97 23.91 25.95 0 -1.02 13.94 25.95 7.934 -5.1 -23.01 17.91 7.934 -7.027 -21.08 -39.1
3.235 -15.07 -5.1 -1.02 -1.02 -10.09 -11.11 -13.03 0 3.967 -15.07 -37.06 -14.05 11.9 -7.027 -46.01 -4.08
3.24 -31.05 -37.06 -25.05 -25.05 -18.02 -19.04 -33.09 -16.09 1.927 -19.04 -37.06 -40.01 7.934 -7.027 -49.07 24.93
3.245 -43.07 -61.09 -43.07 -43.07 -25.05 -23.01 -43.07 -33.09 1.927 -15.07 -23.01 -51 7.934 -1.02 -37.06 53.95
3.25 -51 -71.06 -49.07 -51 -30.03 -26.07 -43.07 -44.09 -1.02 -5.1 -5.1 -48.05 8.954 0 -15.07 82.96
3.255 -55.08 -71.06 -53.04 -57.01 -34 -32.07 -41.03 -50.09 0 0.9067 7.934 -36.04 14.96 9.974 8.954 101.9
3.26 -57.01 -61.09 -55.08 -57.01 -41.03 -41.03 -41.03 -49.07 -9.067 -3.06 17.91 -17 21.99 17.91 25.95 107.9
3.265 -57.01 -55.08 -53.04 -54.06 -45.11 -46.01 -41.03 -42.05 -14.05 -11.11 17.91 1.927 28.9 17.91 37.97 103.9
3.27 -51 -45.11 -51 -46.01 -47.03 -48.05 -35.02 -26.07 -16.09 -19.04 7.934 9.974 28.9 11.9 31.96 80.92
3.275 -41.03 -41.03 -45.11 -37.06 -45.11 -41.03 -29.01 -13.03 -17 -23.01 -1.02 3.967 19.95 -2.04 13.94 43.97
3.28 -29.01 -33.09 -38.08 -26.07 -34 -23.01 -19.04 -9.067 -13.03 -19.04 -11.11 -8.047 3.967 -12.01 -11.11 0
3.285 -14.05 -23.01 -30.03 -18.02 -25.05 -7.027 -11.11 -12.01 -17 -13.03 -15.07 -36.04 -21.08 -24.03 -41.03 -36.04
3.29 -5.1 -13.03 -21.08 -9.067 -17 3.967 -5.1 -25.05 -25.05 -5.1 -7.027 -63.02 -51 -29.01 -63.02 -69.02
3.295 0.9067 -1.02 -7.027 1.927 -6.007 16.89 0 -29.01 -29.01 0 0 -72.08 -68 -24.03 -64.04 -82.06
3.3 7.934 8.954 5.894 9.974 1.927 22.89 1.927 -23.01 -26.07 0 7.934 -55.08 -67.1 -14.05 -45.11 -80.02
3.305 18.93 24.93 26.97 28.9 16.89 30.94 5.894 2.947 -10.09 7.934 7.934 -10.09 -45.11 -6.007 -7.027 -67.1
3.31 33.89 44.99 47.94 55.99 35.93 38.99 17.91 45.9 14.96 21.99 1.927 43.97 -5.1 -2.04 27.99 -58.03
3.315 48.96 64.94 59.96 74.92 54.97 44.99 30.94 93.96 54.97 34.91 0.9067 101 32.98 -2.04 60.98 -48.05
3.32 55.99 72.99 55.99 81.94 62 45.9 39.89 122 85.91 43.97 -1.02 137.9 62 -3.06 71.97 -47.03
3.325 52.93 68.91 40.91 70.95 57.91 33.89 37.97 120.9 97.92 41.93 -2.04 136.9 73.9 -4.08 62 -40.01
3.33 33.89 40.91 16.89 42.95 38.99 13.94 21.99 87.95 87.95 23.91 0 102.9 62 -6.007 39.89 -29.01
3.335 7.934 4.987 -9.067 3.967 5.894 -15.07 0 31.96 47.94 -3.06 0 45.9 29.92 -15.07 15.98 -11.11
3.34 -17 -25.05 -33.09 -26.07 -21.08 -40.01 -19.04 -22.1 4.987 -39.1 0.9067 -7.027 1.927 -25.05 -2.04 8.954
3.345 -39.1 -45.11 -51 -50.09 -45.11 -58.03 -33.09 -62.11 -30.03 -65.06 -3.06 -50.09 -30.03 -33.09 -1.02 29.92
3.35 -53.04 -51 -59.05 -63.02 -65.06 -67.1 -37.06 -81.04 -57.01 -79.11 -3.06 -67.1 -47.03 -33.09 -3.06 45.9
3.355 -63.02 -47.03 -61.09 -63.02 -76.05 -64.04 -33.09 -74.01 -68 -75.03 -1.02 -62.11 -46.01 -27.09 1.927 53.95
3.36 -69.02 -49.07 -61.09 -65.06 -80.02 -62.11 -23.01 -60.07 -68 -63.02 -2.04 -52.02 -38.08 -13.03 -2.04 52.93
3.365 -73.1 -53.04 -59.05 -63.02 -85 -57.01 -17 -47.03 -65.06 -49.07 0 -43.07 -29.01 -1.02 -2.04 43.97
3.37 -69.02 -55.08 -55.08 -57.01 -82.06 -53.04 -15.07 -40.01 -63.02 -39.1 0 -40.01 -25.05 3.967 1.927 38.99
3.375 -55.08 -49.07 -47.03 -49.07 -68 -47.03 -11.11 -41.03 -61.09 -31.05 -2.04 -38.08 -27.09 5.894 2.947 30.94
3.38 -37.06 -35.02 -37.06 -33.09 -49.07 -39.1 -7.027 -39.1 -55.08 -25.05 0 -33.09 -31.05 5.894 7.934 19.95
3.385 -19.04 -15.07 -25.05 -15.07 -29.01 -27.09 0.9067 -31.05 -41.03 -15.07 1.927 -21.08 -33.09 5.894 12.92 6.914
3.39 -7.027 -1.02 -13.03 -3.06 -9.067 -13.03 0 -15.07 -25.05 0.9067 5.894 -5.1 -31.05 5.894 14.96 -6.007
3.395 0.9067 0.9067 -3.06 -2.04 1.927 0 -2.04 0 -5.1 11.9 1.927 3.967 -25.05 7.934 11.9 -25.05
3.4 3.967 2.947 1.927 5.894 13.94 15.98 -1.02 17.91 11.9 27.99 -1.02 11.9 -11.11 13.94 8.954 -33.09
3.405 17.91 6.914 11.9 17.91 25.95 33.89 -1.02 33.89 31.96 41.93 -17 17.91 5.894 25.95 0 -23.01
3.41 33.89 16.89 25.95 33.89 41.93 45.9 -2.04 39.89 53.95 55.99 -33.09 21.99 31.96 39.89 -3.06 0
3.415 49.98 32.98 37.97 49.98 55.99 53.95 7.934 39.89 71.97 65.96 -43.07 23.91 59.96 49.98 -13.03 31.96
3.42 57.91 48.96 47.94 59.96 59.96 55.99 15.98 35.93 85.91 69.93 -47.03 25.95 77.98 51.91 -21.08 53.95
3.425 51.91 58.94 49.98 59.96 53.95 49.98 21.99 31.96 89.99 63.92 -47.03 25.95 79.9 37.97 -29.01 55.99
3.43 33.89 54.97 45.9 49.98 35.93 37.97 21.99 31.96 81.94 47.94 -39.1 27.99 63.92 11.9 -25.05 41.93
3.435 9.974 36.95 35.93 31.96 11.9 15.98 17.91 35.93 62 23.91 -29.01 33.89 41.93 -13.03 -11.11 25.95
3.44 -9.067 12.92 19.95 11.9 -9.067 -9.067 15.98 41.93 35.93 0.9067 -15.07 39.89 19.95 -37.06 7.934 21.99
3.445 -31.05 -7.027 5.894 -3.06 -31.05 -39.1 13.94 37.97 7.934 -23.01 -1.02 41.93 5.894 -45.11 27.99 31.96
3.45 -47.03 -27.09 -1.02 -17 -46.01 -59.05 7.934 19.95 -7.027 -41.03 5.894 35.93 1.927 -43.07 37.97 45.9
3.455 -57.01 -35.02 -7.027 -25.05 -58.03 -67.1 -2.04 -1.02 -19.04 -51 9.974 17.91 0.9067 -33.09 29.92 45.9
3.46 -57.01 -31.05 -9.067 -25.05 -67.1 -61.09 -7.027 -31.05 -29.01 -55.08 7.934 -5.1 -15.07 -25.05 11.9 23.91
3.465 -51 -25.05 -9.067 -23.01 -70.04 -51 -15.07 -55.08 -41.03 -59.05 3.967 -37.06 -45.11 -27.09 -5.1 -11.11
3.47 -45.11 -21.08 -11.11 -21.08 -70.04 -45.11 -15.07 -65.06 -59.05 -63.02 1.927 -61.09 -80.02 -37.06 -21.08 -55.08
3.475 -41.03 -25.05 -15.07 -23.01 -71.06 -45.11 -13.03 -65.06 -79.11 -65.06 -5.1 -75.03 -113.1 -43.07 -29.01 -83.08
3.48 -41.03 -35.02 -21.08 -30.03 -63.02 -45.11 -12.01 -60.07 -94.07 -63.02 -10.09 -79.11 -126 -45.11 -31.05 -87.04
3.485 -39.1 -45.11 -25.05 -38.08 -51 -36.04 -16.09 -58.03 -94.07 -47.03 -16.09 -75.03 -114 -31.05 -31.05 -73.1
3.49 -29.01 -47.03 -29.01 -39.1 -31.05 -15.07 -27.09 -55.08 -75.03 -21.08 -23.01 -65.06 -81.04 -9.067 -29.01 -51
3.495 -11.11 -37.06 -25.05 -28.11 1.927 12.92 -32.07 -48.05 -34 6.914 -26.07 -45.11 -32.07 7.934 -22.1 -26.07
3.5 13.94 -17 -17 -8.047 30.94 42.95 -30.03 -30.03 4.987 36.95 -28.11 -14.05 11.9 23.91 -12.01 -4.08
3.505 35.93 0.9067 -7.027 3.967 53.95 55.99 -19.04 -5.1 43.97 55.99 -31.05 7.934 51.91 29.92 -3.06 11.9
3.51 47.94 8.954 0.9067 17.91 63.92 52.93 0.9067 19.95 69.93 58.94 -29.01 36.95 71.97 29.92 2.947 34.91
3.515 40.91 8.954 10.99 19.95 54.97 33.89 5.894 39.89 75.94 48.96 -29.01 50.89 79 29.92 4.987 54.97
3.52 17.91 4.987 15.98 9.974 31.96 9.974 9.974 43.97 65.96 31.96 -23.01 49.98 75.94 27.99 3.967 63.92
3.525 -1.02 2.947 16.89 -1.02 7.934 -2.04 8.954 38.99 54.97 21.99 -7.027 42.95 69.93 28.9 5.894 62
3.53 -10.09 2.947 16.89 -3.06 -1.02 -2.04 3.967 25.95 39.89 7.934 2.947 31.96 52.93 20.97 8.954 45.9
3.535 -13.03 0.9067 19.95 -7.027 -9.067 -5.1 3.967 9.974 19.95 -2.04 19.95 21.99 33.89 5.894 15.98 21.99
3.54 -9.067 4.987 26.97 -2.04 -15.07 -9.067 10.99 7.934 1.927 -13.03 37.97 19.95 9.974 -11.11 26.97 -2.04
3.545 -10.09 4.987 29.92 1.927 -24.03 -22.1 19.95 7.934 -15.07 -36.04 38.99 20.97 -12.01 -40.01 36.95 -12.01
3.55 -17 0.9067 26.97 0.9067 -36.04 -38.08 26.97 10.99 -36.04 -57.01 32.98 26.97 -32.07 -61.09 46.92 -14.05
3.555 -32.07 -5.1 17.91 0 -50.09 -50.09 31.96 15.98 -49.07 -68 22.89 32.98 -40.01 -72.08 54.97 -6.007
3.56 -47.03 -9.067 4.987 -2.04 -55.08 -51 26.97 21.99 -53.04 -63.02 15.98 37.97 -35.02 -63.02 56.89 0.9067
3.565 -49.07 -11.11 0.9067 -3.06 -53.04 -41.03 17.91 19.95 -45.11 -47.03 7.934 35.93 -27.09 -45.11 45.9 -5.1
3.57 -40.01 -3.06 -2.04 0.9067 -41.03 -22.1 7.934 15.98 -33.09 -27.09 4.987 23.91 -24.03 -26.07 26.97 -29.01
3.575 -20.06 0.9067 1.927 2.947 -21.08 -5.1 -1.02 2.947 -24.03 -9.067 1.927 -1.02 -33.09 -12.01 -2.04 -57.01
3.58 -3.06 10.99 -2.04 9.974 -3.06 5.894 -9.067 -15.07 -23.01 -1.02 -1.02 -27.09 -51 -3.06 -23.01 -87.04
3.585 10.99 14.96 1.927 17.91 8.954 15.98 -17 -33.09 -17 0.9067 -5.1 -54.06 -60.07 0 -36.04 -90.1
3.59 15.98 14.96 -6.007 17.91 17.91 16.89 -19.04 -47.03 -9.067 10.99 -9.067 -66.08 -49.07 17.91 -36.04 -60.07
3.595 15.98 8.954 -13.03 11.9 23.91 19.95 -21.08 -53.04 0.9067 23.91 -15.07 -61.09 -15.07 39.89 -25.05 -9.067
3.6 9.974 0.9067 -19.04 6.914 26.97 22.89 -18.02 -44.09 14.96 40.91 -20.06 -44.09 29.92 63.92 -12.01 48.96
3.605 3.967 -1.02 -19.04 0.9067 28.9 20.97 -14.05 -28.11 30.94 48.96 -26.07 -27.09 68.91 77.98 -6.007 96.9
3.61 3.967 -5.1 -17 -3.06 27.99 19.95 -13.03 -13.03 39.89 47.94 -31.05 -11.11 89.99 73.9 -9.067 124
3.615 5.894 -9.067 -15.07 -6.007 27.99 20.97 -10.09 -2.04 40.91 37.97 -28.11 -1.02 92.94 59.96 -13.03 124
3.62 9.974 -11.11 -13.03 -10.09 23.91 15.98 -8.047 -1.02 34.91 23.91 -20.06 3.967 80.92 39.89 -13.03 101.9
3.625 13.94 -11.11 -11.11 -11.11 17.91 13.94 -7.027 -2.04 25.95 13.94 -11.11 11.9 57.91 21.99 -7.027 65.96
3.63 15.98 -9.067 -9.067 -9.067 16.89 11.9 -7.027 -2.04 17.91 7.934 -2.04 17.91 36.95 7.934 0.9067 25.95
3.635 13.94 -5.1 -9.067 -7.027 10.99 7.934 -7.027 0 11.9 1.927 -3.06 19.95 15.98 -3.06 5.894 -7.027
3.64 5.894 -3.06 -13.03 -5.1 3.967 -2.04 -5.1 1.927 5.894 -5.1 -3.06 17.91 -1.02 -25.05 11.9 -41.03
3.645 -1.02 -7.027 -21.08 -9.067 0 -15.07 -5.1 3.967 0.9067 -25.05 -1.02 11.9 -23.01 -51 17.91 -65.06
3.65 -17 -19.04 -35.02 -19.04 -16.09 -39.1 -5.1 0 -17 -51 0 1.927 -47.03 -79.11 17.91 -81.04
3.655 -35.02 -35.02 -45.11 -33.09 -39.1 -63.02 -7.027 -7.027 -43.07 -77.07 7.934 -3.06 -69.02 -97.02 13.94 -93.05
3.66 -49.07 -47.03 -49.07 -45.11 -55.08 -79.11 -11.11 -23.01 -67.1 -93.05 5.894 -15.07 -89.08 -101.1 3.967 -99.06
3.665 -55.08 -51 -45.11 -49.07 -61.09 -75.03 -17 -37.06 -83.08 -91.01 -2.04 -29.01 -99.06 -89.08 -7.027 -103
3.67 -47.03 -43.07 -37.06 -39.1 -49.07 -53.04 -21.08 -45.11 -83.08 -71.06 -9.067 -39.1 -95.09 -63.02 -23.01 -103
3.675 -27.09 -27.09 -27.09 -19.04 -25.05 -21.08 -19.04 -41.03 -67.1 -37.06 -15.07 -43.07 -77.07 -33.09 -33.09 -91.01
3.68 -3.06 -11.11 -19.04 0.9067 -2.04 5.894 -13.03 -27.09 -41.03 -3.06 -7.027 -35.02 -49.07 -3.06 -33.09 -65.06
3.685 11.9 0.9067 -13.03 11.9 19.95 21.99 -3.06 -9.067 -15.07 17.91 5.894 -19.04 -15.07 17.91 -21.08 -29.01
3.69 25.95 2.947 -7.027 19.95 29.92 25.95 1.927 1.927 -2.04 31.96 21.99 0.9067 7.934 33.89 -1.02 5.894
3.695 31.96 6.914 -1.02 17.91 29.92 21.99 5.894 11.9 7.934 35.93 25.95 9.974 27.99 45.9 11.9 41.93
3.7 35.93 10.99 1.927 15.98 25.95 21.99 7.934 13.94 13.94 35.93 17.91 17.91 39.89 49.98 19.95 65.96
3.705 39.89 16.89 9.974 13.94 27.99 25.95 11.9 11.9 19.95 39.89 0 17.91 41.93 49.98 17.91 75.94
3.71 47.94 22.89 15.98 17.91 33.89 35.93 15.98 13.94 29.92 43.97 -7.027 17.91 43.97 41.93 12.92 71.97
3.715 51.91 28.9 19.95 23.91 37.97 37.97 23.91 19.95 39.89 39.89 -7.027 19.95 43.97 25.95 4.987 56.89
3.72 49.98 30.94 21.99 31.96 41.93 31.96 27.99 27.99 41.93 27.99 0.9067 23.91 41.93 1.927 -2.04 33.89
3.725 43.97 30.94 23.91 33.89 37.97 17.91 25.95 35.93 35.93 5.894 9.974 27.99 31.96 -17 -1.02 8.954
3.73 31.96 28.9 23.91 31.96 22.89 -2.04 19.95 37.97 21.99 -15.07 19.95 27.99 15.98 -37.06 -1.02 -4.08
3.735 17.91 20.97 23.91 19.95 5.894 -13.03 13.94 29.92 5.894 -35.02 25.95 21.99 -1.02 -51 1.927 -19.04
3.74 1.927 10.99 23.91 7.934 -8.047 -23.01 13.94 18.93 -7.027 -45.11 29.92 13.94 -23.01 -57.01 5.894 -28.11
3.745 -9.067 0.9067 19.95 0.9067 -20.06 -31.05 16.89 8.954 -23.01 -43.07 33.89 3.967 -37.06 -53.04 9.974 -36.04
3.75 -23.01 -3.06 11.9 -7.027 -25.05 -33.09 21.99 1.927 -29.01 -33.09 33.89 0.9067 -41.03 -39.1 13.94 -41.03
3.755 -29.01 -9.067 1.927 -10.09 -16.09 -31.05 22.89 2.947 -27.09 -19.04 31.96 0.9067 -34 -23.01 18.93 -41.03
3.76 -27.09 -17 -3.06 -8.047 -3.06 -23.01 14.96 0.9067 -19.04 -1.02 19.95 -3.06 -18.02 0 12.92 -41.03
3.765 -15.07 -23.01 -11.11 -15.07 3.967 -9.067 3.967 -3.06 -5.1 9.974 3.967 -11.11 -3.06 27.99 1.927 -29.01
3.77 -2.04 -29.01 -12.01 -20.06 9.974 0 -2.04 -13.03 0.9067 25.95 -7.027 -18.02 6.914 47.94 -6.007 -9.067
3.775 -1.02 -29.01 -10.09 -26.07 10.99 9.974 -9.067 -31.05 8.954 34.91 -15.07 -28.11 16.89 55.99 -15.07 10.99
3.78 0.9067 -25.05 -5.1 -27.09 7.934 13.94 -11.11 -35.02 13.94 33.89 -11.11 -27.09 23.91 51.91 -15.07 37.97
3.785 -2.04 -15.07 1.927 -16.09 5.894 13.94 -3.06 -23.01 17.91 30.94 -2.04 -12.01 31.96 38.99 -2.04 63.92
3.79 -2.04 -3.06 4.987 0 8.954 9.974 -1.02 -4.08 21.99 19.95 14.96 2.947 36.95 25.95 5.894 74.92
3.795 -2.04 -1.02 7.934 7.934 8.954 1.927 6.914 12.92 21.99 10.99 24.93 16.89 31.96 11.9 17.91 68.91
3.8 0 2.947 2.947 16.89 4.987 -1.02 14.96 18.93 17.91 0.9067 26.97 20.97 14.96 1.927 15.98 46.92
3.805 1.927 0.9067 0 14.96 -1.02 -5.1 13.94 13.94 5.894 -8.047 17.91 10.99 -7.027 -6.007 8.954 13.94
3.81 0.9067 0.9067 -1.02 5.894 -9.067 -7.027 9.974 5.894 -7.027 -13.03 5.894 -2.04 -29.01 -15.07 0.9067 -11.11
3.815 -1.02 0.9067 1.927 6.914 -10.09 -1.02 7.934 0 -14.05 -10.09 0 0 -38.08 -19.04 -11.11 -26.07
3.82 2.947 0.9067 2.947 14.96 -5.1 1.927 2.947 5.894 -12.01 -5.1 -2.04 1.927 -32.07 -15.07 -20.06 -29.01
3.825 9.974 12.92 11.9 27.99 0 9.974 3.967 13.94 -3.06 0.9067 0 1.927 -17 -11.11 -29.01 -35.02
3.83 17.91 22.89 17.91 38.99 7.934 13.94 8.954 18.93 3.967 0.9067 3.967 1.927 -8.047 -13.03 -34 -45.11
3.835 17.91 26.97 19.95 38.99 4.987 9.974 6.914 14.96 7.934 -5.1 9.974 -3.06 -12.01 -21.08 -34 -67.1
3.84 9.974 22.89 13.94 27.99 0 5.894 0 3.967 7.934 -11.11 13.94 -13.03 -27.09 -29.01 -21.08 -93.05
3.845 1.927 14.96 1.927 11.9 1.927 5.894 1.927 -1.02 3.967 -5.1 17.91 -13.03 -35.02 -23.01 5.894 -98.04
3.85 0.9067 2.947 -5.1 -2.04 0.9067 9.974 -1.02 2.947 3.967 9.974 21.99 1.927 -23.01 0.9067 43.97 -72.08
3.855 0.9067 -1.02 -13.03 -3.06 9.974 17.91 1.927 13.94 11.9 35.93 21.99 31.96 3.967 29.92 77.98 -23.01
3.86 0 -3.06 -19.04 -1.02 18.93 23.91 15.98 23.91 23.91 55.99 21.99 55.99 37.97 59.96 98.94 26.97
3.865 1.927 -1.02 -19.04 -1.02 19.95 21.99 25.95 25.95 31.96 59.96 15.98 62 57.91 71.97 94.98 68.91
3.87 0 0.9067 -13.03 -1.02 13.94 11.9 25.95 13.94 29.92 43.97 15.98 43.97 55.99 59.96 69.93 81.94
3.875 -1.02 0.9067 -7.027 -1.02 3.967 3.967 13.94 0.9067 19.95 19.95 17.91 11.9 35.93 37.97 40.91 76.96
3.88 -7.027 -1.02 -2.04 0.9067 -2.04 1.927 0 -13.03 7.934 1.927 17.91 -9.067 15.98 19.95 16.89 63.92
3.885 -5.1 2.947 3.967 3.967 0 7.934 -5.1 -11.11 3.967 0 13.94 -15.07 9.974 15.98 0 57.91
3.89 -2.04 8.954 3.967 13.94 11.9 17.91 -5.1 -2.04 7.934 11.9 7.934 -5.1 13.94 21.99 -1.02 59.96
3.895 9.974 12.92 1.927 19.95 21.99 27.99 0.9067 17.91 17.91 25.95 0.9067 9.974 25.95 29.92 -3.06 63.92
3.9 17.91 12.92 -2.04 21.99 25.95 29.92 0 29.92 27.99 33.89 -9.067 19.95 35.93 31.96 -13.03 59.96
3.905 21.99 10.99 -2.04 17.91 25.95 29.92 -2.04 29.92 35.93 33.89 -15.07 17.91 41.93 29.92 -27.09 47.94
3.91 23.91 8.954 1.927 17.91 25.95 27.99 -3.06 23.91 37.97 29.92 -13.03 3.967 41.93 25.95 -39.1 27.99
3.915 23.91 10.99 13.94 25.95 27.99 29.92 -1.02 19.95 39.89 25.95 -7.027 -1.02 37.97 21.99 -39.1 1.927
3.92 23.91 18.93 25.95 41.93 35.93 35.93 3.967 25.95 41.93 21.99 0.9067 0.9067 29.92 9.974 -25.05 -25.05
3.925 25.95 30.94 35.93 57.91 41.93 39.89 21.99 37.97 41.93 17.91 3.967 7.934 13.94 -3.06 -1.02 -57.01
3.93 23.91 38.99 37.97 65.96 39.89 35.93 33.89 45.9 35.93 9.974 7.934 23.91 -3.06 -27.09 15.98 -87.04
3.935 17.91 38.99 29.92 55.99 31.96 23.91 29.92 39.89 25.95 0 5.894 29.92 -21.08 -43.07 29.92 -101.1
3.94 7.934 28.9 13.94 29.92 13.94 5.894 11.9 19.95 11.9 -3.06 0 23.91 -29.01 -43.07 27.99 -93.05
3.945 -1.02 10.99 -1.02 0 0.9067 -5.1 -7.027 -1.02 0 -1.02 -5.1 9.974 -19.04 -21.08 18.93 -61.09
3.95 -13.03 -5.1 -15.07 -19.04 -13.03 -17 -23.01 -21.08 -3.06 0 -11.11 -2.04 0 5.894 9.974 -11.11
3.955 -21.08 -17 -23.01 -29.01 -23.01 -19.04 -23.01 -29.01 -7.027 9.974 -13.03 -1.02 27.99 37.97 6.914 33.89
3.96 -23.01 -21.08 -27.09 -29.01 -25.05 -17 -17 -27.09 -7.027 15.98 -9.067 -1.02 43.97 57.91 8.954 69.93
3.965 -21.08 -19.04 -25.05 -21.08 -23.01 -11.11 -13.03 -19.04 -7.027 13.94 -5.1 -1.02 43.97 62 5.894 85.91
3.97 -16.09 -13.03 -19.04 -15.07 -22.1 -10.09 -14.05 -16.09 -7.027 6.914 0.9067 -11.11 27.99 52.93 0 79.9
3.975 -14.05 -5.1 -15.07 -9.067 -24.03 -14.05 -22.1 -18.02 -17 -2.04 0.9067 -26.07 0 32.98 -17 53.95
3.98 -15.07 -1.02 -9.067 -3.06 -27.09 -19.04 -25.05 -23.01 -27.09 -15.07 -1.02 -45.11 -27.09 7.934 -37.06 19.95
3.985 -14.05 4.987 0 0 -24.03 -18.02 -14.05 -20.06 -39.1 -22.1 -3.06 -48.05 -49.07 -10.09 -45.11 -8.047
3.99 -10.09 18.93 4.987 11.9 -14.05 -12.01 -1.02 -6.007 -43.07 -22.1 -5.1 -36.04 -51 -28.11 -36.04 -24.03
3.995 -1.02 30.94 13.94 25.95 -1.02 0.9067 13.94 9.974 -29.01 -17 -5.1 -9.067 -31.05 -37.06 -21.08 -25.05
4 5.894 40.91 22.89 31.96 15.98 10.99 21.99 31.96 -2.04 -1.02 -5.1 18.93 -2.04 -29.01 0.9067 -2.04
4.005 11.9 44.99 24.93 35.93 25.95 21.99 15.98 45.9 20.97 5.894 -3.06 49.98 33.89 -17 9.974 10.99
4.01 11.9 38.99 21.99 35.93 33.89 21.99 9.974 53.95 39.89 13.94 -3.06 63.92 55.99 -5.1 23.91 13.94
4.015 6.914 30.94 15.98 31.96 30.94 12.92 10.99 48.96 36.95 14.96 0.9067 63.92 53.95 0 30.94 0.9067
4.02 1.927 14.96 3.967 23.91 15.98 -1.02 13.94 33.89 18.93 5.894 1.927 48.96 32.98 -5.1 36.95 -37.06
4.025 -9.067 -1.02 -3.06 3.967 5.894 -5.1 13.94 11.9 -1.02 -1.02 9.974 25.95 3.967 -13.03 37.97 -77.07
4.03 -19.04 -19.04 -16.09 -12.01 -2.04 -12.01 1.927 -9.067 -18.02 -12.01 16.89 0 -18.02 -21.08 35.93 -93.05
4.035 -33.09 -37.06 -31.05 -40.01 -17 -21.08 -12.01 -32.07 -29.01 -18.02 11.9 -18.02 -37.06 -20.06 27.99 -82.06
4.04 -50.09 -49.07 -45.11 -63.02 -35.02 -28.11 -35.02 -53.04 -36.04 -18.02 -2.04 -32.07 -44.09 -15.07 15.98 -51
4.045 -65.06 -55.08 -53.04 -82.06 -57.01 -37.06 -44.09 -66.08 -47.03 -20.06 -13.03 -40.01 -47.03 -8.047 0 -12.01
4.05 -79.11 -53.04 -52.02 -84.1 -76.05 -44.09 -41.03 -71.06 -64.04 -22.1 -28.11 -43.07 -46.01 -1.02 -5.1 9.974
4.055 -85 -47.03 -43.07 -75.03 -85 -49.07 -25.05 -69.02 -79.11 -27.09 -27.09 -39.1 -41.03 0.9067 -11.11 23.91
4.06 -75.03 -37.06 -27.09 -55.08 -75.03 -44.09 -7.027 -55.08 -78.09 -33.09 -13.03 -30.03 -28.11 1.927 -12.01 33.89
4.065 -58.03 -31.05 -9.067 -35.02 -54.06 -32.07 0.9067 -34 -62.11 -30.03 0 -21.08 -9.067 6.914 -14.05 45.9
4.07 -39.1 -21.08 0.9067 -15.07 -31.05 -17 1.927 -17 -39.1 -23.01 5.894 -17 7.934 7.934 -21.08 51.91
4.075 -15.07 -9.067 -1.02 -1.02 -9.067 0.9067 -1.02 -5.1 -10.09 -9.067 0 -19.04 23.91 7.934 -39.1 48.96
4.08 0.9067 -1.02 1.927 1.927 1.927 8.954 -7.027 -3.06 0.9067 1.927 -11.11 -38.08 25.95 5.894 -67.1 28.9
4.085 3.967 14.96 0.9067 1.927 9.974 19.95 -17 -17 7.934 15.98 -29.01 -63.02 13.94 -2.04 -99.06 -7.027
4.09 14.96 30.94 2.947 7.934 18.93 26.97 -12.01 -26.07 9.974 26.97 -31.05 -78.09 -2.04 -2.04 -112.1 -50.09
4.095 20.97 38.99 10.99 13.94 24.93 30.94 -2.04 -28.11 11.9 32.98 -27.09 -78.09 -7.027 -4.08 -105.1 -86.02
4.1 27.99 44.99 17.91 23.91 31.96 27.99 3.967 -17 17.91 31.96 -13.03 -59.05 -15.07 -5.1 -67.1 -103
4.105 26.97 44.99 19.95 29.92 36.95 22.89 14.96 0.9067 27.99 24.93 -1.02 -20.06 -13.03 -6.007 -15.07 -93.05
4.11 16.89 34.91 11.9 31.96 28.9 8.954 18.93 22.89 29.92 8.954 5.894 11.9 -11.11 -14.05 28.9 -69.02
4.115 -2.04 20.97 1.927 25.95 13.94 -3.06 11.9 33.89 23.91 -9.067 11.9 45.9 -13.03 -35.02 63.92 -45.11
4.12 -15.07 4.987 -3.06 9.974 -2.04 -17 3.967 31.96 11.9 -35.02 15.98 59.96 -17 -57.01 80.92 -29.01
4.125 -25.05 -3.06 -11.11 -1.02 -9.067 -23.01 -2.04 19.95 -1.02 -55.08 15.98 59.96 -19.04 -73.1 79 -15.07
4.13 -25.05 -11.11 -17 -15.07 -17 -21.08 -1.02 0 -17 -65.06 9.974 43.97 -17 -69.02 65.96 0.9067
4.135 -17 -15.07 -23.01 -25.05 -17 -15.07 -3.06 -17 -29.01 -59.05 -2.04 19.95 -9.067 -45.11 46.92 17.91
4.14 -11.11 -17 -29.01 -29.01 -15.07 -7.027 -7.027 -35.02 -33.09 -39.1 -15.07 -1.02 1.927 -9.067 27.99 43.97
4.145 -9.067 -17 -33.09 -29.01 -13.03 -7.027 -15.07 -43.07 -29.01 -13.03 -27.09 -21.08 15.98 21.99 7.934 63.92
4.15 -13.03 -19.04 -35.02 -31.05 -15.07 -13.03 -23.01 -45.11 -19.04 1.927 -31.05 -33.09 25.95 41.93 -3.06 69.93
4.155 -25.05 -23.01 -37.06 -33.09 -21.08 -27.09 -27.09 -43.07 -13.03 5.894 -23.01 -35.02 23.91 43.97 -17 59.96
4.16 -37.06 -25.05 -37.06 -37.06 -33.09 -41.03 -29.01 -39.1 -15.07 -2.04 -11.11 -31.05 11.9 31.96 -23.01 39.89
4.165 -47.03 -27.09 -39.1 -43.07 -43.07 -49.07 -29.01 -39.1 -27.09 -13.03 -3.06 -27.09 0.9067 17.91 -25.05 21.99
4.17 -47.03 -25.05 -41.03 -45.11 -47.03 -43.07 -29.01 -39.1 -41.03 -23.01 -7.027 -23.01 -11.11 7.934 -23.01 13.94
4.175 -39.1 -19.04 -39.1 -41.03 -39.1 -25.05 -27.09 -33.09 -47.03 -19.04 -19.04 -17 -11.11 5.894 -25.05 13.94
4.18 -19.04 -7.027 -29.01 -25.05 -13.03 -2.04 -23.01 -17 -35.02 -1.02 -31.05 -5.1 0 11.9 -31.05 19.95
4.185 0 2.947 -13.03 0.9067 17.91 27.99 -11.11 3.967 -7.027 21.99 -35.02 3.967 21.99 19.95 -43.07 17.91
4.19 25.95 18.93 0 21.99 54.97 51.91 0 29.92 25.95 49.98 -29.01 15.98 39.89 27.99 -53.04 5.894
4.195 43.97 28.9 15.98 43.97 77.98 65.96 17.91 45.9 57.91 67.89 -15.07 21.99 43.97 31.96 -57.01 -15.07
4.2 49.98 32.98 27.99 51.91 84.89 67.89 29.92 47.94 72.99 69.93 -1.02 15.98 29.92 29.92 -48.05 -42.05
4.205 43.97 28.9 31.96 46.92 72.99 53.95 31.96 33.89 66.98 59.96 -2.04 1.927 7.934 15.98 -30.03 -62.11
4.21 27.99 16.89 31.96 29.92 47.94 33.89 23.91 9.974 43.97 39.89 -1.02 -7.027 -11.11 -1.02 -7.027 -63.02
4.215 9.974 2.947 25.95 12.92 22.89 9.974 13.94 -6.007 18.93 15.98 -9.067 -15.07 -22.1 -25.05 8.954 -42.05
4.22 -5.1 -3.06 19.95 1.927 5.894 -3.06 5.894 -22.1 -1.02 -3.06 -17 -18.02 -22.1 -43.07 22.89 -10.09
4.225 -21.08 -9.067 9.974 -9.067 -3.06 -15.07 3.967 -27.09 -9.067 -21.08 -15.07 -21.08 -17 -51 25.95 15.98
4.23 -28.11 -13.03 3.967 -10.09 -7.027 -19.04 0 -28.11 -9.067 -33.09 -7.027 -20.06 -6.007 -45.11 25.95 39.89
4.235 -28.11 -13.03 0 -14.05 -9.067 -17 -5.1 -28.11 -13.03 -39.1 -3.06 -22.1 -4.08 -35.02 13.94 41.93
4.24 -21.08 -21.08 -13.03 -19.04 -11.11 -17 -17 -25.05 -13.03 -41.03 -1.02 -25.05 -9.067 -23.01 3.967 33.89
4.245 -4.08 -25.05 -22.1 -27.09 -10.09 -10.09 -27.09 -23.01 -14.05 -36.04 -6.007 -26.07 -15.07 -11.11 0 20.97
4.25 2.947 -29.01 -30.03 -35.02 -15.07 -6.007 -31.05 -23.01 -19.04 -28.11 -12.01 -25.05 -25.05 -1.02 -5.1 3.967
4.255 9.974 -31.05 -35.02 -37.06 -15.07 -1.02 -25.05 -29.01 -27.09 -23.01 -19.04 -23.01 -31.05 -2.04 -11.11 -11.11
4.26 13.94 -21.08 -30.03 -33.09 -17 2.947 -16.09 -26.07 -29.01 -12.01 -18.02 -23.01 -30.03 0 -9.067 -35.02
4.265 10.99 -11.11 -17 -22.1 -9.067 11.9 -8.047 -19.04 -30.03 -6.007 -10.09 -16.09 -25.05 -2.04 -14.05 -66.08
4.27 15.98 -1.02 0.9067 0.9067 -2.04 15.98 -3.06 -1.02 -21.08 -2.04 -3.06 -9.067 -13.03 -3.06 -19.04 -91.01
4.275 26.97 20.97 17.91 21.99 18.93 18.93 2.947 21.99 1.927 6.914 1.927 1.927 -1.02 -8.047 -20.06 -108
4.28 34.91 32.98 32.98 45.9 39.89 23.91 14.96 51.91 25.95 15.98 1.927 20.97 15.98 -11.11 -17 -109
4.285 38.99 38.99 42.95 55.99 50.89 27.99 30.94 68.91 51.91 22.89 1.927 40.91 33.89 -13.03 -9.067 -88.06
4.29 32.98 38.99 48.96 55.99 51.91 25.95 40.91 77.98 65.96 21.99 1.927 56.89 45.9 -13.03 5.894 -59.05
4.295 18.93 32.98 49.98 45.9 40.91 22.89 44.99 71.97 64.94 22.89 0.9067 65.96 56.89 -10.09 26.97 -18.02
4.3 7.934 22.89 41.93 33.89 31.96 15.98 37.97 63.92 53.95 13.94 3.967 73.9 65.96 -7.027 47.94 11.9
4.305 10.99 20.97 37.97 30.94 29.92 11.9 30.94 62 46.92 8.954 8.954 82.96 75.94 -3.06 68.91 44.99
4.31 19.95 18.93 24.93 25.95 33.89 2.947 22.89 62.9 49.98 4.987 10.99 83.98 88.97 0.9067 81.94 65.96
4.315 21.99 12.92 11.9 17.91 37.97 -1.02 15.98 59.96 51.91 0.9067 7.934 77.98 89.99 0.9067 83.98 75.94
4.32 12.92 0.9067 -2.04 3.967 29.92 -14.05 7.934 47.94 51.91 -4.08 6.914 62 79.9 -5.1 79.9 73.9
4.325 -10.09 -15.07 -22.1 -19.04 2.947 -32.07 -5.1 15.98 34.91 -16.09 6.914 30.94 55.99 -15.07 62.9 62.9
4.33 -45.11 -43.07 -47.03 -53.04 -33.09 -51 -31.05 -23.01 -1.02 -31.05 3.967 -5.1 17.91 -27.09 37.97 43.97
4.335 -74.01 -63.02 -66.08 -80.02 -75.03 -63.02 -57.01 -68 -51 -45.11 -2.04 -40.01 -18.02 -33.09 7.934 21.99
4.34 -86.02 -77.07 -77.07 -98.04 -101.1 -67.1 -71.06 -100.1 -93.05 -55.08 -11.11 -72.08 -54.06 -37.06 -15.07 0
4.345 -83.08 -79.11 -75.03 -97.02 -105.1 -59.05 -71.06 -115 -119 -57.01 -31.05 -93.05 -77.07 -35.02 -47.03 -21.08
4.35 -65.06 -71.06 -57.01 -76.05 -85 -45.11 -53.04 -108 -116.1 -53.04 -41.03 -98.04 -86.02 -29.01 -66.08 -44.09
4.355 -43.07 -55.08 -29.01 -46.01 -56.1 -31.05 -29.01 -86.02 -94.07 -45.11 -41.03 -97.02 -88.06 -25.05 -78.09 -64.04
4.36 -23.01 -33.09 -1.02 -19.04 -27.09 -23.01 -11.11 -59.05 -67.1 -37.06 -31.05 -91.01 -85 -21.08 -87.04 -81.04
4.365 -13.03 -11.11 9.974 0 -6.007 -21.08 -3.06 -35.02 -40.01 -27.09 -21.08 -83.08 -75.03 -15.07 -92.03 -84.1
4.37 -11.11 0.9067 13.94 -2.04 -2.04 -21.08 -7.027 -23.01 -26.07 -17 -21.08 -71.06 -59.05 -5.1 -94.07 -74.01
4.375 -15.07 0.9067 5.894 -7.027 -7.027 -21.08 -15.07 -21.08 -25.05 -9.067 -33.09 -59.05 -39.1 5.894 -91.01 -49.07
4.38 -17 -1.02 0 -21.08 -15.07 -17 -21.08 -21.08 -27.09 0.9067 -49.07 -45.11 -17 19.95 -79.11 -15.07
4.385 -13.03 -9.067 -2.04 -25.05 -19.04 -9.067 -21.08 -19.04 -25.05 1.927 -59.05 -27.09 0 33.89 -55.08 17.91
4.39 -5.1 -13.03 3.967 -19.04 -13.03 0.9067 -15.07 -9.067 -15.07 5.894 -51 -5.1 17.91 37.97 -23.01 47.94
4.395 1.927 -9.067 11.9 -7.027 0.9067 3.967 -7.027 0.9067 -3.06 9.974 -27.09 9.974 29.92 35.93 3.967 62
4.4 9.974 -1.02 13.94 0 11.9 5.894 -1.02 5.894 5.894 11.9 0.9067 27.99 35.93 27.99 31.96 62
4.405 13.94 4.987 13.94 7.934 21.99 3.967 0 9.974 15.98 13.94 15.98 39.89 39.89 17.91 45.9 53.95
4.41 11.9 8.954 11.9 7.934 25.95 0 7.934 11.9 23.91 15.98 21.99 43.97 39.89 5.894 45.9 39.89
4.415 7.934 6.914 11.9 5.894 23.91 -1.02 17.91 13.94 27.99 9.974 17.91 41.93 31.96 -1.02 37.97 25.95
4.42 3.967 2.947 13.94 5.894 19.95 -5.1 25.95 19.95 25.95 0 9.974 33.89 19.95 -15.07 27.99 13.94
4.425 3.967 -1.02 13.94 5.894 13.94 -11.11 31.96 23.91 17.91 -11.11 3.967 23.91 1.927 -27.09 19.95 1.927
4.43 3.967 -1.02 7.934 1.927 9.974 -17 25.95 21.99 5.894 -23.01 0 15.98 -9.067 -35.02 19.95 -3.06
4.435 0 -5.1 -1.02 -3.06 1.927 -21.08 11.9 11.9 -3.06 -27.09 -1.02 9.974 -15.07 -35.02 19.95 -9.067
4.44 0.9067 -9.067 -17 -17 -1.02 -19.04 -5.1 0.9067 -13.03 -19.04 -11.11 5.894 -13.03 -23.01 15.98 -11.11
4.445 -1.02 -15.07 -29.01 -29.01 -6.007 -7.027 -25.05 -13.03 -15.07 -1.02 -21.08 -2.04 -1.02 -7.027 4.987 -13.03
4.45 0.9067 -19.04 -35.02 -33.09 -4.08 5.894 -39.1 -23.01 -11.11 13.94 -31.05 -7.027 1.927 7.934 -12.01 -21.08
4.455 5.894 -21.08 -33.09 -29.01 0.9067 21.99 -41.03 -25.05 -5.1 25.95 -35.02 -21.08 -2.04 19.95 -33.09 -37.06
4.46 15.98 -21.08 -27.09 -18.02 4.987 29.92 -37.06 -23.01 -3.06 25.95 -32.07 -37.06 -11.11 21.99 -46.01 -55.08
4.465 19.95 -19.04 -21.08 -10.09 4.987 23.91 -29.01 -21.08 -9.067 17.91 -22.1 -44.09 -31.05 15.98 -42.05 -67.1
4.47 15.98 -19.04 -21.08 -9.067 -2.04 5.894 -23.01 -23.01 -17 1.927 -11.11 -43.07 -43.07 5.894 -27.09 -63.02
4.475 3.967 -21.08 -23.01 -12.01 -5.1 -11.11 -14.05 -22.1 -23.01 -7.027 -1.02 -30.03 -39.1 1.927 -7.027 -41.03
4.48 -7.027 -21.08 -25.05 -18.02 -19.04 -27.09 -4.08 -22.1 -21.08 -15.07 6.914 -14.05 -19.04 -2.04 5.894 -7.027
4.485 -19.04 -19.04 -23.01 -23.01 -31.05 -31.05 0 -21.08 -15.07 -15.07 1.927 -3.06 3.967 -1.02 7.934 19.95
4.49 -25.05 -13.03 -15.07 -17 -30.03 -25.05 10.99 -16.09 -7.027 -9.067 -3.06 1.927 24.93 -1.02 6.914 37.97
4.495 -21.08 -3.06 -1.02 -9.067 -22.1 -15.07 14.96 -10.09 -1.02 0 -17 0 32.98 -1.02 0.9067 41.93
4.5 -13.03 4.987 7.934 0 -11.11 -5.1 11.9 -5.1 0.9067 0.9067 -21.08 -2.04 25.95 -3.06 -2.04 37.97
4.505 -5.1 14.96 19.95 12.92 1.927 -1.02 15.98 3.967 -2.04 0 -8.047 0 14.96 -15.07 0.9067 30.94
4.51 0 20.97 27.99 21.99 5.894 -1.02 16.89 13.94 2.947 -6.007 6.914 8.954 5.894 -31.05 3.967 26.97
4.515 3.967 18.93 25.95 17.91 11.9 -3.06 21.99 21.99 3.967 -15.07 23.91 15.98 1.927 -43.07 5.894 25.95
4.52 8.954 12.92 18.93 9.974 12.92 -4.08 24.93 18.93 4.987 -23.01 30.94 15.98 4.987 -43.07 6.914 27.99
4.525 9.974 2.947 4.987 0 4.987 -5.1 16.89 9.974 1.927 -25.05 24.93 6.914 5.894 -36.04 0 23.91
4.53 3.967 -3.06 0.9067 -3.06 0.9067 -7.027 2.947 -3.06 1.927 -22.1 13.94 0 0 -28.11 0.9067 9.974
4.535 -3.06 -5.1 -6.007 -7.027 -2.04 -5.1 -8.047 -15.07 -5.1 -23.01 6.914 -10.09 -5.1 -22.1 -5.1 1.927
4.54 -14.05 -1.02 -4.08 -3.06 -2.04 -8.047 -14.05 -12.01 -10.09 -21.08 10.99 -13.03 -14.05 -23.01 -2.04 -13.03
4.545 -19.04 2.947 0.9067 1.927 -3.06 -9.067 -9.067 -2.04 -13.03 -19.04 11.9 -1.02 -19.04 -23.01 0 -27.09
4.55 -21.08 10.99 3.967 11.9 -1.02 -7.027 6.914 19.95 -12.01 -16.09 12.92 10.99 -15.07 -21.08 9.974 -34
4.555 -17 12.92 3.967 12.92 1.927 -3.06 25.95 35.93 -11.11 -10.09 4.987 23.91 -10.09 -9.067 24.93 -36.04
4.56 -13.03 10.99 0.9067 5.894 -1.02 -2.04 29.92 29.92 -11.11 -5.1 -1.02 25.95 -9.067 -2.04 29.92 -31.05
4.565 -7.027 4.987 -9.067 -1.02 -2.04 3.967 24.93 12.92 -7.027 4.987 -3.06 19.95 -4.08 16.89 34.91 -19.04
4.57 -1.02 0.9067 -19.04 -15.07 -4.08 7.934 10.99 -12.01 -7.027 13.94 0.9067 0.9067 0 32.98 30.94 -2.04
4.575 0.9067 -1.02 -23.01 -25.05 -3.06 9.974 -1.02 -37.06 -5.1 21.99 5.894 -11.11 -2.04 41.93 19.95 19.95
4.58 -2.04 0.9067 -19.04 -22.1 -1.02 9.974 -6.007 -44.09 -5.1 23.91 14.96 -18.02 7.934 46.92 7.934 29.92
4.585 0 6.914 -7.027 -8.047 0.9067 9.974 -4.08 -34 -7.027 21.99 16.89 -14.05 11.9 40.91 1.927 23.91
4.59 0 14.96 1.927 3.967 0.9067 9.974 0 -11.11 -11.11 9.974 13.94 -3.06 11.9 25.95 -1.02 5.894
4.595 3.967 24.93 13.94 22.89 0.9067 7.934 7.934 11.9 -11.11 -2.04 10.99 12.92 7.934 7.934 2.947 -9.067
4.6 5.894 30.94 17.91 36.95 8.954 3.967 13.94 33.89 -9.067 -11.11 10.99 31.96 1.927 -9.067 18.93 -21.08
4.605 5.894 30.94 13.94 37.97 11.9 0 15.98 43.97 0.9067 -19.04 13.94 45.9 0 -25.05 33.89 -23.01
4.61 3.967 24.93 0 29.92 12.92 -1.02 11.9 39.89 5.894 -21.08 17.91 45.9 1.927 -31.05 40.91 -15.07
4.615 0 12.92 -13.03 15.98 4.987 -7.027 5.894 25.95 13.94 -17 21.99 35.93 9.974 -25.05 34.91 -9.067
4.62 -2.04 -1.02 -27.09 1.927 0.9067 -7.027 0 9.974 13.94 -7.027 21.99 17.91 19.95 -15.07 15.98 -9.067
4.625 0 -5.1 -35.02 -1.02 -3.06 0.9067 -2.04 0 5.894 1.927 17.91 0 25.95 0.9067 0 -13.03
4.63 7.934 -3.06 -33.09 -5.1 -2.04 9.974 -2.04 -1.02 0 17.91 9.974 -5.1 29.92 13.94 -3.06 -13.03
4.635 21.99 -1.02 -25.05 -1.02 13.94 29.92 0 0.9067 0 35.93 1.927 -3.06 35.93 35.93 0 0.9067
4.64 33.89 6.914 -15.07 1.927 31.96 45.9 0 1.927 9.974 49.98 0 1.927 41.93 57.91 15.98 17.91
4.645 35.93 6.914 -7.027 9.974 37.97 49.98 1.927 3.967 25.95 55.99 3.967 15.98 51.91 71.97 35.93 43.97
4.65 25.95 0.9067 0.9067 11.9 29.92 37.97 3.967 7.934 37.97 51.91 13.94 27.99 57.91 73.9 49.98 59.96
4.655 9.974 -1.02 1.927 7.934 11.9 19.95 7.934 9.974 35.93 37.97 25.95 33.89 59.96 59.96 53.95 63.92
4.66 -2.04 -5.1 5.894 0 -1.02 3.967 11.9 11.9 23.91 19.95 31.96 33.89 53.95 37.97 47.94 55.99
4.665 -1.02 -1.02 11.9 -1.02 -7.027 -2.04 15.98 15.98 7.934 7.934 25.95 29.92 43.97 17.91 33.89 47.94
4.67 1.927 2.947 15.98 -3.06 0.9067 7.934 17.91 17.91 -2.04 5.894 13.94 25.95 33.89 7.934 15.98 39.89
4.675 17.91 10.99 17.91 0 9.974 23.91 15.98 15.98 0 13.94 -2.04 15.98 27.99 11.9 -2.04 37.97
4.68 33.89 14.96 15.98 9.974 23.91 39.89 7.934 9.974 7.934 25.95 -7.027 5.894 23.91 23.91 -13.03 33.89
4.685 41.93 16.89 9.974 17.91 27.99 47.94 -2.04 0 17.91 37.97 -11.11 0.9067 23.91 33.89 -19.04 29.92
4.69 45.9 16.89 1.927 21.99 27.99 47.94 -7.027 -3.06 21.99 45.9 -9.067 -3.06 30.94 41.93 -10.09 25.95
4.695 43.97 16.89 -1.02 19.95 26.97 41.93 -8.047 -5.1 22.89 47.94 0.9067 -2.04 42.95 45.9 0.9067 23.91
4.7 37.97 12.92 -3.06 13.94 25.95 35.93 -7.027 -1.02 21.99 49.98 7.934 9.974 53.95 49.98 19.95 29.92
4.705 27.99 6.914 -8.047 5.894 28.9 31.96 -2.04 4.987 24.93 47.94 17.91 21.99 64.94 49.98 32.98 37.97
4.71 13.94 -1.02 -18.02 -2.04 24.93 21.99 1.927 12.92 22.89 37.97 21.99 25.95 60.98 41.93 32.98 37.97
4.715 -2.04 -7.027 -29.01 -5.1 13.94 9.974 -3.06 13.94 13.94 19.95 17.91 15.98 37.97 19.95 19.95 19.95
4.72 -9.067 -9.067 -34 -13.03 0.9067 -2.04 -4.08 4.987 -1.02 0.9067 8.954 0.9067 2.947 -2.04 5.894 -1.02
4.725 -15.07 -9.067 -29.01 -15.07 -6.007 -5.1 -10.09 -4.08 -16.09 -17 2.947 -23.01 -25.05 -26.07 0.9067 -31.05
4.73 -7.027 -7.027 -19.04 -13.03 -7.027 -1.02 -9.067 -17 -27.09 -21.08 1.927 -33.09 -45.11 -39.1 0.9067 -49.07
4.735 6.914 0.9067 -5.1 -2.04 1.927 4.987 0.9067 -17 -21.08 -9.067 6.914 -29.01 -31.05 -28.11 4.987 -43.07
4.74 22.89 8.954 2.947 2.947 25.95 16.89 3.967 -11.11 0.9067 6.914 12.92 -15.07 1.927 -4.08 8.954 -15.07
4.745 33.89 16.89 3.967 9.974 43.97 25.95 7.934 0.9067 19.95 25.95 11.9 0.9067 31.96 13.94 -2.04 19.95
4.75 34.91 22.89 3.967 14.96 47.94 24.93 9.974 10.99 35.93 34.91 5.894 3.967 53.95 29.92 -10.09 49.98
4.755 26.97 28.9 4.987 14.96 38.99 16.89 2.947 17.91 34.91 26.97 -2.04 3.967 48.96 17.91 -24.03 62
4.76 17.91 34.91 11.9 19.95 23.91 5.894 3.967 21.99 17.91 3.967 -1.02 -2.04 19.95 -1.02 -29.01 47.94
4.765 10.99 40.91 26.97 26.97 11.9 1.927 15.98 27.99 1.927 -15.07 -2.04 -1.02 -12.01 -31.05 -19.04 16.89
4.77 9.974 48.96 41.93 34.91 7.934 0 34.91 31.96 -7.027 -29.01 6.914 0.9067 -42.05 -48.05 -1.02 -8.047
4.775 12.92 56.89 42.95 40.91 13.94 -1.02 48.96 38.99 -5.1 -26.07 10.99 14.96 -46.01 -45.11 15.98 -25.05
4.78 13.94 54.97 33.89 41.93 21.99 8.954 52.93 43.97 1.927 -7.027 14.96 36.95 -30.03 -20.06 37.97 -26.07
4.785 16.89 46.92 16.89 32.98 27.99 18.93 47.94 47.94 17.91 13.94 15.98 57.91 -2.04 9.974 57.91 -12.01
4.79 13.94 32.98 0 23.91 25.95 29.92 29.92 45.9 27.99 37.97 19.95 69.93 19.95 41.93 69.93 1.927
4.795 12.92 12.92 -4.08 10.99 24.93 34.91 16.89 41.93 32.98 52.93 23.91 71.97 36.95 62 74.92 13.94
4.8 6.914 -1.02 -11.11 1.927 19.95 32.98 3.967 30.94 31.96 50.89 29.92 55.99 39.89 65.96 62.9 15.98
4.805 0 -21.08 -21.08 -13.03 5.894 17.91 -1.02 15.98 17.91 37.97 25.95 23.91 25.95 57.91 31.96 9.974
4.81 -2.04 -37.06 -28.11 -28.11 -1.02 2.947 -11.11 1.927 1.927 22.89 20.97 -7.027 10.99 46.92 2.947 5.894
4.815 -14.05 -41.03 -35.02 -42.05 -13.03 -6.007 -21.08 -19.04 -11.11 5.894 10.99 -37.06 -1.02 32.98 -12.01 11.9
4.82 -25.05 -41.03 -35.02 -47.03 -19.04 -17 -29.01 -39.1 -23.01 0.9067 1.927 -53.04 -9.067 23.91 -15.07 25.95
4.825 -29.01 -31.05 -27.09 -41.03 -16.09 -11.11 -30.03 -46.01 -24.03 -3.06 -1.02 -45.11 -5.1 20.97 -1.02 39.89
4.83 -25.05 -15.07 -14.05 -27.09 -4.08 0 -24.03 -38.08 -16.09 0.9067 1.927 -25.05 0 12.92 17.91 41.93
4.835 -17 -1.02 0.9067 -9.067 5.894 11.9 -11.11 -19.04 -3.06 1.927 -2.04 -2.04 0 3.967 29.92 27.99
4.84 -5.1 10.99 16.89 3.967 18.93 15.98 2.947 0.9067 10.99 3.967 -2.04 23.91 4.987 -1.02 36.95 5.894
4.845 0 18.93 28.9 15.98 22.89 5.894 20.97 26.97 18.93 1.927 1.927 39.89 2.947 -11.11 26.97 -7.027
4.85 5.894 22.89 35.93 19.95 15.98 -5.1 29.92 43.97 15.98 0.9067 9.974 43.97 0 -15.07 9.974 -11.11
4.855 9.974 18.93 34.91 15.98 8.954 -19.04 30.94 47.94 10.99 -5.1 15.98 39.89 2.947 -11.11 1.927 -3.06
4.86 11.9 12.92 23.91 7.934 1.927 -23.01 19.95 35.93 7.934 -5.1 9.974 25.95 4.987 -5.1 -14.05 1.927
4.865 13.94 8.954 11.9 -2.04 5.894 -17 1.927 13.94 9.974 0.9067 0.9067 3.967 3.967 0.9067 -27.09 3.967
4.87 15.98 8.954 7.934 -3.06 15.98 -3.06 -7.027 -3.06 13.94 5.894 -15.07 -13.03 0 0 -31.05 -3.06
4.875 19.95 14.96 15.98 -1.02 25.95 5.894 -9.067 -19.04 17.91 15.98 -23.01 -25.05 -5.1 0 -25.05 -17
4.88 21.99 20.97 29.92 3.967 31.96 13.94 -2.04 -21.08 17.91 21.99 -15.07 -23.01 -11.11 3.967 -7.027 -17
4.885 23.91 26.97 41.93 21.99 33.89 15.98 17.91 -7.027 15.98 23.91 3.967 -3.06 -7.027 11.9 13.94 0.9067
4.89 23.91 26.97 39.89 33.89 31.96 17.91 33.89 9.974 17.91 25.95 27.99 17.91 3.967 25.95 37.97 25.95
4.895 23.91 20.97 27.99 35.93 29.92 19.95 39.89 29.92 21.99 29.92 39.89 39.89 25.95 37.97 45.9 51.91
4.9 21.99 14.96 9.974 23.91 29.92 25.95 29.92 39.89 31.96 35.93 33.89 47.94 41.93 45.9 37.97 55.99
4.905 19.95 8.954 0.9067 7.934 29.92 27.99 13.94 37.97 39.89 39.89 15.98 37.97 45.9 45.9 19.95 39.89
4.91 15.98 2.947 -5.1 -3.06 25.95 25.95 0 23.91 41.93 37.97 1.927 17.91 35.93 41.93 1.927 13.94
4.915 9.974 -1.02 -5.1 -11.11 17.91 17.91 -3.06 1.927 35.93 29.92 0.9067 -3.06 15.98 35.93 -3.06 -2.04
4.92 5.894 -1.02 -5.1 -9.067 7.934 9.974 -5.1 -15.07 17.91 17.91 1.927 -23.01 0.9067 29.92 1.927 1.927
4.925 3.967 -1.02 -5.1 -1.02 0.9067 1.927 -1.02 -29.01 0.9067 5.894 9.974 -31.05 -9.067 23.91 10.99 23.91
4.93 5.894 0.9067 -5.1 1.927 -5.1 0 0 -29.01 -15.07 0 13.94 -21.08 -7.027 17.91 27.99 53.95
4.935 11.9 10.99 -1.02 9.974 -1.02 1.927 9.974 -17 -21.08 0.9067 11.9 1.927 0.9067 7.934 38.99 75.94
4.94 17.91 26.97 5.894 15.98 5.894 5.894 17.91 0 -15.07 -3.06 7.934 20.97 7.934 0.9067 38.99 77.98
4.945 21.99 40.91 19.95 25.95 21.99 9.974 23.91 23.91 0.9067 -7.027 9.974 41.93 15.98 -15.07 27.99 62
4.95 25.95 50.89 35.93 38.99 36.95 11.9 25.95 39.89 13.94 -11.11 17.91 52.93 15.98 -33.09 15.98 32.98
4.955 27.99 52.93 47.94 52.93 46.92 14.96 27.99 49.98 27.99 -17 27.99 54.97 7.934 -47.03 0 0
4.96 27.99 52.93 55.99 65.96 47.94 13.94 31.96 55.99 35.93 -21.08 37.97 51.91 0.9067 -63.02 0 -37.06
4.965 29.92 50.89 59.96 72.99 50.89 14.96 39.89 63.92 36.95 -18.02 42.95 53.95 -10.09 -69.02 6.914 -60.07
4.97 29.92 50.89 59.96 70.95 48.96 12.92 51.91 75.94 38.99 -14.05 38.99 55.99 -10.09 -65.06 20.97 -62.11
4.975 27.99 50.89 49.98 62 45.9 9.974 59.96 83.98 43.97 -1.02 29.92 53.95 1.927 -45.11 29.92 -43.07
4.98 26.97 46.92 35.93 50.89 47.94 10.99 54.97 75.94 54.97 8.954 20.97 46.92 32.98 -11.11 34.91 -3.06
4.985 22.89 30.94 15.98 35.93 43.97 14.96 36.95 51.91 60.98 28.9 18.93 24.93 62.9 23.91 29.92 35.93
4.99 15.98 12.92 -1.02 17.91 37.97 17.91 9.974 13.94 59.96 43.97 17.91 0.9067 79.9 57.91 15.98 63.92
4.995 8.954 -1.02 -14.05 4.987 28.9 17.91 -6.007 -15.07 53.95 49.98 19.95 -20.06 79.9 76.96 7.934 72.99
5 -1.02 -19.04 -24.03 -2.04 15.98 12.92 -20.06 -33.09 35.93 45.9 19.95 -28.11 59.96 79 12.92 65.96
5.005 -9.067 -27.09 -29.01 -13.03 0 0 -21.08 -29.01 19.95 35.93 17.91 -15.07 35.93 71.97 23.91 49.98
5.01 -17 -23.01 -28.11 -16.09 -11.11 -7.027 -12.01 -10.09 2.947 24.93 12.92 3.967 16.89 62 37.97 35.93
5.015 -20.06 -17 -24.03 -19.04 -27.09 -16.09 -8.047 -1.02 -7.027 9.974 5.894 17.91 3.967 49.98 48.96 29.92
5.02 -15.07 -7.027 -15.07 -14.05 -33.09 -19.04 -6.007 2.947 -25.05 -2.04 1.927 19.95 0.9067 31.96 40.91 27.99
5.025 -12.01 -1.02 -6.007 -7.027 -39.1 -16.09 -4.08 -2.04 -39.1 -7.027 -5.1 0 -3.06 17.91 18.93 23.91
5.03 -3.06 6.914 0.9067 0 -33.09 -5.1 -4.08 -20.06 -46.01 -6.007 -10.09 -19.04 -8.047 3.967 -7.027 15.98
5.035 0 10.99 9.974 0 -21.08 0 -1.02 -33.09 -45.11 -5.1 -11.11 -43.07 -17 -3.06 -31.05 7.934
5.04 4.987 10.99 16.89 6.914 -7.027 10.99 0.9067 -33.09 -35.02 0.9067 -7.027 -48.05 -17 -4.08 -46.01 5.894
5.045 6.914 8.954 22.89 8.954 -1.02 15.98 2.947 -21.08 -17 1.927 0.9067 -40.01 -17 -2.04 -47.03 1.927
5.05 3.967 6.914 23.91 9.974 3.967 13.94 1.927 -5.1 -9.067 -2.04 0 -25.05 -19.04 -9.067 -39.1 -9.067
5.055 4.987 4.987 27.99 15.98 3.967 12.92 2.947 5.894 0 -2.04 2.947 -6.007 -16.09 -19.04 -27.09 -23.01
5.06 8.954 8.954 27.99 22.89 9.974 10.99 8.954 17.91 2.947 -8.047 1.927 6.914 -8.047 -23.01 -14.05 -33.09
5.065 15.98 18.93 31.96 33.89 17.91 13.94 19.95 31.96 13.94 -1.02 -3.06 23.91 1.927 -17 0.9067 -35.02
5.07 25.95 32.98 35.93 48.96 36.95 28.9 33.89 47.94 34.91 10.99 -4.08 45.9 26.97 0.9067 18.93 -22.1
5.075 35.93 42.95 39.89 60.98 56.89 44.99 45.9 65.96 58.94 34.91 -1.02 67.89 56.89 17.91 42.95 -2.04
5.08 41.93 46.92 41.93 63.92 67.89 59.96 47.94 77.98 75.94 55.99 13.94 77.98 73.9 29.92 62 9.974
5.085 37.97 40.91 37.97 56.89 66.98 64.94 41.93 77.98 77.98 63.92 27.99 72.99 73.9 29.92 67.89 18.93
5.09 23.91 26.97 27.99 36.95 48.96 49.98 25.95 62 69.93 53.95 33.89 54.97 62 17.91 63.92 24.93
5.095 3.967 6.914 11.9 11.9 23.91 25.95 7.934 31.96 47.94 31.96 23.91 29.92 43.97 9.974 47.94 31.96
5.1 -11.11 -7.027 -3.06 -7.027 0.9067 0.9067 -3.06 -2.04 21.99 5.894 3.967 6.914 27.99 9.974 34.91 43.97
5.105 -27.09 -23.01 -23.01 -23.01 -19.04 -21.08 -15.07 -29.01 0 -11.11 -17 -6.007 15.98 17.91 22.89 57.91
5.11 -35.02 -31.05 -35.02 -35.02 -35.02 -31.05 -23.01 -49.07 -15.07 -25.05 -37.06 -21.08 3.967 23.91 13.94 65.96
5.115 -35.02 -37.06 -41.03 -41.03 -41.03 -27.09 -25.05 -55.08 -29.01 -27.09 -45.11 -27.09 -3.06 23.91 4.987 59.96
5.12 -33.09 -37.06 -37.06 -41.03 -43.07 -15.07 -27.09 -53.04 -37.06 -21.08 -43.07 -31.05 -11.11 13.94 0 41.93
5.125 -29.01 -35.02 -27.09 -39.1 -43.07 -3.06 -25.05 -43.07 -39.1 -11.11 -35.02 -29.01 -17 1.927 -15.07 21.99
5.13 -23.01 -27.09 -15.07 -31.05 -37.06 0 -23.01 -31.05 -35.02 -5.1 -27.09 -27.09 -19.04 -3.06 -29.01 1.927
5.135 -15.07 -17 -5.1 -21.08 -27.09 0 -19.04 -23.01 -27.09 -3.06 -21.08 -25.05 -17 -7.027 -45.11 -11.11
5.14 -1.02 -7.027 -2.04 -7.027 -13.03 -2.04 -15.07 -17 -19.04 -7.027 -19.04 -25.05 -15.07 -9.067 -63.02 -27.09
5.145 13.94 2.947 3.967 3.967 0 -2.04 -9.067 -11.11 -11.11 -9.067 -17 -27.09 -9.067 -11.11 -83.08 -41.03
5.15 35.93 14.96 11.9 17.91 15.98 3.967 -1.02 -5.1 0.9067 -3.06 -15.07 -29.01 -3.06 -15.07 -99.06 -49.07
5.155 49.98 26.97 19.95 29.92 31.96 17.91 1.927 0 11.9 5.894 -9.067 -25.05 3.967 -15.07 -103 -49.07
5.16 55.99 32.98 27.99 37.97 39.89 31.96 9.974 11.9 29.92 23.91 -1.02 -15.07 15.98 -17 -91.01 -49.07
5.165 47.94 32.98 31.96 37.97 40.91 39.89 13.94 27.99 41.93 31.96 5.894 0.9067 21.99 -23.01 -59.05 -53.04
5.17 33.89 24.93 25.95 31.96 28.9 33.89 13.94 35.93 44.99 21.99 19.95 11.9 15.98 -35.02 -19.04 -63.02
5.175 17.91 12.92 15.98 19.95 7.934 11.9 13.94 37.97 27.99 -1.02 33.89 21.99 -2.04 -53.04 13.94 -77.07
5.18 3.967 0.9067 3.967 6.914 -8.047 -11.11 13.94 29.92 0.9067 -35.02 43.97 19.95 -24.03 -67.1 42.95 -87.04
5.185 -1.02 -3.06 0 -2.04 -28.11 -39.1 15.98 11.9 -28.11 -59.05 49.98 11.9 -50.09 -71.06 52.93 -85
5.19 -11.11 -9.067 -5.1 -17 -45.11 -53.04 13.94 -7.027 -59.05 -69.02 43.97 0.9067 -67.1 -59.05 49.98 -63.02
5.195 -20.06 -15.07 -10.09 -32.07 -53.04 -51 5.894 -29.01 -76.05 -58.03 29.92 -13.03 -72.08 -37.06 38.99 -29.01
5.2 -30.03 -27.09 -18.02 -48.05 -61.09 -36.04 -5.1 -47.03 -79.11 -38.08 11.9 -24.03 -68 -7.027 24.93 5.894
5.205 -37.06 -43.07 -29.01 -63.02 -61.09 -19.04 -19.04 -53.04 -77.07 -17 -7.027 -31.05 -55.08 9.974 11.9 41.93
5.21 -36.04 -53.04 -34 -66.08 -54.06 -4.08 -34 -51 -63.02 1.927 -20.06 -26.07 -33.09 30.94 9.974 68.91
5.215 -24.03 -51 -30.03 -59.05 -44.09 -1.02 -40.01 -41.03 -44.09 6.914 -28.11 -20.06 -9.067 38.99 7.934 82.96
5.22 -7.027 -33.09 -15.07 -41.03 -29.01 0 -33.09 -29.01 -29.01 9.974 -27.09 -15.07 0 37.97 1.927 77.98
5.225 7.934 -1.02 1.927 -17 -8.047 4.987 -20.06 -17 -11.11 8.954 -18.02 -8.047 6.914 30.94 -2.04 62.9
5.23 21.99 18.93 24.93 0.9067 3.967 11.9 -8.047 -8.047 -3.06 7.934 -16.09 -8.047 6.914 20.97 -18.02 40.91
5.235 27.99 32.98 37.97 17.91 17.91 19.95 -1.02 -1.02 0 3.967 -23.01 -17 1.927 7.934 -45.11 17.91
5.24 30.94 34.91 41.93 29.92 30.94 33.89 0 4.987 6.914 8.954 -29.01 -21.08 0.9067 4.987 -66.08 1.927
5.245 31.96 24.93 40.91 39.89 44.99 52.93 1.927 20.97 20.97 26.97 -33.09 -22.1 9.974 11.9 -83.08 0.9067
5.25 43.97 26.97 43.97 47.94 59.96 67.89 7.934 31.96 37.97 47.94 -21.08 -13.03 31.96 23.91 -85 -1.02
5.255 60.98 36.95 47.94 60.98 74.92 75.94 17.91 43.97 62 68.91 -1.02 3.967 54.97 39.89 -69.02 -1.02
5.26 72.99 50.89 51.91 64.94 84.89 70.95 28.9 49.98 79.9 75.94 16.89 27.99 67.89 45.9 -47.03 -5.1
5.265 72.99 52.93 50.89 59.96 76.96 50.89 32.98 48.96 80.92 60.98 23.91 41.93 60.98 35.93 -23.01 -13.03
5.27 50.89 40.91 37.97 40.91 46.92 12.92 30.94 35.93 62 21.99 18.93 41.93 33.89 11.9 -11.11 -27.09
5.275 10.99 14.96 15.98 10.99 0.9067 -27.09 17.91 17.91 23.91 -20.06 5.894 23.91 -2.04 -15.07 -5.1 -43.07
5.28 -29.01 -15.07 0.9067 -15.07 -45.11 -59.05 0 -5.1 -21.08 -61.09 0.9067 -3.06 -47.03 -49.07 -7.027 -49.07
5.285 -63.02 -39.1 -14.05 -37.06 -82.06 -74.01 -9.067 -32.07 -64.04 -84.1 -1.02 -32.07 -83.08 -67.1 -7.027 -47.03
5.29 -76.05 -49.07 -17 -53.04 -96.11 -69.02 -19.04 -56.1 -90.1 -86.02 3.967 -57.01 -98.04 -72.08 -10.09 -39.1
5.295 -75.03 -47.03 -13.03 -55.08 -87.04 -57.01 -23.01 -69.02 -95.09 -77.07 5.894 -65.06 -99.06 -67.1 -9.067 -27.09
5.3 -61.09 -33.09 -4.08 -46.01 -65.06 -45.11 -20.06 -70.04 -81.04 -61.09 4.987 -60.07 -86.02 -52.02 -4.08 -12.01
5.305 -47.03 -21.08 0.9067 -37.06 -46.01 -46.01 -12.01 -59.05 -55.08 -54.06 1.927 -46.01 -64.04 -40.01 1.927 1.927
5.31 -47.03 -13.03 0 -29.01 -41.03 -55.08 -7.027 -41.03 -37.06 -53.04 -7.027 -29.01 -41.03 -35.02 1.927 7.934
5.315 -52.02 -9.067 4.987 -25.05 -42.05 -62.11 -4.08 -23.01 -26.07 -56.1 -16.09 -8.047 -19.04 -32.07 5.894 14.96
5.32 -62.11 -13.03 4.987 -26.07 -54.06 -62.11 -10.09 -9.067 -31.05 -56.1 -22.1 1.927 -5.1 -29.01 0 16.89
5.325 -63.02 -19.04 5.894 -25.05 -57.01 -49.07 -19.04 -3.06 -35.02 -49.07 -27.09 0.9067 0.9067 -23.01 -17 11.9
5.33 -48.05 -13.03 12.92 -18.02 -45.11 -24.03 -25.05 -3.06 -31.05 -30.03 -27.09 -6.007 2.947 -11.11 -38.08 1.927
5.335 -18.02 -1.02 18.93 1.927 -11.11 3.967 -23.01 0.9067 -20.06 1.927 -23.01 -15.07 6.914 0 -60.07 -3.06
5.34 17.91 24.93 33.89 23.91 21.99 39.89 -9.067 3.967 1.927 33.89 -13.03 -19.04 17.91 17.91 -67.1 -7.027
5.345 55.99 54.97 52.93 52.93 58.94 69.93 9.974 23.91 32.98 67.89 0 -5.1 34.91 39.89 -52.02 -7.027
5.35 81.94 74.92 65.96 76.96 80.92 89.99 41.93 51.91 66.98 89.99 19.95 21.99 54.97 55.99 -26.07 0.9067
5.355 89.99 82.96 73.9 83.98 85.91 93.96 67.89 81.94 85.91 96 33.89 57.91 69.93 65.96 1.927 7.934
5.36 81.94 80.92 67.89 77.98 74.92 77.98 77.98 101.9 92.94 83.98 35.93 89.99 77.98 62 31.96 19.95
5.365 63.92 70.95 55.99 65.96 50.89 51.91 71.97 107.9 83.98 62 29.92 103.9 73.9 49.98 57.91 31.96
5.37 45.9 58.94 41.93 47.94 27.99 21.99 53.95 91.92 65.96 37.97 21.99 99.96 62 33.89 77.98 41.93
5.375 27.99 42.95 29.92 29.92 11.9 1.927 33.89 62 43.97 21.99 21.99 79.9 45.9 23.91 93.96 51.91
5.38 9.974 26.97 23.91 13.94 0 -3.06 19.95 27.99 23.91 11.9 31.96 57.91 29.92 21.99 103.9 59.96
5.385 -3.06 8.954 15.98 -2.04 -5.1 -7.027 13.94 1.927 7.934 5.894 49.98 35.93 15.98 23.91 101.9 59.96
5.39 -23.01 -5.1 5.894 -9.067 -15.07 -9.067 13.94 -7.027 0.9067 -2.04 65.96 15.98 3.967 23.91 87.95 51.91
5.395 -39.1 -15.07 -3.06 -17 -25.05 -15.07 13.94 -11.11 -11.11 -9.067 69.93 0 -7.027 15.98 62 35.93
5.4 -45.11 -15.07 -11.11 -15.07 -29.01 -15.07 7.934 -9.067 -21.08 -17 59.96 -7.027 -17 0 35.93 25.95
5.405 -31.05 -3.06 -7.027 -7.027 -21.08 -7.027 1.927 -7.027 -21.08 -17 39.89 -11.11 -21.08 -5.1 19.95 25.95
5.41 -1.02 8.954 3.967 5.894 -2.04 7.934 3.967 -1.02 -9.067 -5.1 21.99 -3.06 -9.067 -7.027 17.91 37.97
5.415 29.92 24.93 25.95 25.95 27.99 33.89 13.94 5.894 13.94 9.974 15.98 7.934 11.9 -2.04 27.99 55.99
5.42 62 34.91 41.93 41.93 55.99 55.99 29.92 21.99 45.9 31.96 21.99 25.95 41.93 17.91 37.97 63.92
5.425 75.94 38.99 45.9 49.98 68.91 63.92 39.89 39.89 71.97 45.9 29.92 37.97 63.92 33.89 34.91 57.91
5.43 69.93 34.91 41.93 47.94 62.9 55.99 39.89 47.94 81.94 49.98 29.92 33.89 69.93 43.97 10.99 35.93
5.435 51.91 28.9 37.97 37.97 43.97 41.93 25.95 45.9 71.97 45.9 17.91 17.91 62 41.93 -17 5.894
5.44 33.89 24.93 35.93 25.95 26.97 29.92 10.99 37.97 53.95 39.89 -2.04 -1.02 43.97 36.95 -44.09 -13.03
5.445 19.95 20.97 39.89 18.93 14.96 25.95 2.947 29.92 33.89 40.91 -10.09 -4.08 27.99 32.98 -56.1 -19.04
5.45 17.91 20.97 43.97 17.91 13.94 31.96 3.967 27.99 23.91 43.97 -11.11 0.9067 19.95 35.93 -49.07 -9.067
5.455 20.97 22.89 48.96 26.97 24.93 39.89 14.96 33.89 23.91 50.89 0.9067 16.89 19.95 46.92 -21.08 7.934
5.46 24.93 26.97 48.96 38.99 31.96 43.97 28.9 43.97 31.96 50.89 20.97 36.95 21.99 56.89 5.894 29.92
5.465 25.95 30.94 45.9 43.97 29.92 41.93 35.93 47.94 33.89 45.9 35.93 47.94 23.91 62 35.93 45.9
5.47 20.97 34.91 44.99 46.92 19.95 31.96 42.95 48.96 27.99 34.91 44.99 52.93 24.93 57.91 58.94 49.98
5.475 14.96 32.98 40.91 42.95 4.987 20.97 45.9 44.99 17.91 24.93 46.92 49.98 24.93 43.97 74.92 51.91
5.48 7.934 28.9 33.89 31.96 -1.02 13.94 43.97 35.93 7.934 17.91 45.9 45.9 29.92 27.99 83.98 55.99
5.485 5.894 16.89 25.95 19.95 -5.1 16.89 39.89 30.94 3.967 15.98 49.98 46.92 38.99 14.96 86.93 62.9
5.49 7.934 6.914 11.9 12.92 0 18.93 32.98 26.97 5.894 20.97 52.93 44.99 42.95 10.99 84.89 68.91
5.495 11.9 -1.02 5.894 3.967 1.927 19.95 19.95 19.95 5.894 19.95 49.98 39.89 41.93 9.974 71.97 67.89
5.5 19.95 2.947 9.974 1.927 6.914 15.98 6.914 8.954 6.914 15.98 43.97 30.94 32.98 8.954 56.89 62
5.505 24.93 6.914 20.97 0 8.954 4.987 0.9067 0 0 5.894 28.9 17.91 20.97 4.987 32.98 44.99
5.51 28.9 18.93 32.98 6.914 4.987 0.9067 1.927 0 -3.06 0.9067 15.98 2.947 9.974 3.967 10.99 23.91
5.515 30.94 26.97 38.99 15.98 4.987 -2.04 6.914 1.927 -5.1 -1.02 2.947 0.9067 4.987 2.947 -6.007 0.9067
5.52 25.95 34.91 39.89 25.95 8.954 0.9067 8.954 8.954 -2.04 0 0.9067 -4.08 6.914 10.99 -24.03 -15.07
5.525 19.95 30.94 35.93 23.91 17.91 5.894 5.894 15.98 1.927 9.974 -9.067 -9.067 7.934 19.95 -41.03 -35.02
5.53 15.98 28.9 29.92 20.97 28.9 12.92 0.9067 22.89 11.9 22.89 -12.01 -16.09 8.954 32.98 -51 -44.09
5.535 13.94 20.97 21.99 9.974 33.89 16.89 -1.02 14.96 15.98 29.92 -13.03 -22.1 6.914 34.91 -52.02 -40.01
5.54 9.974 14.96 11.9 1.927 37.97 17.91 -3.06 3.967 11.9 27.99 -9.067 -25.05 5.894 29.92 -47.03 -23.01
5.545 10.99 8.954 4.987 1.927 34.91 16.89 -1.02 -1.02 7.934 24.93 0 -17 10.99 25.95 -28.11 0
5.55 12.92 4.987 0 0 29.92 13.94 -2.04 1.927 9.974 18.93 4.987 -2.04 20.97 21.99 -2.04 25.95
5.555 13.94 4.987 -3.06 -1.02 25.95 11.9 -3.06 1.927 15.98 13.94 9.974 11.9 29.92 15.98 21.99 43.97
5.56 12.92 6.914 -2.04 0 19.95 7.934 -4.08 11.9 17.91 12.92 12.92 30.94 33.89 18.93 49.98 45.9
5.565 8.954 4.987 1.927 -6.007 8.954 0 1.927 15.98 15.98 8.954 10.99 44.99 25.95 16.89 69.93 35.93
5.57 1.927 0.9067 0 -17 0.9067 -1.02 3.967 17.91 3.967 0 7.934 45.9 9.974 7.934 81.94 15.98
5.575 1.927 0.9067 0 -22.1 -8.047 -5.1 10.99 9.974 -5.1 -2.04 8.954 44.99 -1.02 0 86.93 1.927
5.58 5.894 -1.02 -2.04 -25.05 -8.047 -1.02 10.99 0 -13.03 -7.027 7.934 34.91 -7.027 -14.05 80.92 -1.02
5.585 13.94 -1.02 0.9067 -19.04 -1.02 1.927 0 -7.027 -11.11 -7.027 9.974 19.95 -1.02 -23.01 62 -2.04
5.59 19.95 8.954 -2.04 -7.027 12.92 11.9 -7.027 -15.07 -1.02 -2.04 9.974 3.967 7.934 -17 40.91 5.894
5.595 23.91 18.93 5.894 1.927 24.93 19.95 -13.03 -15.07 7.934 9.974 7.934 -3.06 23.91 -3.06 18.93 13.94
5.6 21.99 26.97 17.91 9.974 29.92 25.95 -9.067 -9.067 15.98 21.99 5.894 -9.067 33.89 7.934 0 11.9
5.605 17.91 26.97 25.95 11.9 25.95 29.92 -2.04 0.9067 17.91 29.92 1.927 -11.11 31.96 21.99 -3.06 0
5.61 17.91 24.93 29.92 11.9 21.99 31.96 9.974 9.974 15.98 33.89 -2.04 -9.067 21.99 23.91 -11.11 -15.07
5.615 21.99 24.93 29.92 11.9 23.91 33.89 13.94 17.91 15.98 33.89 -1.02 -11.11 9.974 19.95 -21.08 -31.05
5.62 29.92 26.97 25.95 15.98 29.92 33.89 9.974 19.95 19.95 33.89 -7.027 -17 3.967 13.94 -39.1 -35.02
5.625 35.93 30.94 21.99 23.91 37.97 29.92 1.927 11.9 27.99 29.92 -11.11 -25.05 7.934 9.974 -59.05 -21.08
5.63 35.93 30.94 15.98 27.99 39.89 23.91 0.9067 0 31.96 23.91 -15.07 -33.09 17.91 9.974 -75.03 -2.04
5.635 29.92 24.93 7.934 23.91 27.99 15.98 -3.06 -5.1 27.99 9.974 -17 -37.06 21.99 7.934 -75.03 21.99
5.64 19.95 10.99 -2.04 11.9 5.894 5.894 -3.06 -7.027 9.974 -3.06 -19.04 -31.05 11.9 0 -61.09 35.93
5.645 9.974 -1.02 -7.027 0.9067 -13.03 -2.04 -3.06 -5.1 -11.11 -23.01 -17 -19.04 -5.1 -9.067 -37.06 35.93
5.65 1.927 -13.03 -19.04 -15.07 -29.01 -5.1 -3.06 -1.02 -37.06 -37.06 -11.11 -3.06 -33.09 -27.09 -11.11 25.95
5.655 -1.02 -17 -27.09 -27.09 -37.06 -11.11 -3.06 -3.06 -53.04 -43.07 -3.06 1.927 -53.04 -37.06 0 13.94
5.66 -7.027 -17 -35.02 -33.09 -39.1 -15.07 -5.1 -11.11 -55.08 -39.1 1.927 5.894 -55.08 -33.09 10.99 7.934
5.665 -13.03 -17 -39.1 -33.09 -35.02 -17 -7.027 -27.09 -47.03 -29.01 9.974 0 -43.07 -21.08 15.98 3.967
5.67 -19.04 -19.04 -39.1 -31.05 -30.03 -15.07 -9.067 -41.03 -33.09 -19.04 15.98 -1.02 -25.05 -5.1 24.93 1.927
5.675 -23.01 -23.01 -35.02 -25.05 -30.03 -11.11 -13.03 -49.07 -25.05 -11.11 17.91 -7.027 -11.11 1.927 40.91 -2.04
5.68 -23.01 -27.09 -29.01 -21.08 -27.09 -3.06 -15.07 -43.07 -19.04 -9.067 17.91 -5.1 -5.1 5.894 53.95 -5.1
5.685 -17 -25.05 -19.04 -16.09 -20.06 3.967 -11.11 -25.05 -18.02 -7.027 17.91 1.927 -3.06 5.894 60.98 -17
5.69 -9.067 -21.08 -11.11 -10.09 -8.047 15.98 -3.06 0 -12.01 -3.06 16.89 19.95 1.927 3.967 59.96 -29.01
5.695 0.9067 -15.07 -5.1 -1.02 1.927 25.95 3.967 29.92 -1.02 0 13.94 35.93 19.95 7.934 37.97 -41.03
5.7 7.934 -5.1 -1.02 4.987 17.91 29.92 17.91 50.89 12.92 9.974 10.99 42.95 36.95 9.974 9.974 -49.07
5.705 17.91 0.9067 -1.02 12.92 27.99 29.92 27.99 52.93 30.94 19.95 6.914 30.94 40.91 11.9 -14.05 -55.08
5.71 27.99 8.954 0.9067 17.91 33.89 25.95 25.95 33.89 33.89 23.91 0.9067 0 23.91 5.894 -43.07 -55.08
5.715 30.94 12.92 -2.04 19.95 28.9 15.98 11.9 0 24.93 21.99 -10.09 -34 -2.04 0.9067 -65.06 -46.01
5.72 26.97 12.92 0 13.94 21.99 7.934 -9.067 -38.08 9.974 13.94 -28.11 -72.08 -32.07 -7.027 -81.04 -32.07
5.725 13.94 6.914 -2.04 7.934 9.974 3.967 -31.05 -65.06 -3.06 3.967 -43.07 -91.01 -45.11 -7.027 -79.11 -11.11
5.73 2.947 -1.02 -1.02 4.987 6.914 3.967 -39.1 -57.01 -8.047 -2.04 -47.03 -81.04 -31.05 -1.02 -60.07 8.954
5.735 -3.06 -1.02 -5.1 3.967 6.914 1.927 -33.09 -29.01 -4.08 0.9067 -32.07 -47.03 -7.027 4.987 -24.03 28.9
5.74 -11.11 -5.1 -9.067 1.927 11.9 1.927 -15.07 3.967 1.927 0.9067 -11.11 0.9067 15.98 7.934 11.9 35.93
5.745 -14.05 -5.1 -11.11 0 13.94 1.927 -2.04 31.96 12.92 1.927 9.974 37.97 30.94 4.987 47.94 34.91
5.75 -20.06 -5.1 -7.027 -11.11 8.954 -6.007 4.987 38.99 13.94 0.9067 22.89 62.9 25.95 -2.04 72.99 24.93
5.755 -25.05 -7.027 -5.1 -21.08 1.927 -19.04 4.987 24.93 2.947 -5.1 25.95 63.92 9.974 -2.04 75.94 10.99
5.76 -34 -13.03 -1.02 -25.05 -12.01 -32.07 -1.02 6.914 -9.067 -11.11 20.97 48.96 0.9067 -9.067 68.91 2.947
5.765 -38.08 -15.07 0.9067 -24.03 -23.01 -38.08 -3.06 -5.1 -22.1 -18.02 19.95 25.95 -10.09 -12.01 55.99 1.927
5.77 -39.1 -15.07 0 -21.08 -27.09 -39.1 -3.06 -9.067 -27.09 -27.09 19.95 5.894 -13.03 -19.04 41.93 -5.1
5.775 -33.09 -7.027 0 -15.07 -20.06 -35.02 0.9067 -13.03 -22.1 -27.09 22.89 -5.1 -11.11 -24.03 22.89 -20.06
5.78 -28.11 -5.1 3.967 -8.047 -10.09 -19.04 0.9067 -13.03 -8.047 -17 15.98 -19.04 -3.06 -23.01 0 -34
5.785 -19.04 -3.06 9.974 -3.06 0.9067 -2.04 -1.02 -15.07 1.927 -2.04 0 -35.02 0 -9.067 -41.03 -47.03
5.79 -4.08 2.947 15.98 3.967 13.94 15.98 -3.06 -10.09 19.95 21.99 -10.09 -44.09 16.89 13.94 -77.07 -42.05
5.795 8.954 4.987 21.99 19.95 26.97 29.92 -1.02 1.927 36.95 41.93 -20.06 -42.05 30.94 43.97 -93.05 -22.1
5.8 23.91 14.96 21.99 31.96 33.89 29.92 0 13.94 43.97 51.91 -19.04 -31.05 41.93 62 -85 3.967
5.805 31.96 24.93 17.91 36.95 31.96 21.99 11.9 34.91 46.92 47.94 -8.047 -8.047 48.96 63.92 -50.09 35.93
5.81 29.92 28.9 9.974 30.94 25.95 5.894 17.91 44.99 42.95 31.96 -1.02 10.99 42.95 49.98 -9.067 59.96
5.815 13.94 22.89 3.967 13.94 7.934 -3.06 17.91 39.89 31.96 13.94 1.927 27.99 29.92 25.95 21.99 71.97
5.82 -3.06 10.99 0 0.9067 -2.04 -9.067 13.94 25.95 20.97 0 4.987 29.92 17.91 3.967 39.89 71.97
5.825 -19.04 -1.02 1.927 -2.04 -10.09 -7.027 9.974 7.934 8.954 -5.1 1.927 19.95 1.927 -7.027 36.95 62
5.83 -25.05 -7.027 5.894 -3.06 -15.07 -1.02 5.894 -5.1 -1.02 -11.11 3.967 3.967 -7.027 -19.04 21.99 45.9
5.835 -23.01 -9.067 5.894 -1.02 -14.05 0.9067 5.894 -15.07 -17 -21.08 5.894 -7.027 -25.05 -31.05 10.99 23.91
5.84 -19.04 -7.027 1.927 -1.02 -16.09 -3.06 5.894 -17 -33.09 -31.05 5.894 -15.07 -37.06 -39.1 2.947 0
5.845 -21.08 -7.027 -3.06 -5.1 -23.01 -17 3.967 -11.11 -43.07 -37.06 0 -15.07 -43.07 -39.1 -2.04 -19.04
5.85 -29.01 -9.067 -13.03 -11.11 -27.09 -29.01 -2.04 0.9067 -41.03 -35.02 -5.1 -5.1 -39.1 -33.09 0.9067 -35.02
5.855 -35.02 -15.07 -19.04 -13.03 -25.05 -35.02 -5.1 9.974 -31.05 -25.05 -13.03 5.894 -25.05 -17 3.967 -45.11
5.86 -37.06 -17 -17 -13.03 -19.04 -31.05 -7.027 19.95 -13.03 -9.067 -13.03 21.99 -7.027 -3.06 13.94 -43.07
5.865 -31.05 -17 -13.03 -7.027 -9.067 -17 -3.06 23.91 0 1.927 -7.027 33.89 7.934 1.927 23.91 -39.1
5.87 -17 -13.03 -9.067 0.9067 0.9067 -1.02 0 21.99 11.9 13.94 -2.04 37.97 21.99 7.934 27.99 -31.05
5.875 -3.06 -5.1 -9.067 0 3.967 7.934 5.894 15.98 13.94 21.99 7.934 29.92 25.95 7.934 21.99 -27.09
5.88 5.894 -1.02 -9.067 3.967 9.974 17.91 7.934 5.894 11.9 27.99 9.974 9.974 21.99 11.9 1.927 -27.09
5.885 15.98 6.914 -7.027 7.934 15.98 23.91 3.967 0 9.974 29.92 5.894 -11.11 9.974 15.98 -19.04 -27.09
5.89 19.95 14.96 -2.04 11.9 17.91 23.91 1.927 -1.02 7.934 25.95 0.9067 -35.02 -3.06 19.95 -35.02 -25.05
5.895 19.95 18.93 11.9 15.98 15.98 17.91 5.894 -1.02 3.967 15.98 -5.1 -49.07 -17 19.95 -33.09 -15.07
5.9 11.9 18.93 21.99 15.98 5.894 3.967 13.94 -1.02 -2.04 1.927 -9.067 -43.07 -25.05 15.98 -10.09 0.9067
5.905 -2.04 14.96 23.91 9.974 -3.06 -9.067 17.91 -3.06 -5.1 -7.027 -7.027 -25.05 -21.08 9.974 18.93 13.94
5.91 -15.07 4.987 13.94 -2.04 -19.04 -23.01 13.94 -5.1 -11.11 -15.07 -3.06 -1.02 -9.067 3.967 45.9 27.99
5.915 -29.01 -3.06 -2.04 -7.027 -31.05 -31.05 0 -11.11 -13.03 -12.01 -1.02 14.96 -2.04 0.9067 56.89 33.89
5.92 -35.02 -13.03 -11.11 -14.05 -31.05 -29.01 -15.07 -15.07 -9.067 -6.007 -1.02 22.89 1.927 1.927 52.93 27.99
5.925 -35.02 -19.04 -19.04 -19.04 -29.01 -21.08 -29.01 -13.03 -1.02 -3.06 -1.02 17.91 0 -7.027 29.92 13.94
5.93 -33.09 -21.08 -21.08 -18.02 -22.1 -14.05 -33.09 -7.027 -2.04 -8.047 -3.06 8.954 -7.027 -22.1 9.974 0.9067
5.935 -33.09 -23.01 -15.07 -18.02 -22.1 -16.09 -25.05 -1.02 -3.06 -24.03 -7.027 -1.02 -23.01 -42.05 -1.02 -21.08
5.94 -37.06 -21.08 -9.067 -21.08 -29.01 -27.09 -13.03 -2.04 -19.04 -41.03 -7.027 -5.1 -41.03 -59.05 -9.067 -41.03
5.945 -40.01 -19.04 -3.06 -16.09 -30.03 -36.04 -1.02 0.9067 -37.06 -46.01 -6.007 -7.027 -53.04 -61.09 -14.05 -57.01
5.95 -36.04 -9.067 0.9067 -2.04 -28.11 -36.04 1.927 0.9067 -46.01 -37.06 -4.08 -9.067 -51 -51 -23.01 -65.06
5.955 -25.05 2.947 1.927 7.934 -13.03 -25.05 1.927 -2.04 -35.02 -17 -5.1 -9.067 -31.05 -27.09 -37.06 -61.09
5.96 -8.047 22.89 8.954 25.95 7.934 0.9067 3.967 5.894 -4.08 5.894 -12.01 -6.007 0.9067 0.9067 -51 -42.05
5.965 -1.02 38.99 10.99 33.89 31.96 17.91 7.934 17.91 30.94 30.94 -20.06 -4.08 37.97 30.94 -60.07 -16.09
5.97 5.894 38.99 7.934 31.96 43.97 35.93 7.934 27.99 63.92 43.97 -25.05 -3.06 73.9 47.94 -59.05 3.967
5.975 7.934 24.93 6.914 23.91 42.95 36.95 7.934 35.93 80.92 45.9 -13.03 -1.02 90.9 50.89 -39.1 22.89
5.98 0 2.947 5.894 12.92 33.89 27.99 12.92 35.93 77.98 36.95 -2.04 7.934 82.96 45.9 -10.09 30.94
5.985 -1.02 -11.11 3.967 5.894 15.98 7.934 15.98 29.92 49.98 17.91 21.99 19.95 51.91 25.95 17.91 27.99
5.99 -8.047 -21.08 6.914 7.934 0 -9.067 22.89 20.97 19.95 -1.02 36.95 28.9 16.89 7.934 47.94 20.97
5.995 -21.08 -21.08 6.914 5.894 -9.067 -25.05 25.95 8.954 -6.007 -16.09 35.93 30.94 -14.05 -4.08 68.91 12.92
6 -30.03 -17 3.967 0 -19.04 -31.05 20.97 -1.02 -30.03 -29.01 21.99 19.95 -38.08 -21.08 70.95 11.9
6.005 -41.03 -15.07 0 -3.06 -33.09 -35.02 7.934 -14.05 -42.05 -36.04 5.894 6.914 -48.05 -28.11 60.98 18.93
6.01 -38.08 -9.067 -8.047 -7.027 -37.06 -29.01 -6.007 -20.06 -41.03 -36.04 1.927 -2.04 -48.05 -33.09 43.97 24.93
6.015 -25.05 -7.027 -11.11 -9.067 -35.02 -21.08 -19.04 -25.05 -39.1 -29.01 -3.06 -13.03 -43.07 -31.05 21.99 25.95
6.02 -7.027 0.9067 -7.027 -2.04 -23.01 -9.067 -26.07 -29.01 -29.01 -22.1 -5.1 -27.09 -40.01 -27.09 1.927 18.93
6.025 7.934 6.914 -2.04 0 -8.047 0 -27.09 -37.06 -24.03 -17 -11.11 -42.05 -40.01 -28.11 -25.05 -1.02
6.03 11.9 8.954 0 0 -2.04 -2.04 -27.09 -47.03 -17 -17 -23.01 -59.05 -43.07 -35.02 -53.04 -25.05
6.035 6.914 8.954 8.954 0 5.894 0 -25.05 -55.08 -12.01 -20.06 -30.03 -72.08 -45.11 -46.01 -68 -58.03
6.04 0.9067 8.954 16.89 1.927 7.934 5.894 -21.08 -49.07 -10.09 -23.01 -28.11 -70.04 -39.1 -52.02 -71.06 -82.06
6.045 0.9067 6.914 19.95 9.974 9.974 7.934 -13.03 -23.01 -3.06 -17 -21.08 -53.04 -23.01 -47.03 -67.1 -89.08
6.05 0.9067 10.99 17.91 20.97 16.89 18.93 -1.02 7.934 8.954 0.9067 -10.09 -17 0 -25.05 -49.07 -73.1
6.055 8.954 16.89 11.9 28.9 30.94 28.9 5.894 43.97 29.92 20.97 -6.007 17.91 39.89 3.967 -30.03 -39.1
6.06 15.98 22.89 1.927 31.96 45.9 39.89 7.934 65.96 55.99 47.94 -7.027 51.91 79.9 37.97 -7.027 0
6.065 17.91 22.89 -1.02 26.97 54.97 42.95 5.894 69.93 77.98 72.99 -3.06 74.92 112 70.95 15.98 43.97
6.07 9.974 12.92 -5.1 12.92 48.96 32.98 7.934 59.96 85.91 80.92 7.934 82.96 124 86.93 47.94 77.98
6.075 -1.02 0.9067 -7.027 -1.02 23.91 9.974 13.94 43.97 69.93 65.96 25.95 77.98 109.9 79.9 77.98 93.96
6.08 -23.01 -21.08 -11.11 -20.06 -7.027 -17 23.91 21.99 37.97 32.98 37.97 62.9 75.94 58.94 92.94 91.92
6.085 -49.07 -41.03 -19.04 -45.11 -49.07 -49.07 25.95 0 -3.06 -2.04 33.89 40.91 31.96 24.93 88.97 75.94
6.09 -71.06 -55.08 -29.01 -67.1 -83.08 -73.1 17.91 -17 -45.11 -41.03 15.98 15.98 -7.027 -5.1 67.89 49.98
6.095 -85 -59.05 -39.1 -81.04 -99.06 -83.08 -2.04 -35.02 -79.11 -67.1 -3.06 -1.02 -39.1 -33.09 44.99 23.91
6.1 -87.04 -53.04 -41.03 -79.11 -97.02 -77.07 -19.04 -47.03 -93.05 -73.1 -15.07 -13.03 -55.08 -45.11 20.97 1.927
6.105 -75.03 -39.1 -35.02 -63.02 -79.11 -57.01 -31.05 -47.03 -89.08 -65.06 -15.07 -11.11 -51 -43.07 13.94 -3.06
6.11 -57.01 -23.01 -21.08 -41.03 -57.01 -35.02 -29.01 -37.06 -71.06 -47.03 -3.06 -1.02 -37.06 -35.02 17.91 -3.06
6.115 -39.1 -13.03 -5.1 -19.04 -35.02 -17 -19.04 -19.04 -49.07 -31.05 1.927 7.934 -21.08 -27.09 23.91 -2.04
6.12 -27.09 -7.027 3.967 -5.1 -21.08 -5.1 -5.1 -3.06 -29.01 -19.04 5.894 15.98 -9.067 -27.09 23.91 0.9067
6.125 -15.07 -1.02 15.98 0.9067 -9.067 0 0 3.967 -17 -15.07 3.967 15.98 -11.11 -33.09 9.974 -17
6.13 -1.02 6.914 23.91 7.934 0 11.9 7.934 7.934 -11.11 -11.11 0 1.927 -25.05 -41.03 -9.067 -51
6.135 13.94 22.89 31.96 23.91 17.91 29.92 15.98 5.894 -5.1 -3.06 0 -15.07 -39.1 -41.03 -37.06 -91.01
6.14 41.93 42.95 39.89 45.9 41.93 51.91 21.99 1.927 3.967 7.934 0 -39.1 -45.11 -25.05 -61.09 -113.1
6.145 67.89 56.89 45.9 63.92 67.89 71.97 21.99 -2.04 25.95 31.96 -1.02 -55.08 -29.01 1.927 -77.07 -99.06
6.15 85.91 64.94 45.9 75.94 89.99 85.91 13.94 0 53.95 55.99 -9.067 -61.09 3.967 41.93 -81.04 -49.07
6.155 87.95 60.98 39.89 73.9 99.96 89.99 3.967 5.894 79.9 75.94 -21.08 -51 53.95 75.94 -75.03 15.98
6.16 77.98 50.89 29.92 62 94.98 83.98 -2.04 9.974 91.92 81.94 -25.05 -33.09 96 97.92 -60.07 79.9
6.165 57.91 36.95 15.98 41.93 76.96 69.93 0 7.934 87.95 73.9 -19.04 -17 115.9 93.96 -42.05 113.9
6.17 33.89 20.97 0 17.91 41.93 43.97 7.934 -2.04 67.89 49.98 -9.067 -7.027 107.9 69.93 -23.01 113.9
6.175 7.934 0.9067 -11.11 -1.02 10.99 13.94 11.9 -13.03 37.97 13.94 0.9067 -3.06 77.98 33.89 0 89.99
6.18 -13.03 -11.11 -23.01 -23.01 -16.09 -15.07 8.954 -25.05 7.934 -17 1.927 -1.02 39.89 0 16.89 59.96
6.185 -31.05 -27.09 -27.09 -39.1 -37.06 -41.03 -1.02 -27.09 -13.03 -47.03 7.934 -2.04 3.967 -17 31.96 31.96
6.19 -43.07 -31.05 -27.09 -47.03 -45.11 -53.04 -14.05 -22.1 -30.03 -61.09 15.98 7.934 -14.05 -27.09 47.94 10.99
6.195 -43.07 -29.01 -22.1 -41.03 -45.11 -49.07 -20.06 -10.09 -38.08 -59.05 20.97 15.98 -30.03 -29.01 49.98 -6.007
6.2 -35.02 -25.05 -19.04 -35.02 -33.09 -35.02 -23.01 -3.06 -39.1 -43.07 23.91 15.98 -39.1 -27.09 37.97 -31.05
6.205 -21.08 -13.03 -16.09 -25.05 -18.02 -13.03 -16.09 -1.02 -32.07 -21.08 22.89 8.954 -40.01 -31.05 22.89 -52.02
6.21 -5.1 -7.027 -12.01 -13.03 0.9067 -2.04 -8.047 4.987 -22.1 -3.06 14.96 4.987 -38.08 -33.09 10.99 -64.04
6.215 3.967 -3.06 -7.027 -3.06 5.894 5.894 -1.02 11.9 -9.067 1.927 7.934 5.894 -33.09 -35.02 9.974 -65.06
6.22 10.99 -1.02 1.927 3.967 14.96 8.954 3.967 21.99 0.9067 4.987 8.954 18.93 -27.09 -31.05 16.89 -57.01
6.225 10.99 0.9067 1.927 9.974 14.96 8.954 14.96 29.92 3.967 2.947 13.94 32.98 -22.1 -25.05 25.95 -53.04
6.23 3.967 2.947 0 9.974 9.974 7.934 17.91 33.89 3.967 5.894 15.98 41.93 -17 -11.11 25.95 -51
6.235 -1.02 0.9067 0 1.927 4.987 13.94 17.91 30.94 1.927 15.98 16.89 40.91 -10.09 0 14.96 -45.11
6.24 -1.02 -1.02 -2.04 -3.06 0.9067 18.93 11.9 23.91 -2.04 27.99 14.96 31.96 1.927 17.91 1.927 -32.07
6.245 2.947 0.9067 -4.08 -7.027 1.927 19.95 8.954 18.93 0 33.89 11.9 24.93 8.954 31.96 -16.09 -12.01
6.25 4.987 -5.1 0 -9.067 -1.02 8.954 9.974 17.91 -2.04 29.92 14.96 15.98 18.93 37.97 -19.04 6.914
6.255 2.947 -3.06 0.9067 -7.027 1.927 -1.02 15.98 16.89 -2.04 15.98 16.89 12.92 18.93 29.92 -14.05 23.91
6.26 -3.06 -1.02 -3.06 -5.1 0.9067 -19.04 15.98 11.9 -1.02 -1.02 13.94 3.967 7.934 19.95 -3.06 35.93
6.265 -14.05 2.947 -3.06 -7.027 0 -22.1 6.914 0 -3.06 -10.09 3.967 0 -1.02 7.934 3.967 43.97
6.27 -20.06 0.9067 -8.047 -13.03 0 -12.01 -3.06 -9.067 -7.027 -4.08 -6.007 -14.05 0 11.9 12.92 57.91
6.275 -15.07 -1.02 -7.027 -15.07 0 1.927 -15.07 -23.01 -5.1 9.974 -15.07 -19.04 13.94 21.99 13.94 71.97
6.28 0.9067 0.9067 0 -13.03 9.974 23.91 -20.06 -24.03 2.947 29.92 -14.05 -14.05 36.95 35.93 16.89 86.93
6.285 13.94 -1.02 -1.02 -7.027 16.89 31.96 -16.09 -18.02 10.99 35.93 -6.007 -2.04 50.89 41.93 16.89 84.89
6.29 25.95 -5.1 -2.04 -3.06 15.98 25.95 -9.067 -5.1 13.94 27.99 0.9067 5.894 45.9 33.89 11.9 65.96
6.295 27.99 -1.02 -1.02 0.9067 11.9 11.9 -2.04 0.9067 6.914 7.934 0.9067 9.974 26.97 13.94 1.927 36.95
6.3 23.91 0.9067 -2.04 -2.04 9.974 0 -2.04 4.987 -2.04 -7.027 0 5.894 0.9067 -2.04 -11.11 6.914
6.305 17.91 10.99 9.974 0 11.9 -2.04 -7.027 5.894 -15.07 -11.11 0.9067 -2.04 -15.07 -9.067 -35.02 -11.11
6.31 17.91 26.97 27.99 7.934 22.89 9.974 -2.04 11.9 -15.07 -1.02 -2.04 -5.1 -23.01 -13.03 -50.09 -31.05
6.315 23.91 38.99 47.94 19.95 34.91 23.91 0 17.91 -3.06 11.9 1.927 -5.1 -21.08 -13.03 -52.02 -55.08
6.32 29.92 46.92 57.91 31.96 41.93 33.89 15.98 27.99 7.934 23.91 7.934 -2.04 -15.07 -19.04 -43.07 -83.08
6.325 31.96 48.96 57.91 35.93 44.99 29.92 27.99 35.93 19.95 21.99 7.934 7.934 -13.03 -27.09 -24.03 -105.1
6.33 27.99 40.91 49.98 31.96 34.91 15.98 35.93 41.93 21.99 9.974 11.9 19.95 -13.03 -33.09 -4.08 -107.1
6.335 15.98 28.9 39.89 19.95 17.91 0.9067 33.89 39.89 11.9 -1.02 15.98 29.92 -13.03 -31.05 5.894 -81.04
6.34 0 8.954 25.95 0 -2.04 -19.04 25.95 31.96 0 -11.11 19.95 33.89 -5.1 -19.04 17.91 -33.09
6.345 -13.03 -7.027 9.974 -19.04 -13.03 -31.05 11.9 17.91 -9.067 -15.07 25.95 31.96 1.927 -3.06 21.99 17.91
6.35 -29.01 -25.05 -1.02 -41.03 -25.05 -33.09 0.9067 1.927 -21.08 -11.11 25.95 25.95 13.94 7.934 25.95 59.96
6.355 -37.06 -37.06 -15.07 -53.04 -31.05 -25.05 -11.11 -7.027 -29.01 -5.1 19.95 19.95 19.95 19.95 33.89 79.9
6.36 -35.02 -41.03 -25.05 -55.08 -31.05 -15.07 -21.08 -15.07 -31.05 0.9067 7.934 15.98 23.91 25.95 43.97 79.9
6.365 -27.09 -37.06 -27.09 -47.03 -23.01 -9.067 -23.01 -15.07 -27.09 -2.04 -1.02 15.98 23.91 27.99 55.99 71.97
6.37 -19.04 -31.05 -25.05 -33.09 -15.07 -7.027 -19.04 -13.03 -19.04 0.9067 -11.11 15.98 21.99 25.95 62 62
6.375 -13.03 -25.05 -21.08 -23.01 -9.067 -15.07 -13.03 -15.07 -13.03 -7.027 -15.07 13.94 15.98 19.95 57.91 47.94
