    T[sec]  F7  F3  F4  F8  T3  C3  Cz  C4  T4  T5  P3  Pz  P4  T6  O1  O2
41 261.1 261.1 261.1 261.1 261.1 261.1 261.1 261.1 261.1 261.1 261.1 261.1 261.1 261.1 261.1 261.1
0.625 19 -16.07 -16.07 -4.08 -5.1 -4.08 -11.09 1.913 3.953 -9.053 -10.07 -2.04 1.913 21.93 -36.08 3.953
0.63 28.94 -11.09 -27.03 -19.13 0 0.8925 -20.02 -3.06 1.913 -4.08 -19.13 -4.08 -2.04 9.945 -39.02 -14.03
0.635 14.92 -19.13 -45.01 -33.02 -9.053 -9.053 -37.1 -15.05 -9.053 -5.1 -35.06 -23.08 -23.08 -9.053 -39.02 -41.06
0.64 -1.02 -25.12 -47.05 -29.07 -18.11 -19.13 -44.12 -21.04 -10.07 -8.033 -39.02 -34.04 -34.04 -22.06 -29.07 -57.12
0.645 -13.01 -19.13 -35.06 -11.09 -22.06 -21.04 -39.02 -15.05 -5.1 -9.053 -33.02 -35.06 -35.06 -24.1 -12.11 -62.09
0.65 -15.05 -12.11 -20.02 1.913 -14.03 -18.11 -22.06 -4.08 -2.04 -6.12 -22.06 -26.01 -26.01 -18.11 0.8925 -57.12
0.655 -13.01 -10.07 -16.07 0 -6.12 -17.09 -10.07 0.8925 -12.11 1.913 -14.03 -22.06 -20.02 -15.05 10.97 -44.12
0.66 -1.02 -8.033 -18.11 -9.053 0 -12.11 -1.02 1.913 -26.01 11.99 -9.053 -15.05 -14.03 -12.11 20.91 -26.01
0.665 2.933 -8.033 -18.11 -18.11 6.885 -6.12 -1.02 1.913 -32 24.99 0 -8.033 -6.12 -8.033 28.94 0
0.67 2.933 -13.01 -21.04 -22.06 1.913 -3.06 0.8925 0 -34.04 33.92 -2.04 -3.06 -2.04 -6.12 29.96 12.88
0.675 -1.02 -25.12 -27.03 -22.06 -1.02 -8.033 -6.12 -6.12 -31.11 24.99 -3.06 -4.08 -4.08 -10.07 27.92 27.92
0.68 -1.02 -26.01 -16.07 -14.03 -2.04 -8.033 -2.04 -2.04 -16.07 16.96 1.913 0.8925 0 -8.033 30.98 40.93
0.685 8.925 -10.07 0.8925 1.913 8.925 -1.02 13.9 9.945 0.8925 23.97 13.9 23.97 10.97 -1.02 41.95 58.91
0.69 26.9 3.953 10.97 7.905 28.94 10.97 32.9 19 17.98 34.94 28.94 42.97 29.96 4.973 52.91 68.98
0.695 36.98 14.92 16.96 4.973 38.89 14.92 42.97 19 20.91 48.96 36.98 50.87 44.88 6.885 58.91 66.94
0.7 34.94 23.97 15.94 -1.02 39.91 16.96 42.97 13.9 14.92 56.99 38.89 52.91 48.96 4.973 57.89 61.97
0.705 26.9 29.96 17.98 -1.02 38 17.98 39.91 8.925 3.953 59.93 38.89 49.98 48.96 1.913 56.99 51.89
0.71 16.96 35.96 21.93 3.953 32.9 17.98 32.9 9.945 1.913 54.95 35.96 42.97 42.97 0 45.9 40.93
0.715 4.973 41.95 22.95 8.925 19.89 11.99 26.9 5.993 0.8925 38.89 21.93 32.9 28.94 0 21.93 25.88
0.72 2.933 57.89 32.9 16.96 16.96 12.88 24.99 8.925 2.933 21.93 15.94 24.99 25.88 7.905 2.933 19
0.725 12.88 75.99 47.94 23.97 14.92 15.94 28.94 17.98 19 12.88 13.9 22.95 22.95 17.98 -1.02 14.92
0.73 12.88 74.97 45.9 15.94 6.885 10.97 19.89 13.9 23.97 1.913 5.993 12.88 14.92 17.98 -4.08 0.8925
0.735 0.8925 51.89 26.9 1.913 -1.02 0 3.953 1.913 15.94 -3.06 -2.04 0.8925 0 1.913 -5.1 -13.01
0.74 -3.06 22.95 0.8925 -13.01 -12.11 -13.01 -9.053 -3.06 1.913 -14.03 -10.07 -11.09 -13.01 -9.053 0 -27.03
0.745 0.8925 1.913 -14.03 -14.03 -11.09 -18.11 -17.09 -3.06 -3.06 -13.01 -8.033 -13.01 -16.07 -15.05 7.905 -21.04
0.75 2.933 -4.08 -29.07 -5.1 -10.07 -20.02 -25.12 -5.1 -11.09 -11.09 -5.1 -12.11 -10.07 -7.013 19 -8.033
0.755 0.8925 -5.1 -35.06 0.8925 -12.11 -27.03 -34.04 -7.013 -12.11 -10.07 -11.09 -10.07 -6.12 1.913 17.98 8.925
0.76 0.8925 -3.06 -40.04 -1.02 -20.02 -34.04 -40.04 -20.02 -10.07 -13.01 -17.09 -12.11 -3.06 11.99 12.88 28.94
0.765 -3.06 0.8925 -38.12 1.913 -23.08 -35.06 -42.08 -27.03 -11.09 -14.03 -25.12 -16.07 -12.11 21.93 11.99 38
0.77 -3.06 1.913 -41.06 -9.053 -20.02 -33.02 -40.04 -35.06 -16.07 -16.07 -23.08 -22.06 -26.01 13.9 5.993 30.98
0.775 -3.06 -2.04 -41.06 -24.1 -13.01 -27.03 -33.02 -36.08 -25.12 -21.04 -24.1 -29.07 -38.12 -3.06 -1.02 9.945
0.78 2.933 7.905 -29.07 -22.06 0.8925 -14.03 -12.11 -23.08 -24.1 -18.11 -10.07 -20.02 -32 -16.07 3.953 1.913
0.785 20.91 24.99 -6.12 -6.12 10.97 2.933 0.8925 -2.04 -6.12 -10.07 2.933 -1.02 -10.07 -8.033 14.92 8.925
0.79 26.9 39.91 8.925 7.905 16.96 12.88 10.97 8.925 5.993 1.913 16.96 16.96 9.945 2.933 24.99 24.99
0.795 16.96 34.94 7.905 10.97 6.885 0.8925 3.953 3.953 8.925 1.913 17.98 23.97 22.95 14.92 25.88 32.9
0.8 0.8925 19 0.8925 4.973 -2.04 -8.033 -6.12 -4.08 4.973 4.973 12.88 19 24.99 19 20.91 36.98
0.805 0.8925 9.945 -5.1 1.913 -1.02 -18.11 -14.03 -10.07 -2.04 10.97 15.94 19 20.91 19 19.89 33.92
0.81 -1.02 11.99 -7.013 -4.08 1.913 -15.05 -7.013 -8.033 0 21.93 20.91 19.89 16.96 8.925 15.94 24.99
0.815 -1.02 16.96 -2.04 -6.12 16.96 -2.04 2.933 0 0 22.95 26.9 24.99 14.92 2.933 14.92 14.92
0.82 8.925 30.98 6.885 0 29.96 14.92 25.88 10.97 6.885 27.92 38 39.91 26.9 8.925 19 16.96
0.825 20.91 44.88 26.9 14.92 34.94 35.96 42.97 27.92 22.95 26.9 50.87 56.99 42.97 27.92 34.94 30.98
0.83 12.88 42.97 26.9 19 26.9 34.94 42.97 28.94 28.94 19 50.87 60.95 48.96 34.94 44.88 33.92
0.835 -7.013 17.98 1.913 3.953 8.925 13.9 19.89 9.945 13.9 3.953 39.91 47.94 38 24.99 45.9 24.99
0.84 -33.02 -7.013 -21.04 -13.01 -4.08 -3.06 0 -5.1 -2.04 -4.08 23.97 30.98 20.91 6.885 39.91 13.9
0.845 -43.1 -23.08 -37.1 -27.03 -13.01 -15.05 -19.13 -17.09 -21.04 -11.09 13.9 11.99 0 -1.02 27.92 1.913
0.85 -35.06 -23.08 -39.02 -25.12 -10.07 -21.04 -26.01 -21.04 -28.05 -10.07 7.905 -1.02 -12.11 -5.1 17.98 2.933
0.855 -25.12 -16.07 -36.08 -14.03 -13.01 -28.05 -31.11 -24.1 -27.03 -11.09 0 -9.053 -27.03 -1.02 4.973 9.945
0.86 -11.09 -3.06 -25.12 -2.04 -13.01 -27.03 -29.07 -21.04 -13.01 -7.013 -5.1 -15.05 -31.11 5.993 3.953 21.93
0.865 -1.02 3.953 -17.09 15.94 -9.053 -21.04 -25.12 -13.01 -2.04 -1.02 -1.02 -15.05 -25.12 17.98 11.99 33.92
0.87 0.8925 4.973 -18.11 16.96 -10.07 -20.02 -26.01 -8.033 0.8925 1.913 0 -14.03 -22.06 14.92 14.92 29.96
0.875 -5.1 -2.04 -27.03 0.8925 -14.03 -24.1 -30.09 -12.11 -8.033 -2.04 -3.06 -20.02 -28.05 1.913 5.993 5.993
0.88 -15.05 -11.09 -29.07 -11.09 -13.01 -25.12 -27.03 -15.05 -27.03 -5.1 -9.053 -23.08 -33.02 -15.05 -5.1 -11.09
0.885 -5.1 0 -15.05 -11.09 -2.04 -13.01 -10.07 -5.1 -34.04 -4.08 -6.12 -16.07 -25.12 -18.11 -16.07 -22.06
0.89 2.933 19 6.885 -5.1 6.885 1.913 7.905 4.973 -27.03 0.8925 0.8925 -3.06 -17.09 -11.09 -23.08 -24.1
0.895 10.97 33.92 21.93 1.913 15.94 5.993 15.94 9.945 -15.05 -2.04 -3.06 -2.04 -7.013 -7.013 -29.07 -27.03
0.9 16.96 45.9 27.92 12.88 21.93 13.9 21.93 11.99 0 5.993 0.8925 4.973 1.913 -2.04 -22.06 -29.07
0.905 16.96 47.94 27.92 19.89 23.97 20.91 22.95 14.92 8.925 16.96 13.9 15.94 3.953 0 -10.07 -27.03
0.91 12.88 39.91 17.98 15.94 19.89 19.89 25.88 9.945 11.99 23.97 26.9 23.97 9.945 -4.08 0 -34.04
0.915 6.885 29.96 8.925 8.925 14.92 16.96 31.88 8.925 9.945 23.97 30.98 32.9 15.94 -8.033 0 -34.04
0.92 10.97 28.94 16.96 8.925 11.99 14.92 44.88 14.92 12.88 19 36.98 47.94 26.9 1.913 -1.02 -22.06
0.925 16.96 39.91 33.92 23.97 11.99 19.89 57.89 29.96 23.97 19.89 42.97 57.89 39.91 14.92 6.885 0
0.93 14.92 49.98 41.95 38.89 10.97 21.93 55.97 38 30.98 17.98 38 59.93 43.99 22.95 10.97 9.945
0.935 2.933 39.91 26.9 32.9 0 7.905 31.88 19.89 17.98 8.925 20.91 39.91 23.97 9.945 3.953 9.945
0.94 -9.053 20.91 1.913 12.88 -9.053 -6.12 -3.06 0 -3.06 1.913 2.933 7.905 0 -6.12 0 2.933
0.945 -13.01 3.953 -25.12 -6.12 -10.07 -18.11 -31.11 -20.02 -26.01 1.913 -1.02 -6.12 -21.04 -22.06 -2.04 0
0.95 -7.013 0 -38.12 -31.11 -6.12 -23.08 -42.08 -31.11 -45.01 1.913 -4.08 -11.09 -28.05 -30.09 -6.12 0
0.955 2.933 2.933 -40.04 -43.1 -5.1 -24.1 -39.02 -28.05 -47.05 0 -4.08 -9.053 -20.02 -22.06 -10.07 6.885
0.96 6.885 10.97 -26.01 -36.08 -1.02 -12.11 -22.06 -12.11 -34.04 1.913 0 1.913 -3.06 -6.12 -6.12 19.89
0.965 14.92 17.98 -7.013 -20.02 -4.08 -2.04 -7.013 0.8925 -14.03 0.8925 1.913 12.88 8.925 2.933 0 25.88
0.97 6.885 14.92 -10.07 -10.07 -9.053 -2.04 -13.01 2.933 -7.013 0.8925 1.913 8.925 2.933 0.8925 -2.04 14.92
0.975 -1.02 -2.04 -28.05 -13.01 -11.09 -17.09 -31.11 -10.07 -7.013 -5.1 -13.01 -6.12 -13.01 -12.11 -13.01 -2.04
0.98 -15.05 -8.033 -43.1 -21.04 -9.053 -30.09 -52.02 -30.09 -16.07 -14.03 -21.04 -19.13 -31.11 -27.03 -19.13 -20.02
0.985 -11.09 -2.04 -42.08 -24.1 -3.06 -26.01 -51 -36.08 -24.1 -12.11 -20.02 -22.06 -34.04 -29.07 -21.04 -26.01
0.99 -11.09 6.885 -27.03 -25.12 0.8925 -18.11 -34.04 -30.09 -30.09 -12.11 -13.01 -9.053 -27.03 -25.12 -27.03 -30.09
0.995 -9.053 13.9 -18.11 -23.08 -9.053 -11.09 -15.05 -22.06 -39.02 -15.05 -15.05 0 -21.04 -22.06 -41.06 -32
1 -7.013 19 -10.07 -20.02 -17.09 -6.12 -1.02 -8.033 -41.06 -19.13 -12.11 -1.02 -16.07 -20.02 -48.07 -36.08
1.005 2.933 17.98 -3.06 -10.07 -14.03 -2.04 1.913 0 -34.04 -12.11 -7.013 -1.02 -18.11 -18.11 -46.03 -37.1
1.01 8.925 12.88 -6.12 -2.04 -1.02 -4.08 1.913 0 -22.06 -3.06 -4.08 -5.1 -23.08 -20.02 -36.08 -45.01
1.015 6.885 4.973 -12.11 -1.02 -2.04 -18.11 -19.13 -12.11 -15.05 -5.1 -10.07 -21.04 -32 -24.1 -28.05 -54.06
1.02 0.8925 3.953 -16.07 -5.1 -2.04 -27.03 -38.12 -23.08 -11.09 -13.01 -20.02 -33.02 -42.08 -26.01 -24.1 -57.12
1.025 -3.06 3.953 -15.05 -10.07 -20.02 -34.04 -51 -30.09 -14.03 -25.12 -29.07 -42.08 -45.01 -22.06 -24.1 -57.12
1.03 -17.09 6.885 -18.11 -26.01 -45.01 -44.12 -59.03 -36.08 -31.11 -53.04 -52.02 -53.04 -56.1 -28.05 -42.08 -64.01
1.035 -35.06 0 -28.05 -46.03 -71.02 -55.08 -59.03 -43.1 -53.04 -78.03 -78.03 -65.03 -71.02 -45.01 -65.03 -75.1
1.04 -41.06 0.8925 -33.02 -56.1 -82.11 -57.12 -55.08 -35.06 -62.09 -89.13 -97.03 -75.1 -81.09 -56.1 -78.03 -83
1.045 -35.06 0.8925 -33.02 -47.05 -77.01 -55.08 -45.01 -27.03 -53.04 -85.04 -98.05 -79.05 -79.05 -58.01 -78.03 -78.03
1.05 -35.06 -4.08 -32 -30.09 -65.03 -54.06 -38.12 -18.11 -38.12 -70.13 -96.01 -71.02 -72.04 -50.11 -74.08 -64.01
1.055 -45.01 -19.13 -42.08 -28.05 -64.01 -64.01 -45.01 -28.05 -31.11 -61.07 -98.05 -70.13 -65.03 -42.08 -70.13 -46.03
1.06 -55.08 -37.1 -57.12 -35.06 -65.03 -73.06 -59.03 -41.06 -29.07 -59.03 -96.01 -69.11 -59.03 -30.09 -64.01 -26.01
1.065 -53.04 -45.01 -61.07 -43.1 -61.07 -76.12 -64.01 -48.07 -34.04 -58.01 -91.04 -59.03 -53.04 -12.11 -54.06 -5.1
1.07 -41.06 -43.1 -65.03 -54.06 -51 -71.02 -65.03 -49.09 -38.12 -57.12 -82.11 -52.02 -46.03 -8.033 -46.03 -2.04
1.075 -33.02 -39.02 -61.07 -59.03 -45.01 -67.07 -59.03 -45.01 -39.02 -55.08 -75.1 -47.05 -43.1 -15.05 -43.1 0
1.08 -19.13 -22.06 -48.07 -49.09 -34.04 -54.06 -45.01 -32 -31.11 -45.01 -59.03 -35.06 -35.06 -23.08 -35.06 -1.02
1.085 -11.09 -1.02 -29.07 -29.07 -20.02 -39.02 -28.05 -17.09 -20.02 -32 -40.04 -24.1 -23.08 -28.05 -28.05 1.913
1.09 -7.013 11.99 -15.05 -19.13 -11.09 -31.11 -17.09 -9.053 -13.01 -19.13 -27.03 -19.13 -21.04 -33.02 -25.12 -7.013
1.095 -5.1 26.9 -13.01 -22.06 -4.08 -28.05 -14.03 -14.03 -22.06 -10.07 -25.12 -18.11 -26.01 -35.06 -25.12 -21.04
1.1 0.8925 38.89 -20.02 -36.08 1.913 -26.01 -14.03 -20.02 -34.04 0 -22.06 -22.06 -30.09 -30.09 -20.02 -27.03
1.105 6.885 45.9 -23.08 -49.09 3.953 -15.05 -13.01 -17.09 -41.06 5.993 -11.09 -19.13 -31.11 -19.13 -5.1 -25.12
1.11 12.88 47.94 -23.08 -53.04 7.905 -7.013 -13.01 -9.053 -39.02 17.98 -1.02 -11.09 -25.12 -9.053 3.953 -17.09
1.115 6.885 38.89 -22.06 -52.02 5.993 -8.033 -19.13 -6.12 -31.11 17.98 -1.02 -9.053 -21.04 -7.013 9.945 -7.013
1.12 0.8925 27.92 -13.01 -39.02 -1.02 -13.01 -24.1 -5.1 -20.02 10.97 1.913 -10.07 -20.02 -7.013 13.9 -1.02
1.125 0.8925 29.96 -5.1 -25.12 0.8925 -17.09 -27.03 -7.013 -7.013 -2.04 -7.013 -17.09 -21.04 -15.05 9.945 -1.02
1.13 0.8925 33.92 -1.02 -13.01 -4.08 -23.08 -32 -10.07 -4.08 -14.03 -19.13 -30.09 -32 -25.12 -1.02 -11.09
1.135 -1.02 31.88 -11.09 -19.13 -12.11 -35.06 -35.06 -22.06 -13.01 -33.02 -41.06 -47.05 -49.09 -42.08 -14.03 -34.04
1.14 2.933 28.94 -22.06 -26.01 -18.11 -40.04 -34.04 -22.06 -20.02 -38.12 -54.06 -52.02 -56.1 -46.03 -24.1 -45.01
1.145 0.8925 25.88 -23.08 -26.01 -15.05 -33.02 -22.06 -11.09 -18.11 -28.05 -46.03 -42.08 -46.03 -39.02 -29.07 -38.12
1.15 -7.013 16.96 -18.11 -21.04 -11.09 -28.05 -10.07 0.8925 -16.07 -14.03 -31.11 -22.06 -26.01 -24.1 -24.1 -18.11
1.155 -15.05 10.97 -14.03 -24.1 -8.033 -26.01 0 1.913 -14.03 -8.033 -16.07 -2.04 -6.12 -12.11 -18.11 2.933
1.16 -15.05 12.88 -1.02 -20.02 -2.04 -19.13 6.885 2.933 -8.033 -4.08 1.913 12.88 10.97 1.913 -6.12 35.96
1.165 -3.06 28.94 6.885 -14.03 7.905 -2.04 24.99 11.99 0.8925 0.8925 19.89 34.94 34.94 11.99 15.94 64.9
1.17 6.885 48.96 14.92 -4.08 22.95 8.925 42.97 22.95 16.96 16.96 38.89 54.95 54.95 24.99 42.97 89
1.175 14.92 59.93 19 -1.02 34.94 22.95 52.91 28.94 32.9 38.89 52.91 68.98 64.9 30.98 68.98 97.92
1.18 24.99 62.99 19.89 11.99 46.92 34.94 60.95 34.94 46.92 62.99 70 76.88 71.91 36.98 90.91 106
1.185 30.98 66.94 28.94 24.99 58.91 46.92 66.94 41.95 52.91 84.92 84.92 84.92 78.92 46.92 110.9 104.9
1.19 32.9 65.92 28.94 29.96 66.94 53.93 63.88 38 47.94 97.92 87.98 81.98 72.93 51.89 114 90.91
1.195 30.98 60.95 20.91 16.96 67.96 45.9 46.92 24.99 33.92 90.91 75.99 62.99 49.98 38.89 93.97 61.97
1.2 28.94 61.97 13.9 1.913 64.9 39.91 28.94 13.9 16.96 80.96 57.89 38.89 28.94 29.96 67.96 34.94
1.205 34.94 61.97 6.885 -10.07 61.97 32.9 11.99 8.925 7.905 70 38.89 17.98 7.905 20.91 38 10.97
1.21 36.98 54.95 -1.02 -17.09 56.99 20.91 -4.08 2.933 1.913 52.91 12.88 0 -6.12 7.905 2.933 -10.07
1.215 30.98 31.88 -15.05 -27.03 40.93 1.913 -30.09 -9.053 -6.12 22.95 -15.05 -30.09 -30.09 -5.1 -37.1 -36.08
1.22 14.92 7.905 -34.04 -31.11 17.98 -21.04 -51 -29.07 -15.05 -2.04 -46.03 -52.02 -46.03 -18.11 -74.08 -52.02
1.225 8.925 -3.06 -42.08 -26.01 -1.02 -34.04 -57.12 -35.06 -15.05 -29.07 -64.01 -59.03 -52.02 -16.07 -95.12 -54.06
1.23 0.8925 -2.04 -44.12 -19.13 -8.033 -39.02 -59.03 -35.06 -6.12 -45.01 -72.04 -61.07 -47.05 -7.013 -105.1 -47.05
1.235 -3.06 0.8925 -44.12 -16.07 -12.11 -44.12 -57.12 -37.1 -2.04 -49.09 -72.04 -53.04 -36.08 1.913 -101.1 -28.05
1.24 0.8925 3.953 -36.08 -11.09 -11.09 -37.1 -55.08 -27.03 9.945 -40.04 -64.01 -42.08 -16.07 6.885 -84.02 0
1.245 2.933 7.905 -25.12 1.913 0.8925 -29.07 -44.12 -13.01 16.96 -16.07 -41.06 -22.06 0.8925 17.98 -49.09 22.95
1.25 6.885 4.973 -22.06 5.993 12.88 -26.01 -36.08 -4.08 19.89 -1.02 -24.1 -6.12 12.88 15.94 -14.03 42.97
1.255 4.973 0.8925 -22.06 2.933 19.89 -22.06 -27.03 -6.12 11.99 15.94 -8.033 1.913 17.98 6.885 13.9 50.87
1.26 6.885 0 -13.01 1.913 24.99 -15.05 -16.07 -1.02 12.88 28.94 5.993 14.92 26.9 7.905 43.99 56.99
1.265 16.96 16.96 -1.02 2.933 33.92 -1.02 1.913 0.8925 19.89 42.97 23.97 28.94 35.96 20.91 70 61.97
1.27 22.95 33.92 12.88 7.905 38.89 7.905 7.905 9.945 23.97 51.89 29.96 38 38.89 31.88 83.9 60.95
1.275 22.95 40.93 19 4.973 34.94 4.973 4.973 5.993 22.95 52.91 28.94 30.98 28.94 34.94 78.92 50.87
1.28 26.9 42.97 25.88 9.945 32.9 -1.02 1.913 0.8925 19 46.92 21.93 20.91 17.98 30.98 66.94 41.95
1.285 28.94 51.89 40.93 20.91 36.98 -1.02 0.8925 2.933 20.91 42.97 22.95 16.96 10.97 26.9 52.91 31.88
1.29 30.98 60.95 56.99 30.98 40.93 2.933 12.88 10.97 26.9 34.94 24.99 16.96 12.88 20.91 34.94 19
1.295 30.98 66.94 62.99 36.98 38 6.885 24.99 13.9 30.98 22.95 19.89 20.91 14.92 17.98 15.94 4.973
1.3 30.98 70.89 63.88 42.97 34.94 11.99 34.94 22.95 36.98 16.96 14.92 24.99 20.91 17.98 0 -1.02
1.305 36.98 72.93 58.91 46.92 32.9 20.91 38.89 28.94 38.89 16.96 8.925 24.99 22.95 20.91 -12.11 -12.11
1.31 34.94 62.99 44.88 45.9 27.92 16.96 30.98 23.97 28.94 12.88 0 12.88 6.885 12.88 -26.01 -30.09
1.315 26.9 45.9 25.88 30.98 21.93 3.953 16.96 7.905 8.925 4.973 -14.03 -2.04 -10.07 0 -45.01 -50.11
1.32 16.96 30.98 16.96 16.96 12.88 0 6.885 1.913 0 -2.04 -24.1 -18.11 -28.05 -2.04 -58.01 -57.12
1.325 14.92 33.92 21.93 11.99 10.97 0.8925 5.993 -1.02 0.8925 -13.01 -23.08 -21.04 -27.03 1.913 -62.09 -46.03
1.33 10.97 38 25.88 7.905 6.885 -2.04 8.925 2.933 8.925 -20.02 -21.04 -16.07 -16.07 3.953 -66.05 -31.11
1.335 0.8925 38 19.89 1.913 0 -3.06 5.993 0 19.89 -27.03 -31.11 -13.01 -5.1 5.993 -71.02 -17.09
1.34 0.8925 29.96 17.98 7.905 0 -9.053 0.8925 -2.04 32.9 -28.05 -33.02 -6.12 -1.02 9.945 -63.11 -3.06
1.345 10.97 30.98 19 14.92 -2.04 -6.12 -2.04 2.933 38 -17.09 -30.09 -3.06 1.913 9.945 -51 7.905
1.35 16.96 25.88 21.93 17.98 3.953 -7.013 -2.04 1.913 29.96 -5.1 -23.08 0.8925 1.913 9.945 -33.02 13.9
1.355 16.96 21.93 27.92 15.94 5.993 -3.06 1.913 1.913 15.94 1.913 -11.09 0 1.913 5.993 -11.09 19.89
1.36 19 28.94 38.89 12.88 10.97 4.973 14.92 4.973 8.925 14.92 4.973 10.97 8.925 9.945 14.92 27.92
1.365 24.99 40.93 51.89 17.98 22.95 21.93 30.98 11.99 10.97 28.94 27.92 24.99 20.91 15.94 47.94 33.92
1.37 28.94 51.89 51.89 21.93 31.88 25.88 39.91 13.9 17.98 38 35.96 31.88 23.97 17.98 65.92 27.92
1.375 30.98 53.93 46.92 19.89 38.89 22.95 39.91 8.925 23.97 42.97 34.94 25.88 13.9 14.92 68.98 15.94
1.38 30.98 50.87 38 22.95 41.95 15.94 31.88 5.993 19 39.91 25.88 7.905 0.8925 6.885 57.89 -1.02
1.385 34.94 51.89 31.88 21.93 39.91 11.99 29.96 5.993 11.99 33.92 15.94 -3.06 -13.01 1.913 39.91 -13.01
1.39 30.98 53.93 28.94 13.9 31.88 12.88 26.9 7.905 1.913 22.95 5.993 -16.07 -27.03 0.8925 19.89 -30.09
1.395 20.91 46.92 20.91 5.993 19 3.953 15.94 0.8925 -8.033 2.933 -6.12 -35.06 -42.08 -13.01 -6.12 -53.04
1.4 12.88 39.91 14.92 -2.04 7.905 1.913 1.913 -2.04 -13.01 -11.09 -20.02 -45.01 -51 -24.1 -28.05 -68.09
1.405 12.88 33.92 12.88 4.973 7.905 -3.06 1.913 -4.08 -5.1 -19.13 -30.09 -45.01 -52.02 -26.01 -40.04 -78.03
1.41 12.88 25.88 8.925 12.88 8.925 -6.12 -9.053 -3.06 1.913 -22.06 -39.02 -50.11 -55.08 -26.01 -49.09 -85.04
1.415 2.933 9.945 2.933 13.9 1.913 -10.07 -15.05 -6.12 1.913 -25.12 -48.07 -55.08 -57.12 -26.01 -58.01 -86.06
1.42 0.8925 4.973 -1.02 11.99 0.8925 -9.053 -12.11 -6.12 5.993 -22.06 -49.09 -52.02 -54.06 -19.13 -62.09 -74.08
1.425 -3.06 14.92 5.993 12.88 -1.02 0 -3.06 -1.02 3.953 -23.08 -42.08 -38.12 -45.01 -5.1 -62.09 -56.1
1.43 0.8925 30.98 12.88 12.88 -5.1 0.8925 1.913 2.933 6.885 -25.12 -36.08 -26.01 -32 1.913 -66.05 -40.04
1.435 -11.09 -62.09 0 42.97 -12.11 -18.11 -32 -4.08 26.9 -6.12 -38.12 -32 -18.11 0.8925 -34.04 -29.07
1.44 -9.053 -47.05 15.94 49.98 -19.13 -15.05 -21.04 3.953 31.88 -23.08 -43.1 -19.13 -1.02 7.905 -45.01 -9.053
1.445 -7.013 -35.06 33.92 45.9 -27.03 -11.09 -1.02 13.9 33.92 -39.02 -47.05 -7.013 5.993 13.9 -59.03 -1.02
1.45 -11.09 -30.09 38.89 36.98 -41.06 -6.12 11.99 16.96 29.96 -57.12 -52.02 -1.02 9.945 11.99 -75.1 -1.02
1.455 -17.09 -25.12 38 38 -46.03 1.913 32.9 21.93 34.94 -66.05 -45.01 2.933 16.96 15.94 -77.01 -3.06
1.46 -9.053 -5.1 45.9 53.93 -35.06 27.92 59.93 33.92 49.98 -63.11 -29.07 23.97 38 23.97 -65.03 1.913
1.465 0.8925 19.89 59.93 70 -20.02 54.95 82.88 50.87 62.99 -50.11 0.8925 46.92 58.91 30.98 -37.1 15.94
1.47 12.88 40.93 71.91 73.95 -2.04 72.93 90.91 60.95 63.88 -33.02 19.89 62.99 70 28.94 -14.03 28.94
1.475 24.99 48.96 78.92 60.95 4.973 78.92 86.96 62.99 56.99 -16.07 38.89 70.89 76.88 24.99 2.933 35.96
1.48 36.98 41.95 71.91 44.88 17.98 77.9 70.89 57.89 48.96 -2.04 56.99 70.89 76.88 23.97 17.98 42.97
1.485 34.94 16.96 48.96 31.88 19.89 60.95 43.99 41.95 41.95 1.913 61.97 67.96 70.89 19 24.99 40.93
1.49 22.95 -6.12 20.91 28.94 19 36.98 16.96 20.91 36.98 0.8925 58.91 56.99 64.9 19 24.99 38.89
1.495 14.92 -16.07 6.885 38.89 19 22.95 7.905 13.9 41.95 5.993 64.9 59.93 68.98 26.9 38 47.94
1.5 19 1.913 14.92 57.89 24.99 27.92 17.98 20.91 52.91 19 79.94 67.96 82.88 40.93 59.93 59.93
1.505 26.9 26.9 34.94 66.94 32.9 36.98 34.94 32.9 58.91 36.98 89 72.93 84.92 46.92 76.88 64.9
1.51 28.94 41.95 47.94 55.97 30.98 43.99 43.99 32.9 51.89 51.89 78.92 61.97 70.89 36.98 82.88 52.91
1.515 32.9 45.9 44.88 32.9 27.92 47.94 43.99 26.9 34.94 52.91 61.97 38 42.97 22.95 80.96 30.98
1.52 26.9 32.9 34.94 10.97 22.95 43.99 30.98 15.94 14.92 48.96 38.89 8.925 12.88 8.925 70.89 6.885
1.525 12.88 12.88 17.98 -4.08 15.94 26.9 9.945 -1.02 -4.08 34.94 15.94 -14.03 -17.09 -2.04 59.93 -13.01
1.53 -3.06 0 -1.02 -17.09 5.993 5.993 -6.12 -9.053 -22.06 19.89 -1.02 -40.04 -39.02 -15.05 40.93 -34.04
1.535 -17.09 0.8925 0.8925 -19.13 2.933 -1.02 -14.03 -9.053 -28.05 20.91 -9.053 -48.07 -48.07 -17.09 35.96 -44.12
1.54 -11.09 10.97 3.953 -10.07 10.97 -1.02 -8.033 -2.04 -19.13 30.98 -9.053 -49.09 -44.12 -11.09 34.94 -48.07
1.545 0.8925 23.97 3.953 -7.013 17.98 4.973 -2.04 1.913 -10.07 40.93 -10.07 -45.01 -37.1 -9.053 27.92 -54.06
1.55 2.933 17.98 0.8925 -7.013 14.92 1.913 -6.12 -1.02 -2.04 34.94 -23.08 -48.07 -38.12 -11.09 1.913 -62.09
1.555 2.933 2.933 -5.1 -6.12 6.885 -1.02 -9.053 -4.08 0 19 -42.08 -43.1 -30.09 -11.09 -20.02 -59.03
1.56 2.933 1.913 0.8925 0.8925 0.8925 -3.06 -4.08 0 8.925 -2.04 -43.1 -24.1 -5.1 -3.06 -41.06 -45.01
1.565 0.8925 0 22.95 23.97 -9.053 -1.02 10.97 23.97 24.99 -14.03 -33.02 5.993 20.91 9.945 -46.03 -19.13
1.57 0.8925 14.92 44.88 40.93 -19.13 3.953 42.97 43.99 42.97 -27.03 -9.053 46.92 61.97 25.88 -39.02 13.9
1.575 2.933 32.9 65.92 56.99 -18.11 25.88 79.94 66.94 63.88 -26.01 20.91 91.93 101 47.94 -8.033 59.93
1.58 6.885 51.89 73.95 61.97 -6.12 59.93 113 81.98 74.97 -16.07 63.88 127 133 63.88 23.97 98.94
1.585 6.885 51.89 61.97 47.94 0 78.92 127 80.96 74.97 -4.08 90.91 144 141.9 63.88 51.89 119
1.59 0.8925 36.98 41.95 19 6.885 84.92 119 64.9 57.89 -1.02 99.96 135.9 128.9 43.99 64.9 119
1.595 -3.06 25.88 25.88 -1.02 16.96 83.9 102.9 53.93 36.98 12.88 108 127 113 21.93 73.95 114.9
1.6 2.933 26.9 22.95 -13.01 29.96 83.9 89 43.99 21.93 33.92 117.9 116.9 108 7.905 86.96 107
1.605 4.973 32.9 23.97 -10.07 43.99 82.88 79.94 38.89 14.92 56.99 126 108.9 101.9 2.933 106 99.96
1.61 6.885 30.98 14.92 -6.12 48.96 77.9 68.98 29.96 8.925 72.93 128.9 101 94.99 2.933 116.9 89
1.615 8.925 25.88 6.885 0 51.89 77.9 70 24.99 8.925 84.92 129.9 93.97 89 6.885 133 78.92
1.62 8.925 25.88 13.9 1.913 56.99 81.98 73.95 32.9 11.99 93.97 134.9 87.98 80.96 12.88 148.9 68.98
1.625 10.97 34.94 22.95 2.933 60.95 90.91 82.88 40.93 10.97 98.94 130.9 78.92 68.98 14.92 152.9 48.96
1.63 14.92 45.9 32.9 1.913 60.95 97.92 85.94 44.88 8.925 98.94 121.9 67.96 54.95 8.925 147.9 27.92
1.635 22.95 58.91 38.89 0.8925 60.95 96.9 79.94 47.94 7.905 99.96 108.9 57.89 46.92 6.885 138 13.9
1.64 32.9 64.9 36.98 6.885 62.99 94.99 68.98 46.92 6.885 101 102.9 50.87 38.89 12.88 128.9 6.885
1.645 32.9 54.95 19 1.913 55.97 82.88 51.89 31.88 5.993 97.92 87.98 35.96 26.9 12.88 108.9 -2.04
1.65 16.96 33.92 0.8925 -8.033 39.91 55.97 20.91 7.905 0 82.88 56.99 8.925 2.933 7.905 73.95 -18.11
1.655 0.8925 14.92 -16.07 -26.01 19 30.98 1.913 -6.12 -16.07 58.91 19 -20.02 -24.1 -1.02 28.94 -37.1
1.66 -11.09 8.925 -23.08 -37.1 0.8925 16.96 -16.07 -12.11 -27.03 27.92 -17.09 -51 -49.09 1.913 -18.11 -50.11
1.665 -19.13 0 -27.03 -43.1 -8.033 2.933 -36.08 -18.11 -36.08 1.913 -61.07 -78.03 -64.01 0 -70.13 -59.03
1.67 -27.03 -11.09 -45.01 -41.06 -27.03 -21.04 -59.03 -27.03 -41.06 -31.11 -105.1 -91.04 -65.03 -3.06 -113.1 -57.12
1.675 -27.03 -29.07 -59.03 -23.08 -40.04 -47.05 -68.09 -29.07 -32 -44.12 -117 -78.03 -42.08 5.993 -119.1 -35.06
1.68 -21.04 -36.08 -58.01 -4.08 -45.01 -58.01 -63.11 -18.11 -13.01 -43.1 -96.01 -41.06 -3.06 23.97 -93.08 1.913
1.685 -25.12 -39.02 -53.04 5.993 -47.05 -63.11 -45.01 -9.053 1.913 -33.02 -53.04 3.953 33.92 41.95 -43.1 41.95
1.69 -33.02 -35.06 -43.1 5.993 -47.05 -53.04 -25.12 -1.02 11.99 -25.12 -1.02 49.98 63.88 47.94 3.953 73.95
1.695 -35.06 -24.1 -32 2.933 -38.12 -26.01 -6.12 0.8925 14.92 -16.07 47.94 86.96 82.88 51.89 55.97 101.9
1.7 -33.02 -7.013 -27.03 0 -24.1 0 0.8925 7.905 14.92 -2.04 91.93 108.9 94.99 47.94 89.89 115.9
1.705 -29.07 0.8925 -31.11 -5.1 -9.053 23.97 1.913 3.953 7.905 9.945 120 114 95.88 41.95 109.9 117.9
1.71 -21.04 1.913 -38.12 -15.05 3.953 36.98 1.913 0.8925 0 35.96 130.9 111.9 91.93 33.92 122.9 115.9
1.715 -9.053 10.97 -35.06 -18.11 17.98 45.9 5.993 0 -2.04 56.99 133.9 108 92.95 28.94 134.9 108.9
1.72 0.8925 21.93 -21.04 -17.09 35.96 57.89 17.98 7.905 0.8925 75.99 138 111.9 93.97 31.88 149.9 101.9
1.725 6.885 24.99 -11.09 -8.033 40.93 59.93 24.99 15.94 3.953 80.96 133.9 104.9 85.94 32.9 158 82.88
1.73 0.8925 15.94 -14.03 -7.013 31.88 48.96 13.9 10.97 0.8925 59.93 117.9 81.98 66.94 23.97 146 52.91
1.735 -1.02 0 -22.06 -9.053 17.98 30.98 0 2.933 0.8925 39.91 89 51.89 35.96 12.88 120.9 20.91
1.74 -5.1 1.913 -23.08 -7.013 8.925 20.91 -7.013 1.913 -5.1 27.92 63.88 19.89 6.885 4.973 92.95 -1.02
1.745 -3.06 5.993 -23.08 -11.09 5.993 11.99 -12.11 -1.02 -17.09 20.91 38.89 -6.12 -18.11 0.8925 61.97 -22.06
1.75 -3.06 14.92 -22.06 -26.01 0 4.973 -17.09 -16.07 -37.1 11.99 10.97 -35.06 -47.05 -14.03 34.94 -36.08
1.755 0.8925 26.9 -21.04 -34.04 -1.02 6.885 -16.07 -25.12 -49.09 5.993 -6.12 -55.08 -71.02 -30.09 15.94 -45.01
1.76 2.933 32.9 -17.09 -34.04 -1.02 6.885 -22.06 -32 -53.04 0.8925 -20.02 -76.12 -91.04 -40.04 3.953 -51
1.765 -1.02 24.99 -26.01 -30.09 -10.07 1.913 -38.12 -38.12 -52.02 -14.03 -40.04 -100.1 -112.1 -52.02 -12.11 -72.04
1.77 -9.053 0.8925 -40.04 -32 -25.12 -22.06 -62.09 -51 -56.1 -29.07 -67.07 -127.1 -132.1 -58.01 -37.1 -95.12
1.775 -23.08 -11.09 -48.07 -29.07 -38.12 -46.03 -84.02 -58.01 -58.01 -37.1 -93.08 -148 -139.1 -49.09 -59.03 -105.1
1.78 -29.07 -16.07 -44.12 -28.05 -47.05 -60.05 -89.13 -58.01 -52.02 -38.12 -106.1 -148 -132.1 -28.05 -70.13 -100.1
1.785 -37.1 -13.01 -34.04 -23.08 -54.06 -67.07 -83 -51 -41.06 -40.04 -110 -131.1 -112.1 -9.053 -73.06 -82.11
1.79 -41.06 -8.033 -28.05 -22.06 -58.01 -63.11 -68.09 -45.01 -29.07 -52.02 -105.1 -98.05 -86.06 -4.08 -75.1 -56.1
1.795 -37.1 1.913 -14.03 -10.07 -54.06 -46.03 -44.12 -28.05 -14.03 -58.01 -76.12 -54.06 -46.03 -4.08 -58.01 -28.05
1.8 -21.04 12.88 0 2.933 -33.02 -14.03 -12.11 -1.02 -1.02 -50.11 -25.12 1.913 0 -4.08 -27.03 1.913
1.805 -1.02 31.88 15.94 20.91 -7.013 15.94 17.98 23.97 12.88 -31.11 24.99 53.93 45.9 0 1.913 24.99
1.81 2.933 38 21.93 26.9 6.885 39.91 44.88 39.91 19.89 -10.07 71.91 94.99 85.94 5.993 29.96 52.91
1.815 10.97 43.99 23.97 26.9 23.97 57.89 59.93 49.98 26.9 7.905 102.9 127.9 121.9 24.99 57.89 84.92
1.82 16.96 42.97 25.88 28.94 29.96 64.9 64.9 49.98 36.98 26.9 123.9 149.9 142.9 46.92 79.94 116.9
1.825 16.96 38.89 19 20.91 30.98 58.91 50.87 40.93 38.89 32.9 127 148.9 146.9 54.95 90.91 130.9
1.83 8.925 24.99 2.933 8.925 24.99 38 19 17.98 31.88 36.98 117.9 128.9 128.9 40.93 93.97 125
1.835 -1.02 13.9 -6.12 1.913 24.99 21.93 -3.06 5.993 19.89 40.93 108.9 103.9 102.9 25.88 103.9 110.9
1.84 0.8925 8.925 -12.11 1.913 29.96 12.88 -18.11 -1.02 8.925 52.91 104.9 89 82.88 12.88 114.9 98.94
1.845 -1.02 7.905 -18.11 -1.02 34.94 8.925 -22.06 1.913 1.913 59.93 97.92 72.93 67.96 9.945 115.9 89.89
1.85 -3.06 -1.02 -26.01 -12.11 27.92 6.885 -20.02 -5.1 -10.07 49.98 83.9 61.97 46.92 4.973 103.9 75.99
1.855 -3.06 0.8925 -24.1 -18.11 15.94 12.88 -12.11 0 -20.02 36.98 70.89 48.96 30.98 6.885 82.88 64.9
1.86 -1.02 19 -15.05 -18.11 11.99 24.99 -2.04 0.8925 -23.08 23.97 64.9 39.91 17.98 8.925 63.88 43.99
1.865 8.925 34.94 -7.013 -14.03 12.88 30.98 -2.04 1.913 -27.03 15.94 58.91 19.89 1.913 2.933 39.91 13.9
1.87 10.97 38.89 -6.12 -14.03 7.905 24.99 -19.13 -4.08 -29.07 5.993 42.97 -3.06 -19.13 -4.08 14.92 -16.07
1.875 12.88 35.96 -5.1 -13.01 7.905 15.94 -34.04 -15.05 -21.04 4.973 22.95 -28.05 -34.04 -11.09 1.913 -40.04
1.88 10.97 29.96 -3.06 -3.06 8.925 4.973 -43.1 -17.09 -11.09 1.913 0 -41.06 -42.08 -12.11 -12.11 -47.05
1.885 4.973 12.88 -10.07 -3.06 5.993 -2.04 -51 -22.06 -1.02 -3.06 -20.02 -57.12 -49.09 -10.07 -32 -52.02
1.89 -3.06 1.913 -22.06 -5.1 1.913 -12.11 -53.04 -26.01 -2.04 -19.13 -41.06 -63.11 -56.1 -13.01 -49.09 -58.01
1.895 -1.02 -2.04 -29.07 -12.11 0.8925 -13.01 -46.03 -23.08 -11.09 -28.05 -43.1 -56.1 -55.08 -14.03 -53.04 -58.01
1.9 -1.02 1.913 -27.03 -11.09 7.905 -7.013 -35.06 -15.05 -17.09 -25.12 -23.08 -35.06 -43.1 -17.09 -37.1 -51
1.905 8.925 12.88 -17.09 -8.033 15.94 0 -21.04 -5.1 -18.11 -10.07 1.913 -5.1 -20.02 -20.02 -14.03 -40.04
1.91 4.973 11.99 -8.033 -7.013 19.89 6.885 -5.1 0 -11.09 1.913 30.98 19.89 0 -23.08 0.8925 -19.13
1.915 2.933 9.945 -1.02 0.8925 21.93 15.94 7.905 3.953 -2.04 13.9 55.97 49.98 31.88 -17.09 17.98 -2.04
1.92 10.97 11.99 9.945 9.945 28.94 38 28.94 21.93 22.95 28.94 79.94 74.97 64.9 -2.04 31.88 27.92
1.925 12.88 14.92 12.88 20.91 34.94 50.87 40.93 30.98 32.9 30.98 91.93 86.96 82.88 19.89 43.99 51.89
1.93 14.92 13.9 7.905 19.89 38 53.93 38 25.88 29.96 29.96 89.89 81.98 81.98 29.96 45.9 57.89
1.935 20.91 21.93 7.905 17.98 39.91 53.93 33.92 21.93 17.98 33.92 89.89 71.91 75.99 31.88 55.97 61.97
1.94 30.98 40.93 16.96 16.96 43.99 58.91 33.92 24.99 5.993 47.94 98.94 70 70 27.92 70 61.97
1.945 36.98 55.97 29.96 15.94 48.96 61.97 44.88 25.88 -1.02 62.99 103.9 66.94 62.99 20.91 79.94 51.89
1.95 26.9 57.89 38 5.993 45.9 59.93 57.89 27.92 -1.02 65.92 101.9 65.92 55.97 11.99 77.9 39.91
1.955 20.91 61.97 49.98 9.945 44.88 63.88 76.88 29.96 4.973 62.99 99.96 72.93 57.89 10.97 72.93 32.9
1.96 24.99 70 55.97 21.93 44.88 75.99 87.98 40.93 19.89 49.98 95.88 77.9 63.88 16.96 68.98 31.88
1.965 30.98 72.93 54.95 36.98 40.93 82.88 89 40.93 34.94 34.94 84.92 68.98 56.99 16.96 58.91 25.88
1.97 34.94 67.96 46.92 42.97 28.94 77.9 72.93 33.92 34.94 14.92 62.99 47.94 38 4.973 43.99 9.945
1.975 32.9 62.99 44.88 45.9 19.89 68.98 54.95 28.94 26.9 4.973 45.9 24.99 17.98 -1.02 26.9 -1.02
1.98 28.94 60.95 50.87 42.97 10.97 62.99 40.93 30.98 14.92 0.8925 28.94 4.973 -1.02 -8.033 10.97 -24.1
1.985 16.96 57.89 55.97 28.94 0 45.9 28.94 26.9 -1.02 0 5.993 -8.033 -15.05 -13.01 -12.11 -52.02
1.99 -1.02 40.93 41.95 8.925 -13.01 22.95 14.92 12.88 -14.03 -16.07 -22.06 -33.02 -42.08 -17.09 -52.02 -78.03
1.995 -9.053 28.94 26.9 -1.02 -30.09 0.8925 1.913 1.913 -24.1 -36.08 -60.05 -60.05 -68.09 -18.11 -90.02 -94.1
2 -9.053 22.95 9.945 -1.02 -40.04 -6.12 -12.11 -11.09 -22.06 -54.06 -95.12 -85.04 -90.02 -18.11 -121 -104
2.005 -9.053 17.98 1.913 -1.02 -50.11 -20.02 -24.1 -20.02 -21.04 -68.09 -128 -106.1 -113.1 -26.01 -153 -114.1
2.01 -15.05 6.885 -8.033 0 -60.05 -34.04 -36.08 -27.03 -24.1 -80.07 -158.1 -124.1 -128 -42.08 -174 -128
2.015 -25.12 -1.02 -5.1 -10.07 -66.05 -46.03 -35.06 -27.03 -30.09 -87.09 -167 -129 -133.1 -51 -180 -128
2.02 -29.07 0 1.913 -15.05 -68.09 -51 -28.05 -14.03 -31.11 -88.11 -160 -118.1 -120.1 -50.11 -170.1 -115
2.025 -31.11 -7.013 1.913 -15.05 -70.13 -53.04 -20.02 -5.1 -30.09 -86.06 -139.1 -96.01 -94.1 -46.03 -153 -96.01
2.03 -33.02 -18.11 -2.04 -19.13 -68.09 -51 -21.04 -7.013 -28.05 -81.09 -115 -69.11 -62.09 -38.12 -133.1 -67.07
2.035 -25.12 -22.06 -12.11 -11.09 -58.01 -41.06 -22.06 -8.033 -20.02 -70.13 -75.1 -36.08 -24.1 -20.02 -95.12 -29.07
2.04 -7.013 -13.01 -11.09 0.8925 -38.12 -15.05 -18.11 -3.06 -8.033 -44.12 -27.03 1.913 12.88 0 -49.09 8.925
2.045 -1.02 -4.08 -11.09 0.8925 -17.09 1.913 -9.053 0.8925 0.8925 -16.07 9.945 31.88 43.99 13.9 -4.08 41.95
2.05 2.933 1.913 -11.09 -6.12 -5.1 1.913 -4.08 -3.06 -3.06 1.913 39.91 50.87 60.95 14.92 22.95 59.93
2.055 0.8925 3.953 -8.033 -15.05 -2.04 1.913 -1.02 0 -4.08 9.945 56.99 60.95 66.94 16.96 44.88 68.98
2.06 0.8925 10.97 -1.02 -8.033 3.953 9.945 4.973 0 0.8925 13.9 70 62.99 66.94 20.91 54.95 70
2.065 -1.02 16.96 -1.02 0.8925 5.993 16.96 9.945 3.953 1.913 12.88 67.96 57.89 61.97 15.94 50.87 57.89
2.07 0.8925 19.89 -3.06 7.905 8.925 21.93 6.885 1.913 0.8925 10.97 61.97 46.92 52.91 1.913 39.91 40.93
2.075 2.933 28.94 1.913 15.94 16.96 29.96 12.88 0.8925 0.8925 12.88 63.88 46.92 50.87 -4.08 39.91 29.96
2.08 24.99 46.92 16.96 17.98 32.9 49.98 27.92 11.99 1.913 27.92 73.95 53.93 56.99 -10.07 45.9 29.96
2.085 42.97 65.92 31.88 11.99 46.92 61.97 44.88 21.93 -4.08 36.98 79.94 64.9 56.99 -14.03 47.94 28.94
2.09 42.97 68.98 31.88 -1.02 46.92 61.97 45.9 20.91 -17.09 32.9 70.89 58.91 46.92 -12.11 32.9 21.93
2.095 28.94 64.9 21.93 -10.07 36.98 50.87 33.92 11.99 -24.1 21.93 49.98 43.99 25.88 -11.09 6.885 10.97
2.1 14.92 54.95 6.885 -12.11 20.91 34.94 10.97 3.953 -30.09 2.933 22.95 16.96 0.8925 -10.07 -16.07 1.913
2.105 0.8925 41.95 -8.033 -12.11 0.8925 14.92 -10.07 -6.12 -35.06 -14.03 -4.08 -6.12 -27.03 -24.1 -49.09 -22.06
2.11 -15.05 22.95 -19.13 -18.11 -12.11 -2.04 -26.01 -21.04 -42.08 -34.04 -33.02 -37.1 -54.06 -46.03 -75.1 -48.07
2.115 -19.13 19 -8.033 -20.02 -22.06 -14.03 -26.01 -22.06 -40.04 -46.03 -52.02 -56.1 -70.13 -62.09 -94.1 -62.09
2.12 -3.06 26.9 9.945 -12.11 -17.09 -14.03 -10.07 -8.033 -32 -48.07 -60.05 -61.07 -70.13 -59.03 -108.1 -66.05
2.125 0.8925 33.92 23.97 -8.033 -13.01 -17.09 0 0 -22.06 -52.02 -71.02 -66.05 -67.07 -49.09 -122 -72.04
2.13 0.8925 26.9 10.97 -10.07 -20.02 -28.05 -12.11 -10.07 -20.02 -62.09 -92.06 -80.07 -76.12 -42.08 -144.1 -82.11
2.135 -1.02 14.92 -8.033 -13.01 -31.11 -44.12 -32 -32 -24.1 -72.04 -109 -92.06 -85.04 -37.1 -156.1 -89.13
2.14 -9.053 5.993 -32 -20.02 -44.12 -53.04 -56.1 -49.09 -32 -74.08 -118.1 -101.1 -91.04 -38.12 -151.1 -95.12
2.145 -17.09 -1.02 -48.07 -34.04 -54.06 -54.06 -66.05 -60.05 -44.12 -72.04 -116 -102 -92.06 -44.12 -136 -99.07
2.15 -29.07 0.8925 -51 -49.09 -58.01 -53.04 -67.07 -66.05 -61.07 -67.07 -101.1 -95.12 -91.04 -52.02 -112.1 -101.1
2.155 -27.03 3.953 -37.1 -53.04 -48.07 -43.1 -52.02 -55.08 -64.01 -50.11 -75.1 -80.07 -77.01 -50.11 -80.07 -90.02
2.16 -13.01 17.98 -17.09 -47.05 -33.02 -27.03 -31.11 -31.11 -59.03 -29.07 -47.05 -55.08 -53.04 -37.1 -45.01 -75.1
2.165 0.8925 25.88 -3.06 -31.11 -16.07 -15.05 -16.07 -13.01 -46.03 -8.033 -21.04 -30.09 -26.01 -26.01 -13.01 -61.07
2.17 -1.02 19 -2.04 -16.07 -9.053 -16.07 -11.09 -8.033 -31.11 0 -12.11 -11.09 -5.1 -23.08 1.913 -47.05
2.175 2.933 17.98 0.8925 -5.1 -1.02 -13.01 -9.053 -3.06 -13.01 11.99 -3.06 -2.04 5.993 -17.09 17.98 -35.06
2.18 8.925 21.93 7.905 1.913 0 -3.06 -5.1 -2.04 1.913 21.93 1.913 7.905 19.89 -11.09 27.92 -17.09
2.185 6.885 24.99 16.96 2.933 0.8925 1.913 -4.08 -1.02 10.97 24.99 7.905 10.97 24.99 -7.013 27.92 -1.02
2.19 2.933 23.97 13.9 -3.06 0 -5.1 -12.11 -1.02 4.973 16.96 0 -1.02 17.98 -13.01 13.9 -1.02
2.195 -7.013 17.98 3.953 -13.01 -5.1 -13.01 -21.04 -11.09 -1.02 7.905 -1.02 -7.013 7.905 -13.01 0 3.953
2.2 -11.09 17.98 -1.02 -11.09 -4.08 -12.11 -21.04 -10.07 -1.02 5.993 -2.04 -7.013 5.993 -2.04 0 7.905
2.205 -11.09 22.95 0.8925 -1.02 -3.06 -5.1 -17.09 -1.02 -1.02 0 -3.06 -8.033 4.973 4.973 -3.06 2.933
2.21 -17.09 19.89 0.8925 15.94 -9.053 -3.06 -9.053 -1.02 11.99 -7.013 -9.053 -11.09 5.993 13.9 -13.01 0.8925
2.215 -13.01 19.89 10.97 38 -16.07 0.8925 1.913 2.933 33.92 -16.07 -11.09 -11.09 7.905 19.89 -23.08 -2.04
2.22 -5.1 23.97 26.9 56.99 -22.06 3.953 7.905 8.925 52.91 -23.08 -21.04 -16.07 6.885 23.97 -35.06 -4.08
2.225 0.8925 19.89 30.98 53.93 -31.11 0.8925 1.913 6.885 53.93 -39.02 -42.08 -31.11 -1.02 19 -58.01 -10.07
2.23 0.8925 12.88 19 36.98 -39.02 -16.07 -8.033 -2.04 39.91 -56.1 -69.11 -51 -20.02 2.933 -86.06 -25.12
2.235 -5.1 2.933 5.993 14.92 -43.1 -36.08 -25.12 -14.03 21.93 -65.03 -86.06 -63.11 -38.12 0.8925 -100.1 -34.04
2.24 -7.013 0.8925 0 3.953 -43.1 -48.07 -37.1 -18.11 5.993 -65.03 -86.06 -69.11 -45.01 -2.04 -92.06 -38.12
2.245 -17.09 -13.01 -6.12 1.913 -44.12 -55.08 -48.07 -24.1 0 -57.12 -84.02 -71.02 -49.09 0.8925 -79.05 -41.06
2.25 2.933 11.99 71.91 61.97 0 7.905 51.89 49.98 47.94 -29.07 3.953 35.96 39.91 25.88 -29.07 51.89
2.255 10.97 29.96 73.95 63.88 16.96 13.9 46.92 47.94 44.88 -12.11 11.99 40.93 43.99 21.93 -8.033 68.98
2.26 -1.02 19 53.93 48.96 14.92 7.905 28.94 33.92 24.99 -8.033 5.993 28.94 30.98 11.99 0.8925 57.89
2.265 -13.01 -9.053 17.98 21.93 0 -7.013 9.945 11.99 0.8925 -15.05 -9.053 9.945 3.953 -5.1 -13.01 29.96
2.27 -17.09 -31.11 -2.04 1.913 -9.053 -15.05 3.953 3.953 -15.05 -21.04 -23.08 0.8925 -9.053 -15.05 -25.12 9.945
2.275 0.8925 -32 1.913 -2.04 -11.09 -10.07 13.9 10.97 -11.09 -19.13 -22.06 -1.02 -9.053 -13.01 -29.07 3.953
2.28 14.92 -17.09 5.993 5.993 -2.04 -1.02 24.99 17.98 1.913 -18.11 -19.13 0 -6.12 -8.033 -28.05 -2.04
2.285 20.91 -5.1 9.945 9.945 -2.04 -2.04 25.88 17.98 5.993 -23.08 -17.09 -9.053 -9.053 -7.013 -25.12 -5.1
2.29 10.97 0 17.98 23.97 4.973 -2.04 26.9 19.89 16.96 -22.06 -13.01 -12.11 -9.053 -6.12 -16.07 -14.03
2.295 4.973 3.953 27.92 32.9 6.885 3.953 27.92 25.88 23.97 -17.09 -5.1 -15.05 -9.053 -2.04 -6.12 -25.12
2.3 2.933 8.925 34.94 40.93 8.925 8.925 32.9 28.94 20.91 -4.08 -2.04 -12.11 -10.07 1.913 -2.04 -33.02
2.305 0.8925 10.97 38.89 39.91 12.88 10.97 38.89 33.92 17.98 2.933 1.913 -6.12 -9.053 1.913 -3.06 -33.02
2.31 14.92 20.91 51.89 44.88 27.92 22.95 50.87 36.98 19 19 5.993 -1.02 -1.02 0 -9.053 -23.08
2.315 40.93 38.89 64.9 52.91 46.92 38.89 60.95 46.92 26.9 30.98 10.97 8.925 0.8925 2.933 -12.11 -18.11
2.32 52.91 47.94 68.98 55.97 55.97 47.94 60.95 41.95 32.9 26.9 3.953 6.885 0 0 -26.01 -33.02
2.325 44.88 38 59.93 47.94 45.9 38 41.95 28.94 27.92 7.905 -10.07 -7.013 -12.11 -9.053 -50.11 -64.01
2.33 32.9 30.98 50.87 38.89 26.9 24.99 30.98 19 14.92 -6.12 -24.1 -24.1 -26.01 -18.11 -68.09 -84.02
2.335 24.99 25.88 48.96 33.92 13.9 22.95 30.98 23.97 7.905 -13.01 -19.13 -23.08 -24.1 -13.01 -68.09 -78.03
2.34 19 33.92 47.94 25.88 13.9 33.92 43.99 34.94 2.933 -3.06 1.913 0.8925 -7.013 -5.1 -48.07 -48.07
2.345 14.92 36.98 52.91 24.99 20.91 44.88 62.99 47.94 0.8925 8.925 24.99 24.99 14.92 0.8925 -14.03 1.913
2.35 19 49.98 61.97 32.9 38 63.88 82.88 61.97 7.905 28.94 57.89 61.97 43.99 7.905 28.94 48.96
2.355 28.94 57.89 67.96 36.98 47.94 75.99 93.97 67.96 14.92 43.99 76.88 85.94 64.9 9.945 70 86.96
2.36 34.94 59.93 61.97 31.88 42.97 71.91 82.88 61.97 12.88 34.94 75.99 82.88 64.9 1.913 87.98 96.9
2.365 24.99 39.91 35.96 8.925 20.91 45.9 55.97 36.98 0.8925 14.92 45.9 60.95 47.94 -15.05 77.9 85.94
2.37 16.96 12.88 8.925 -10.07 1.913 17.98 25.88 11.99 -15.05 -1.02 25.88 35.96 24.99 -27.03 62.99 71.91
2.375 12.88 1.913 -1.02 -21.04 -4.08 5.993 10.97 1.913 -20.02 -6.12 17.98 22.95 16.96 -26.01 51.89 64.9
2.38 4.973 -2.04 -4.08 -16.07 -1.02 -1.02 9.945 0 -9.053 -1.02 17.98 23.97 19 -16.07 43.99 58.91
2.385 0.8925 0 -2.04 -2.04 0.8925 0 16.96 4.973 0.8925 7.905 13.9 24.99 21.93 -8.033 38.89 51.89
2.39 0.8925 15.94 19.89 12.88 12.88 9.945 30.98 17.98 20.91 23.97 19 25.88 32.9 0 36.98 38
2.395 10.97 41.95 38 32.9 28.94 25.88 46.92 36.98 36.98 29.96 21.93 30.98 39.91 8.925 36.98 21.93
2.4 14.92 54.95 48.96 36.98 39.91 38.89 57.89 49.98 38 30.98 25.88 27.92 38.89 14.92 25.88 -1.02
2.405 14.92 55.97 49.98 25.88 44.88 43.99 56.99 51.89 24.99 26.9 23.97 19 28.94 14.92 9.945 -20.02
2.41 8.925 52.91 46.92 16.96 43.99 43.99 53.93 49.98 11.99 23.97 19.89 13.9 22.95 15.94 -2.04 -33.02
2.415 8.925 51.89 49.98 16.96 40.93 41.95 55.97 48.96 9.945 20.91 17.98 10.97 21.93 19.89 -11.09 -41.06
2.42 6.885 45.9 49.98 17.98 30.98 29.96 44.88 41.95 10.97 20.91 7.905 4.973 14.92 19 -20.02 -48.07
2.425 2.933 31.88 35.96 8.925 17.98 7.905 25.88 21.93 12.88 17.98 -6.12 -3.06 4.973 17.98 -27.03 -48.07
2.43 -1.02 21.93 15.94 2.933 9.945 0.8925 10.97 9.945 15.94 14.92 -17.09 -11.09 -2.04 17.98 -24.1 -34.04
2.435 -1.02 12.88 -1.02 1.913 12.88 -4.08 4.973 8.925 14.92 20.91 -12.11 -8.033 0.8925 20.91 -10.07 -8.033
2.44 4.973 7.905 -7.013 -5.1 11.99 -3.06 7.905 6.885 8.925 23.97 -6.12 1.913 5.993 17.98 -1.02 16.96
2.445 0.8925 0.8925 -12.11 -13.01 1.913 -10.07 6.885 5.993 -2.04 19.89 0.8925 1.913 10.97 7.905 6.885 38.89
2.45 -11.09 -4.08 -12.11 -20.02 -4.08 -14.03 8.925 4.973 -8.033 14.92 1.913 12.88 16.96 4.973 14.92 54.95
2.455 -23.08 -9.053 -7.013 -21.04 -9.053 -15.05 5.993 6.885 -13.01 15.94 0.8925 17.98 22.95 3.953 24.99 60.95
2.46 -31.11 -19.13 -16.07 -27.03 -7.013 -19.13 -2.04 0 -26.01 19 1.913 19 21.93 0 32.9 57.89
2.465 -37.1 -36.08 -42.08 -42.08 -2.04 -24.1 -26.01 -10.07 -42.08 22.95 2.933 10.97 10.97 -4.08 36.98 52.91
2.47 -31.11 -46.03 -59.03 -52.02 3.953 -24.1 -42.08 -24.1 -56.1 28.94 11.99 8.925 5.993 -13.01 43.99 49.98
2.475 -13.01 -42.08 -62.09 -53.04 12.88 -16.07 -38.12 -23.08 -61.07 36.98 26.9 14.92 11.99 -18.11 53.93 45.9
2.48 -3.06 -34.04 -50.11 -44.12 14.92 -8.033 -20.02 -16.07 -50.11 34.94 34.94 26.9 22.95 -24.1 50.87 35.96
2.485 -5.1 -21.04 -25.12 -30.09 4.973 -3.06 0 -1.02 -33.02 21.93 33.92 31.88 33.92 -26.01 34.94 13.9
2.49 -11.09 -2.04 0 -1.02 2.933 5.993 34.94 17.98 -6.12 14.92 31.88 40.93 38 -24.1 14.92 -4.08
2.495 -9.053 25.88 33.92 21.93 9.945 27.92 61.97 43.99 13.9 11.99 25.88 38 35.96 -19.13 0.8925 -33.02
2.5 -3.06 49.98 55.97 41.95 20.91 43.99 70.89 53.93 22.95 12.88 17.98 24.99 16.96 -20.02 -18.11 -65.03
2.505 -1.02 48.96 46.92 34.94 23.97 34.94 55.97 38.89 7.905 9.945 0 -2.04 -7.013 -29.07 -37.1 -93.08
2.51 -1.02 38 27.92 15.94 21.93 19.89 27.92 17.98 -11.09 5.993 -17.09 -27.03 -35.06 -29.07 -49.09 -109
2.515 0.8925 17.98 7.905 0 17.98 3.953 7.905 1.913 -27.03 3.953 -25.12 -39.02 -47.05 -19.13 -49.09 -103
2.52 -3.06 0 -3.06 -6.12 8.925 -5.1 1.913 -1.02 -26.01 -1.02 -27.03 -38.12 -42.08 -3.06 -45.01 -83
2.525 -21.04 -17.09 -15.05 -7.013 0 -17.09 -2.04 -5.1 -14.03 -8.033 -27.03 -28.05 -29.07 0 -43.1 -56.1
2.53 -39.02 -23.08 -13.01 -1.02 -9.053 -17.09 -2.04 0.8925 -2.04 -13.01 -19.13 -11.09 -13.01 7.905 -31.11 -19.13
2.535 -33.02 -8.033 0 6.885 -8.033 -6.12 13.9 6.885 13.9 -11.09 -4.08 3.953 2.933 11.99 -9.053 17.98
2.54 -23.08 1.913 -2.04 5.993 -7.013 -2.04 19 11.99 12.88 -5.1 -1.02 12.88 10.97 6.885 4.973 44.88
2.545 -21.04 -5.1 -3.06 -7.013 -13.01 -3.06 11.99 1.913 0 -1.02 -2.04 11.99 11.99 0.8925 11.99 62.99
2.55 -19.13 -18.11 -13.01 -24.1 -16.07 -7.013 7.905 -1.02 -9.053 1.913 -1.02 11.99 10.97 0 20.91 67.96
2.555 -23.08 -26.01 -19.13 -29.07 -13.01 -9.053 2.933 -1.02 -14.03 1.913 0 16.96 15.94 0.8925 30.98 65.92
2.56 -33.02 -30.09 -28.05 -28.05 -13.01 -14.03 -1.02 -6.12 -17.09 3.953 1.913 13.9 11.99 -1.02 34.94 52.91
2.565 -41.06 -32 -40.04 -27.03 -14.03 -21.04 -15.05 -17.09 -24.1 1.913 -4.08 4.973 1.913 -5.1 29.96 34.94
2.57 -31.11 -28.05 -48.07 -27.03 -11.09 -26.01 -29.07 -26.01 -33.02 1.913 -11.09 -2.04 -1.02 -17.09 17.98 17.98
2.575 -7.013 -20.02 -52.02 -30.09 -5.1 -22.06 -39.02 -34.04 -43.1 -1.02 -14.03 -13.01 -12.11 -20.02 8.925 2.933
2.58 4.973 -22.06 -58.01 -43.1 1.913 -22.06 -40.04 -42.08 -50.11 -4.08 -19.13 -23.08 -20.02 -24.1 0 -15.05
2.585 8.925 -23.08 -60.05 -57.12 0 -23.08 -38.12 -42.08 -54.06 -8.033 -23.08 -33.02 -31.11 -28.05 -16.07 -43.1
2.59 4.973 -12.11 -46.03 -56.1 3.953 -12.11 -22.06 -32 -46.03 -6.12 -18.11 -30.09 -32 -26.01 -14.03 -60.05
2.595 2.933 11.99 -18.11 -39.02 12.88 3.953 -1.02 -8.033 -25.12 2.933 -7.013 -18.11 -27.03 -17.09 1.913 -63.11
2.6 6.885 41.95 1.913 -17.09 21.93 15.94 3.953 0.8925 -3.06 19 -1.02 -11.09 -20.02 -14.03 10.97 -57.12
2.605 6.885 40.93 -1.02 -2.04 15.94 4.973 -2.04 1.913 2.933 19 0 -14.03 -22.06 -16.07 14.92 -44.12
2.61 6.885 17.98 -13.01 -1.02 5.993 -11.09 -23.08 -11.09 6.885 13.9 -14.03 -24.1 -25.12 -14.03 9.945 -22.06
2.615 -1.02 -11.09 -31.11 0.8925 -4.08 -33.02 -45.01 -26.01 2.933 -1.02 -29.07 -33.02 -29.07 -2.04 0 -1.02
2.62 -13.01 -44.12 -44.12 -2.04 -22.06 -50.11 -60.05 -36.08 0 -12.11 -44.12 -40.04 -30.09 0.8925 -16.07 14.92
2.625 -31.11 -55.08 -43.1 -12.11 -38.12 -55.08 -58.01 -37.1 -3.06 -26.01 -45.01 -37.1 -25.12 2.933 -23.08 26.9
2.63 -29.07 -34.04 -24.1 -11.09 -39.02 -32 -32 -18.11 0.8925 -23.08 -29.07 -19.13 -13.01 5.993 -9.053 41.95
2.635 -3.06 2.933 3.953 1.913 -23.08 -1.02 1.913 2.933 9.945 -10.07 1.913 3.953 4.973 11.99 17.98 56.99
2.64 28.94 40.93 22.95 9.945 -9.053 26.9 26.9 20.91 21.93 0 23.97 31.88 25.88 13.9 51.89 67.96
2.645 46.92 55.97 21.93 12.88 1.913 31.88 32.9 19.89 23.97 8.925 33.92 41.95 33.92 12.88 65.92 62.99
2.65 50.87 50.87 14.92 8.925 0.8925 32.9 26.9 14.92 20.91 14.92 32.9 40.93 34.94 14.92 66.94 52.91
2.655 40.93 45.9 13.9 4.973 14.92 33.92 23.97 16.96 20.91 24.99 38 41.95 33.92 22.95 64.9 34.94
2.66 30.98 43.99 25.88 4.973 31.88 41.95 25.88 25.88 26.9 38 40.93 40.93 31.88 26.9 57.89 16.96
2.665 20.91 46.92 40.93 6.885 45.9 52.91 34.94 32.9 30.98 46.92 46.92 38.89 32.9 22.95 50.87 0
2.67 30.98 59.93 58.91 21.93 59.93 61.97 51.89 40.93 35.96 54.95 52.91 39.91 32.9 19 48.96 -11.09
2.675 52.91 70 66.94 33.92 64.9 67.96 61.97 44.88 43.99 54.95 51.89 38.89 29.96 19.89 47.94 -15.05
2.68 70.89 76.88 60.95 40.93 61.97 62.99 56.99 34.94 44.88 46.92 38.89 26.9 22.95 19 38.89 -24.1
2.685 70.89 70 40.93 31.88 55.97 45.9 40.93 16.96 38.89 32.9 11.99 5.993 1.913 14.92 22.95 -31.11
2.69 58.91 58.91 28.94 23.97 61.97 40.93 26.9 4.973 32.9 30.98 -2.04 -3.06 -2.04 19 14.92 -25.12
2.695 48.96 52.91 30.98 22.95 75.99 44.88 23.97 6.885 35.96 38 2.933 -3.06 0 26.9 22.95 -12.11
2.7 32.9 44.88 36.98 25.88 87.98 46.92 25.88 14.92 39.91 44.88 13.9 -1.02 5.993 27.92 27.92 0.8925
2.705 20.91 28.94 36.98 29.96 70.89 31.88 19.89 17.98 38.89 35.96 14.92 4.973 9.945 21.93 29.96 8.925
2.71 14.92 19 34.94 32.9 35.96 16.96 13.9 19 33.92 17.98 8.925 7.905 15.94 16.96 26.9 22.95
2.715 20.91 20.91 33.92 38 5.993 5.993 10.97 21.93 34.94 0 5.993 10.97 21.93 22.95 24.99 38
2.72 28.94 32.9 27.92 36.98 -6.12 3.953 7.905 17.98 39.91 0 2.933 9.945 20.91 26.9 26.9 45.9
2.725 32.9 41.95 23.97 31.88 -2.04 9.945 5.993 15.94 39.91 0 5.993 11.99 17.98 29.96 29.96 48.96
2.73 40.93 55.97 33.92 35.96 29.96 27.92 19 21.93 48.96 19.89 24.99 19 22.95 34.94 40.93 50.87
2.735 48.96 64.9 48.96 44.88 59.93 50.87 38 38.89 53.93 43.99 42.97 29.96 30.98 33.92 49.98 51.89
2.74 50.87 63.88 55.97 45.9 63.88 51.89 45.9 45.9 45.9 45.9 41.95 29.96 29.96 21.93 38 31.88
2.745 38.89 51.89 53.93 43.99 42.97 35.96 44.88 41.95 32.9 24.99 21.93 19 19.89 7.905 13.9 4.973
2.75 24.99 44.88 51.89 40.93 14.92 23.97 40.93 38 24.99 2.933 1.913 6.885 6.885 1.913 1.913 -9.053
2.755 22.95 49.98 49.98 49.98 1.913 23.97 41.95 38 29.96 -9.053 -1.02 1.913 1.913 7.905 -3.06 -21.04
2.76 24.99 57.89 45.9 59.93 9.945 33.92 41.95 38 41.95 -7.013 0 3.953 3.953 17.98 -1.02 -23.08
2.765 26.9 62.99 42.97 62.99 21.93 42.97 41.95 36.98 47.94 0.8925 8.925 9.945 7.905 21.93 -2.04 -19.13
2.77 28.94 61.97 41.95 61.97 31.88 49.98 44.88 39.91 46.92 8.925 25.88 20.91 19 28.94 7.905 -9.053
2.775 26.9 59.93 47.94 51.89 33.92 53.93 55.97 47.94 41.95 19.89 38 38 35.96 33.92 13.9 5.993
2.78 19 55.97 53.93 43.99 27.92 56.99 64.9 58.91 38.89 24.99 51.89 52.91 52.91 40.93 27.92 27.92
2.785 6.885 50.87 53.93 35.96 20.91 56.99 68.98 62.99 40.93 24.99 59.93 64.9 61.97 40.93 38.89 46.92
2.79 6.885 48.96 50.87 36.98 22.95 62.99 72.93 64.9 50.87 28.94 68.98 74.97 72.93 40.93 56.99 63.88
2.795 12.88 47.94 47.94 44.88 31.88 70 66.94 61.97 62.99 36.98 74.97 78.92 74.97 43.99 67.96 70.89
2.8 12.88 36.98 28.94 41.95 34.94 61.97 51.89 45.9 59.93 38 68.98 65.92 63.88 32.9 66.94 58.91
2.805 0.8925 14.92 4.973 22.95 22.95 32.9 19 12.88 28.94 22.95 44.88 34.94 34.94 14.92 44.88 32.9
2.81 -3.06 -1.02 -8.033 0.8925 7.905 6.885 -5.1 -8.033 0 5.993 21.93 7.905 11.99 0.8925 21.93 13.9
2.815 2.933 0 -12.11 -5.1 1.913 -2.04 -17.09 -17.09 -11.09 0.8925 9.945 -3.06 0.8925 -1.02 9.945 3.953
2.82 8.925 12.88 -10.07 -8.033 4.973 0.8925 -16.07 -16.07 -18.11 -2.04 8.925 -2.04 0.8925 0.8925 6.885 0.8925
2.825 16.96 25.88 -7.013 -5.1 14.92 12.88 -12.11 -10.07 -13.01 -2.04 13.9 0.8925 5.993 0 8.925 -1.02
2.83 24.99 33.92 0 -1.02 27.92 26.9 -4.08 0 -1.02 11.99 22.95 10.97 10.97 1.913 12.88 1.913
2.835 22.95 33.92 3.953 6.885 40.93 39.91 -1.02 5.993 -1.02 30.98 32.9 16.96 16.96 4.973 16.96 -6.12
2.84 12.88 24.99 5.993 0 42.97 40.93 0.8925 8.925 0 41.95 30.98 11.99 12.88 4.973 11.99 -19.13
2.845 4.973 15.94 4.973 -5.1 35.96 33.92 0.8925 5.993 -6.12 39.91 23.97 0.8925 1.913 4.973 -1.02 -34.04
2.85 8.925 19.89 7.905 -1.02 31.88 33.92 4.973 7.905 -4.08 30.98 15.94 0 -1.02 11.99 -5.1 -40.04
2.855 20.91 40.93 17.98 10.97 33.92 43.99 16.96 17.98 6.885 24.99 19 2.933 7.905 24.99 -6.12 -30.09
2.86 32.9 59.93 30.98 33.92 36.98 53.93 31.88 29.96 28.94 14.92 19.89 16.96 19 38 -5.1 -16.07
2.865 26.9 63.88 38 45.9 35.96 55.97 42.97 35.96 44.88 4.973 21.93 28.94 28.94 41.95 -9.053 0
2.87 19 54.95 42.97 46.92 31.88 53.93 46.92 41.95 49.98 3.953 24.99 43.99 41.95 41.95 -3.06 13.9
2.875 16.96 46.92 48.96 38 33.92 57.89 52.91 42.97 47.94 14.92 38.89 56.99 56.99 46.92 5.993 36.98
2.88 19 32.9 40.93 16.96 27.92 54.95 49.98 38.89 35.96 25.88 47.94 62.99 62.99 44.88 16.96 55.97
2.885 14.92 19 20.91 -1.02 17.98 49.98 36.98 22.95 11.99 28.94 48.96 60.95 60.95 36.98 23.97 66.94
2.89 6.885 10.97 0.8925 -20.02 5.993 45.9 20.91 11.99 -3.06 25.88 44.88 55.97 55.97 25.88 29.96 71.91
2.895 2.933 7.905 -3.06 -21.04 1.913 41.95 12.88 7.905 -14.03 20.91 43.99 48.96 44.88 17.98 35.96 66.94
2.9 -13.01 3.953 -6.12 -21.04 2.933 29.96 9.945 3.953 -20.02 19 35.96 38.89 34.94 1.913 38 56.99
2.905 -25.12 -2.04 0.8925 -22.06 5.993 19.89 6.885 3.953 -22.06 14.92 28.94 28.94 23.97 -4.08 32.9 38.89
2.91 -17.09 -1.02 7.905 -19.13 13.9 19.89 12.88 5.993 -18.11 19 27.92 20.91 14.92 -9.053 33.92 28.94
2.915 0.8925 3.953 20.91 -11.09 19.89 25.88 20.91 11.99 -10.07 25.88 31.88 19 9.945 -4.08 36.98 19
2.92 19 10.97 19.89 -5.1 14.92 26.9 19 8.925 -6.12 21.93 22.95 9.945 6.885 0 29.96 7.905
2.925 22.95 11.99 5.993 -6.12 2.933 21.93 4.973 1.913 -8.033 4.973 4.973 1.913 0 0 8.925 -6.12
2.93 12.88 9.945 0 -10.07 -1.02 14.92 -4.08 -2.04 -9.053 -7.013 -4.08 -12.11 -6.12 -3.06 -2.04 -22.06
2.935 4.973 15.94 0 -9.053 -1.02 19 -2.04 0.8925 -7.013 -13.01 -9.053 -12.11 -7.013 -3.06 -14.03 -34.04
2.94 4.973 28.94 14.92 -8.033 6.885 26.9 0.8925 14.92 1.913 -8.033 -4.08 -8.033 -6.12 -2.04 -16.07 -38.12
2.945 4.973 41.95 24.99 -7.013 17.98 35.96 13.9 23.97 1.913 0 1.913 -1.02 0 -6.12 -13.01 -35.06
2.95 4.973 50.87 34.94 -2.04 19.89 46.92 27.92 34.94 7.905 13.9 17.98 7.905 3.953 -2.04 -1.02 -17.09
2.955 2.933 60.95 36.98 2.933 19 54.95 36.98 36.98 16.96 24.99 30.98 19 16.96 6.885 8.925 0.8925
2.96 -3.06 54.95 26.9 7.905 6.885 47.94 35.96 29.96 21.93 21.93 31.88 27.92 23.97 20.91 12.88 22.95
2.965 -23.08 43.99 17.98 4.973 -7.013 25.88 22.95 13.9 14.92 8.925 22.95 22.95 24.99 25.88 5.993 36.98
2.97 -31.11 34.94 14.92 4.973 -16.07 14.92 12.88 10.97 8.925 -2.04 12.88 24.99 28.94 26.9 -1.02 49.98
2.975 -27.03 32.9 23.97 7.905 -12.11 14.92 16.96 14.92 8.925 -4.08 13.9 28.94 29.96 28.94 -1.02 60.95
2.98 -15.05 29.96 25.88 3.953 0 20.91 19 16.96 6.885 0 15.94 32.9 28.94 22.95 1.913 63.88
2.985 -11.09 19.89 11.99 -5.1 13.9 21.93 15.94 7.905 1.913 1.913 9.945 27.92 19.89 11.99 0.8925 49.98
2.99 -7.013 9.945 -1.02 -15.05 31.88 23.97 8.925 -2.04 1.913 10.97 7.905 19 10.97 3.953 1.913 41.95
2.995 -1.02 10.97 -10.07 -22.06 38 24.99 0 -2.04 -1.02 15.94 6.885 5.993 3.953 0 11.99 33.92
3 2.933 13.9 -17.09 -27.03 27.92 13.9 -7.013 -11.09 -7.013 9.945 -2.04 -3.06 0.8925 -1.02 17.98 23.97
3.005 4.973 19.89 -17.09 -29.07 3.953 -2.04 -21.04 -17.09 -15.05 0.8925 -9.053 -19.13 -9.053 -13.01 17.98 11.99
3.01 12.88 31.88 -5.1 -22.06 -10.07 -3.06 -22.06 -13.01 -14.03 -6.12 -11.09 -24.1 -12.11 -13.01 17.98 7.905
3.015 14.92 39.91 1.913 -11.09 -12.11 -1.02 -11.09 -7.013 -5.1 -2.04 -10.07 -19.13 -9.053 -10.07 16.96 2.933
3.02 12.88 38 7.905 -7.013 -5.1 1.913 -1.02 0.8925 0 0 -7.013 -13.01 -9.053 -3.06 9.945 -5.1
3.025 4.973 30.98 7.905 -8.033 0 7.905 3.953 0 5.993 3.953 -9.053 -12.11 -10.07 -1.02 0 -17.09
3.03 0.8925 21.93 2.933 -7.013 8.925 6.885 6.885 -1.02 6.885 4.973 -16.07 -12.11 -13.01 1.913 -6.12 -30.09
3.035 4.973 21.93 1.913 -7.013 7.905 3.953 1.913 0.8925 3.953 -1.02 -23.08 -19.13 -21.04 -2.04 -15.05 -37.1
3.04 4.973 21.93 1.913 -1.02 0 0 -4.08 -6.12 0 -13.01 -32 -32 -30.09 0 -26.01 -43.1
3.045 -1.02 8.925 -8.033 -4.08 -12.11 -14.03 -23.08 -20.02 -9.053 -28.05 -44.12 -51 -46.03 -8.033 -48.07 -49.09
3.05 -15.05 -1.02 -18.11 -6.12 -23.08 -20.02 -41.06 -30.09 -19.13 -37.1 -50.11 -65.03 -53.04 -8.033 -64.01 -44.12
3.055 -21.04 -1.02 -21.04 -7.013 -18.11 -17.09 -43.1 -29.07 -13.01 -34.04 -44.12 -61.07 -46.03 -2.04 -73.06 -32
3.06 -19.13 -7.013 -22.06 -13.01 -17.09 -20.02 -39.02 -26.01 -5.1 -32 -39.02 -47.05 -32 0.8925 -78.03 -19.13
3.065 -19.13 -14.03 -26.01 -18.11 -19.13 -28.05 -38.12 -24.1 -2.04 -33.02 -42.08 -32 -22.06 -4.08 -80.07 -10.07
3.07 -13.01 -20.02 -25.12 -19.13 -26.01 -34.04 -34.04 -23.08 1.913 -31.11 -40.04 -18.11 -10.07 -6.12 -73.06 -4.08
3.075 -7.013 -17.09 -19.13 -9.053 -31.11 -33.02 -31.11 -16.07 0 -27.03 -38.12 -9.053 -9.053 -4.08 -56.1 0
3.08 -13.01 -24.1 -20.02 -8.033 -34.04 -38.12 -40.04 -22.06 -4.08 -24.1 -36.08 -16.07 -18.11 -8.033 -40.04 1.913
3.085 -23.08 -34.04 -34.04 -18.11 -33.02 -47.05 -56.1 -40.04 -24.1 -22.06 -47.05 -41.06 -40.04 -16.07 -29.07 -7.013
3.09 -31.11 -37.1 -45.01 -38.12 -26.01 -54.06 -75.1 -58.01 -43.1 -17.09 -53.04 -66.05 -63.11 -26.01 -24.1 -19.13
3.095 -21.04 -32 -50.11 -52.02 -14.03 -52.02 -84.02 -68.09 -54.06 -8.033 -54.06 -82.11 -78.03 -32 -10.07 -30.09
3.1 -11.09 -29.07 -56.1 -63.11 -9.053 -51 -86.06 -72.04 -62.09 0 -53.04 -85.04 -84.02 -42.08 0 -39.02
3.105 -13.01 -30.09 -60.05 -62.09 -13.01 -53.04 -83 -70.13 -65.03 0 -48.07 -81.09 -77.01 -47.05 4.973 -39.02
3.11 -15.05 -28.05 -54.06 -50.11 -22.06 -48.07 -70.13 -58.01 -52.02 1.913 -38.12 -62.09 -54.06 -42.08 12.88 -24.1
3.115 -19.13 -25.12 -40.04 -30.09 -23.08 -40.04 -50.11 -39.02 -34.04 0.8925 -25.12 -36.08 -29.07 -25.12 14.92 -9.053
3.12 -25.12 -26.01 -32 -23.08 -23.08 -36.08 -38.12 -33.02 -22.06 -11.09 -26.01 -22.06 -14.03 -19.13 1.913 -2.04
3.125 -27.03 -29.07 -37.1 -32 -28.05 -47.05 -41.06 -42.08 -26.01 -24.1 -43.1 -28.05 -24.1 -20.02 -22.06 -13.01
3.13 -25.12 -34.04 -38.12 -51 -29.07 -64.01 -54.06 -57.12 -38.12 -33.02 -66.05 -44.12 -42.08 -27.03 -51 -36.08
3.135 -17.09 -29.07 -34.04 -60.05 -31.11 -72.04 -62.09 -61.07 -46.03 -31.11 -79.05 -64.01 -61.07 -33.02 -66.05 -57.12
3.14 -13.01 -18.11 -28.05 -58.01 -36.08 -68.09 -66.05 -62.09 -48.07 -30.09 -80.07 -76.12 -74.08 -42.08 -72.04 -70.13
3.145 -21.04 -4.08 -22.06 -42.08 -35.06 -55.08 -59.03 -56.1 -47.05 -29.07 -74.08 -77.01 -73.06 -41.06 -68.09 -71.02
3.15 -19.13 9.945 -6.12 -21.04 -21.04 -29.07 -36.08 -36.08 -36.08 -24.1 -49.09 -59.03 -48.07 -28.05 -54.06 -57.12
3.155 -5.1 28.94 8.925 0 -1.02 0.8925 -2.04 -8.033 -18.11 -8.033 -14.03 -26.01 -16.07 -2.04 -36.08 -28.05
3.16 8.925 39.91 19.89 2.933 20.91 24.99 17.98 4.973 -7.013 3.953 7.905 2.933 7.905 10.97 -24.1 -7.013
3.165 19 34.94 19 1.913 23.97 31.88 32.9 12.88 -2.04 10.97 21.93 21.93 22.95 14.92 -17.09 1.913
3.17 20.91 26.9 12.88 -2.04 16.96 26.9 32.9 12.88 -1.02 10.97 30.98 36.98 28.94 8.925 -6.12 2.933
3.175 19 23.97 9.945 1.913 3.953 21.93 25.88 10.97 5.993 9.945 34.94 38 25.88 4.973 8.925 3.953
3.18 6.885 14.92 0 1.913 -2.04 4.973 6.885 0 4.973 5.993 22.95 26.9 12.88 -2.04 21.93 2.933
3.185 -3.06 0.8925 -10.07 1.913 -11.09 -8.033 -10.07 -12.11 -6.12 0 4.973 2.933 -4.08 -14.03 24.99 -2.04
3.19 -13.01 -5.1 -20.02 -9.053 -7.013 -18.11 -29.07 -32 -23.08 0.8925 -9.053 -19.13 -26.01 -21.04 19 -7.013
3.195 -15.05 -11.09 -23.08 -17.09 1.913 -23.08 -41.06 -41.06 -37.1 6.885 -22.06 -41.06 -38.12 -20.02 9.945 -12.11
3.2 -17.09 -20.02 -30.09 -32 0.8925 -30.09 -51 -46.03 -49.09 5.993 -32 -51 -50.11 -26.01 0.8925 -20.02
3.205 2.933 44.88 35.96 33.92 3.953 61.97 59.93 55.97 11.99 -5.1 57.89 47.94 38 9.945 20.91 1.913
3.21 2.933 30.98 14.92 22.95 0.8925 49.98 44.88 45.9 0.8925 -16.07 49.98 32.9 22.95 1.913 11.99 -8.033
3.215 6.885 20.91 -1.02 13.9 3.953 36.98 32.9 36.98 -4.08 -16.07 38 19.89 13.9 0 11.99 -17.09
3.22 14.92 14.92 1.913 14.92 12.88 31.88 22.95 29.96 -3.06 -6.12 33.92 10.97 8.925 -5.1 12.88 -22.06
3.225 24.99 22.95 11.99 25.88 21.93 33.92 25.88 31.88 5.993 1.913 33.92 15.94 13.9 -1.02 20.91 -19.13
3.23 38.89 35.96 31.88 38 27.92 43.99 30.98 39.91 14.92 10.97 39.91 20.91 19 2.933 23.97 -14.03
3.235 30.98 34.94 38 36.98 19 41.95 28.94 39.91 14.92 8.925 33.92 19.89 16.96 4.973 13.9 -21.04
3.24 10.97 19.89 21.93 20.91 1.913 19.89 16.96 24.99 -1.02 -5.1 17.98 10.97 0.8925 1.913 -5.1 -34.04
3.245 -3.06 1.913 1.913 5.993 -3.06 5.993 2.933 9.945 -10.07 -14.03 5.993 1.913 -6.12 -4.08 -21.04 -42.08
3.25 -9.053 1.913 -3.06 -1.02 -1.02 -1.02 1.913 0.8925 -13.01 -9.053 2.933 -3.06 -9.053 -5.1 -28.05 -49.09
3.255 -7.013 0.8925 -5.1 0.8925 7.905 0.8925 -3.06 -1.02 -8.033 1.913 3.953 -7.013 -11.09 -5.1 -25.12 -53.04
3.26 0.8925 1.913 -4.08 0.8925 19 3.953 -6.12 -3.06 -2.04 19 4.973 -4.08 -8.033 -8.033 -18.11 -56.1
3.265 14.92 1.913 -1.02 5.993 29.96 5.993 -5.1 -2.04 0.8925 32.9 9.945 -2.04 -3.06 -7.013 -9.053 -50.11
3.27 36.98 1.913 -2.04 6.885 39.91 7.905 -7.013 1.913 1.913 42.97 12.88 0 -2.04 0.8925 1.913 -32
3.275 42.97 -6.12 -14.03 -1.02 46.92 -1.02 -10.07 -4.08 -4.08 38.89 8.925 1.913 -1.02 2.933 6.885 -16.07
3.28 34.94 -20.02 -37.1 -12.11 44.88 -13.01 -27.03 -21.04 -14.03 20.91 -2.04 -12.11 -7.013 3.953 1.913 -8.033
3.285 16.96 -32 -51 -20.02 32.9 -28.05 -43.1 -40.04 -22.06 -1.02 -20.02 -27.03 -14.03 3.953 -10.07 -7.013
3.29 -1.02 -42.08 -60.05 -18.11 8.925 -40.04 -60.05 -54.06 -24.1 -8.033 -34.04 -44.12 -26.01 0.8925 -24.1 -12.11
3.295 -15.05 -60.05 -68.09 -13.01 -16.07 -54.06 -71.02 -61.07 -30.09 -22.06 -51 -54.06 -40.04 1.913 -40.04 -27.03
3.3 -33.02 -77.01 -76.12 -18.11 -43.1 -65.03 -78.03 -67.07 -38.12 -30.09 -64.01 -62.09 -48.07 -8.033 -61.07 -41.06
3.305 -35.06 -80.07 -74.08 -22.06 -50.11 -66.05 -72.04 -54.06 -42.08 -32 -64.01 -60.05 -48.07 -6.12 -70.13 -45.01
3.31 -19.13 -65.03 -57.12 -17.09 -34.04 -48.07 -50.11 -32 -33.02 -25.12 -47.05 -47.05 -39.02 -1.02 -64.01 -39.02
3.315 -5.1 -37.1 -41.06 -9.053 -12.11 -29.07 -30.09 -18.11 -20.02 -22.06 -35.06 -32 -26.01 6.885 -60.05 -36.08
3.32 -1.02 -21.04 -35.06 -1.02 -7.013 -19.13 -21.04 -19.13 -11.09 -27.03 -33.02 -25.12 -21.04 1.913 -61.07 -39.02
3.325 -5.1 -17.09 -31.11 7.905 -10.07 -19.13 -22.06 -25.12 0 -32 -37.1 -24.1 -20.02 1.913 -60.05 -41.06
3.33 -9.053 -24.1 -32 20.91 -21.04 -20.02 -25.12 -24.1 0 -35.06 -38.12 -23.08 -17.09 -3.06 -57.12 -38.12
3.335 -23.08 -41.06 -37.1 21.93 -29.07 -29.07 -25.12 -21.04 3.953 -33.02 -39.02 -19.13 -15.05 -3.06 -53.04 -35.06
3.34 -31.11 -51 -37.1 17.98 -29.07 -33.02 -19.13 -11.09 7.905 -29.07 -33.02 -11.09 -5.1 1.913 -43.1 -27.03
3.345 -21.04 -37.1 -19.13 24.99 -16.07 -19.13 0 5.993 22.95 -16.07 -13.01 2.933 6.885 25.88 -21.04 -11.09
3.35 -3.06 -7.013 2.933 45.9 0 -1.02 21.93 30.98 43.99 -2.04 4.973 25.88 29.96 48.96 1.913 -1.02
3.355 12.88 19.89 23.97 63.88 0 19.89 38 45.9 55.97 0 21.93 38 39.91 59.93 11.99 5.993
3.36 20.91 42.97 31.88 76.88 0.8925 31.88 40.93 49.98 56.99 0.8925 25.88 36.98 38.89 55.97 13.9 7.905
3.365 22.95 49.98 24.99 71.91 -6.12 32.9 38 44.88 50.87 -6.12 19.89 31.88 35.96 44.88 10.97 17.98
3.37 22.95 49.98 17.98 57.89 -5.1 31.88 29.96 39.91 41.95 -13.01 13.9 21.93 31.88 39.91 7.905 28.94
3.375 12.88 39.91 8.925 35.96 0.8925 22.95 20.91 35.96 34.94 -19.13 11.99 16.96 31.88 38.89 4.973 33.92
3.38 -1.02 23.97 0.8925 12.88 -1.02 6.885 7.905 23.97 27.92 -26.01 1.913 8.925 20.91 36.98 1.913 31.88
3.385 -17.09 6.885 1.913 6.885 -2.04 -2.04 -2.04 12.88 21.93 -31.11 0 0.8925 10.97 36.98 -4.08 24.99
3.39 -27.03 -2.04 0.8925 15.94 0 -11.09 -3.06 0.8925 19.89 -28.05 -6.12 -4.08 0 30.98 -12.11 11.99
3.395 -35.06 -12.11 -10.07 17.98 -14.03 -20.02 -12.11 -7.013 5.993 -32 -21.04 -22.06 -15.05 15.94 -27.03 -4.08
3.4 -47.05 -34.04 -32 2.933 -37.1 -38.12 -28.05 -32 -14.03 -41.06 -44.12 -48.07 -44.12 -4.08 -50.11 -26.01
3.405 -47.05 -48.07 -50.11 -14.03 -55.08 -49.09 -41.06 -48.07 -36.08 -45.01 -61.07 -70.13 -63.11 -22.06 -62.09 -45.01
3.41 -37.1 -54.06 -56.1 -33.02 -63.11 -56.1 -52.02 -55.08 -47.05 -44.12 -71.02 -77.01 -73.06 -31.11 -61.07 -54.06
3.415 -25.12 -52.02 -56.1 -50.11 -62.09 -62.09 -62.09 -62.09 -46.03 -44.12 -72.04 -82.11 -78.03 -34.04 -62.09 -62.09
3.42 -21.04 -53.04 -55.08 -50.11 -60.05 -67.07 -72.04 -68.09 -39.02 -51 -71.02 -85.04 -80.07 -32 -62.09 -72.04
3.425 -19.13 -42.08 -53.04 -35.06 -49.09 -66.05 -77.01 -68.09 -30.09 -54.06 -71.02 -81.09 -78.03 -26.01 -62.09 -72.04
3.43 -17.09 -32 -46.03 -16.07 -38.12 -56.1 -70.13 -60.05 -20.02 -54.06 -62.09 -74.08 -72.04 -16.07 -58.01 -66.05
3.435 -23.08 -25.12 -41.06 -4.08 -32 -48.07 -59.03 -53.04 -13.01 -49.09 -58.01 -71.02 -65.03 -12.11 -54.06 -58.01
3.44 -33.02 -26.01 -39.02 -9.053 -34.04 -47.05 -56.1 -54.06 -13.01 -34.04 -58.01 -67.07 -62.09 -11.09 -52.02 -50.11
3.445 -25.12 -22.06 -28.05 -10.07 -34.04 -48.07 -46.03 -46.03 -10.07 -14.03 -54.06 -68.09 -54.06 -6.12 -40.04 -40.04
3.45 -11.09 -5.1 -10.07 -5.1 -24.1 -41.06 -41.06 -36.08 -3.06 1.913 -44.12 -61.07 -46.03 0.8925 -23.08 -32
3.455 -1.02 1.913 -4.08 -2.04 -16.07 -39.02 -41.06 -32 0 1.913 -39.02 -57.12 -40.04 2.933 -13.01 -29.07
3.46 -5.1 1.913 -13.01 0 -18.11 -44.12 -55.08 -42.08 -10.07 -5.1 -41.06 -57.12 -44.12 -1.02 -12.11 -35.06
3.465 -17.09 -4.08 -26.01 -5.1 -22.06 -47.05 -67.07 -54.06 -22.06 -17.09 -43.1 -59.03 -46.03 -2.04 -11.09 -35.06
3.47 -23.08 -7.013 -34.04 -13.01 -26.01 -49.09 -75.1 -60.05 -31.11 -20.02 -42.08 -55.08 -42.08 -5.1 -5.1 -28.05
3.475 -23.08 -10.07 -36.08 -22.06 -24.1 -52.02 -70.13 -60.05 -34.04 -14.03 -42.08 -54.06 -40.04 -14.03 -8.033 -22.06
3.48 -21.04 -8.033 -33.02 -31.11 -20.02 -51 -62.09 -58.01 -33.02 -6.12 -48.07 -55.08 -44.12 -23.08 -16.07 -20.02
3.485 -7.013 0 -13.01 -28.05 0 -46.03 -49.09 -49.09 -25.12 -1.02 -52.02 -63.11 -51 -30.09 -22.06 -22.06
3.49 4.973 14.92 0 -16.07 14.92 -32 -40.04 -40.04 -18.11 -1.02 -52.02 -68.09 -56.1 -28.05 -28.05 -30.09
3.495 8.925 20.91 1.913 -11.09 21.93 -26.01 -40.04 -36.08 -18.11 -4.08 -53.04 -75.1 -64.01 -28.05 -36.08 -44.12
3.5 6.885 9.945 -11.09 -20.02 8.925 -31.11 -54.06 -46.03 -25.12 -13.01 -53.04 -83 -68.09 -26.01 -46.03 -52.02
3.505 2.933 2.933 -24.1 -28.05 -6.12 -34.04 -58.01 -48.07 -32 -20.02 -48.07 -74.08 -60.05 -18.11 -46.03 -46.03
3.51 6.885 6.885 -18.11 -23.08 -13.01 -26.01 -48.07 -33.02 -23.08 -14.03 -37.1 -53.04 -41.06 -1.02 -35.06 -26.01
3.515 8.925 19 -2.04 -14.03 -7.013 -15.05 -25.12 -16.07 -8.033 -7.013 -21.04 -30.09 -19.13 2.933 -24.1 -7.013
3.52 2.933 28.94 4.973 1.913 0.8925 -2.04 -8.033 -4.08 4.973 -1.02 -12.11 -12.11 -8.033 6.885 -14.03 2.933
3.525 2.933 40.93 16.96 21.93 10.97 4.973 4.973 3.953 21.93 2.933 -1.02 0 -1.02 7.905 -3.06 4.973
3.53 12.88 51.89 19.89 47.94 22.95 15.94 11.99 10.97 31.88 14.92 6.885 2.933 0.8925 8.925 0.8925 0
3.535 30.98 58.91 19 54.95 23.97 24.99 13.9 12.88 33.92 17.98 12.88 0.8925 0 6.885 0.8925 -14.03
3.54 46.92 65.92 10.97 44.88 19 22.95 11.99 5.993 27.92 12.88 9.945 -2.04 -8.033 4.973 -4.08 -33.02
3.545 48.96 67.96 16.96 33.92 9.945 20.91 10.97 3.953 19 3.953 3.953 -10.07 -9.053 4.973 -10.07 -45.01
3.55 38.89 63.88 25.88 25.88 3.953 19.89 7.905 5.993 13.9 -2.04 0.8925 -15.05 -13.01 7.905 -11.09 -50.11
3.555 12.88 51.89 28.94 21.93 0 8.925 3.953 0.8925 14.92 -2.04 -1.02 -19.13 -17.09 8.925 -12.11 -55.08
3.56 -17.09 20.91 17.98 20.91 -19.13 -7.013 -8.033 -9.053 8.925 -13.01 -15.05 -32 -28.05 1.913 -15.05 -67.07
3.565 -35.06 -3.06 -2.04 21.93 -31.11 -27.03 -21.04 -25.12 5.993 -15.05 -27.03 -37.1 -37.1 0.8925 -23.08 -71.02
3.57 -27.03 -13.01 -6.12 27.92 -32 -32 -19.13 -28.05 7.905 -12.11 -30.09 -33.02 -35.06 1.913 -26.01 -66.05
3.575 -11.09 -11.09 -13.01 21.93 -30.09 -37.1 -20.02 -29.07 4.973 -14.03 -37.1 -32 -38.12 -1.02 -31.11 -63.11
3.58 -9.053 -13.01 -23.08 5.993 -33.02 -49.09 -31.11 -37.1 0.8925 -29.07 -53.04 -39.02 -47.05 -13.01 -43.1 -59.03
3.585 -15.05 -11.09 -27.03 -2.04 -35.06 -57.12 -41.06 -43.1 -5.1 -39.02 -65.03 -47.05 -53.04 -21.04 -45.01 -47.05
3.59 -23.08 -10.07 -28.05 -1.02 -35.06 -58.01 -47.05 -44.12 -3.06 -41.06 -65.03 -49.09 -51 -23.08 -37.1 -28.05
3.595 -41.06 -15.05 -31.11 0 -38.12 -59.03 -50.11 -47.05 -8.033 -40.04 -63.11 -50.11 -48.07 -22.06 -32 -7.013
3.6 -57.12 -27.03 -39.02 -1.02 -51 -63.11 -47.05 -53.04 -21.04 -43.1 -63.11 -49.09 -43.1 -21.04 -33.02 3.953
3.605 -61.07 -33.02 -37.1 -9.053 -58.01 -57.12 -34.04 -45.01 -30.09 -40.04 -55.08 -40.04 -31.11 -14.03 -34.04 22.95
3.61 -51 -29.07 -31.11 -19.13 -66.05 -53.04 -25.12 -37.1 -35.06 -39.02 -50.11 -29.07 -19.13 -7.013 -30.09 33.92
3.615 -39.02 -30.09 -32 -30.09 -70.13 -58.01 -26.01 -32 -34.04 -38.12 -50.11 -28.05 -22.06 -10.07 -26.01 23.97
3.62 -37.1 -34.04 -38.12 -40.04 -70.13 -70.13 -42.08 -39.02 -34.04 -38.12 -51 -36.08 -33.02 -28.05 -24.1 0.8925
3.625 -29.07 -33.02 -35.06 -37.1 -57.12 -73.06 -48.07 -42.08 -28.05 -30.09 -46.03 -38.12 -39.02 -38.12 -9.053 -18.11
3.63 -19.13 -20.02 -20.02 -22.06 -32 -52.02 -40.04 -34.04 -20.02 -12.11 -24.1 -30.09 -36.08 -42.08 -1.02 -36.08
3.635 -13.01 -4.08 0 -9.053 -7.013 -28.05 -18.11 -19.13 -22.06 0.8925 -5.1 -16.07 -29.07 -42.08 9.945 -46.03
3.64 -11.09 4.973 10.97 -8.033 1.913 -5.1 0 -6.12 -33.02 3.953 0 -5.1 -24.1 -44.12 7.905 -51
3.645 0.8925 20.91 20.91 -12.11 -1.02 6.885 22.95 4.973 -42.08 2.933 8.925 2.933 -14.03 -42.08 6.885 -50.11
3.65 19 40.93 24.99 -11.09 3.953 19.89 41.95 26.9 -43.1 -2.04 14.92 13.9 -2.04 -34.04 10.97 -40.04
3.655 44.88 55.97 26.9 -12.11 5.993 28.94 55.97 41.95 -31.11 0 19.89 23.97 1.913 -28.05 13.9 -34.04
3.66 50.87 60.95 28.94 -8.033 8.925 32.9 62.99 48.96 -14.03 -1.02 16.96 24.99 8.925 -20.02 14.92 -24.1
3.665 48.96 70.89 42.97 0 12.88 42.97 71.91 60.95 1.913 1.913 19 31.88 17.98 -5.1 17.98 -7.013
3.67 36.98 82.88 65.92 14.92 16.96 54.95 82.88 74.97 19 5.993 25.88 36.98 30.98 7.905 17.98 6.885
3.675 26.9 91.93 77.9 19.89 12.88 55.97 82.88 73.95 19 -1.02 17.98 32.9 32.9 16.96 8.925 22.95
3.68 20.91 89 63.88 5.993 1.913 40.93 64.9 58.91 4.973 -8.033 1.913 20.91 20.91 11.99 1.913 33.92
3.685 28.94 86.96 41.95 0.8925 5.993 25.88 46.92 38.89 -4.08 -12.11 0 10.97 13.9 6.885 -1.02 45.9
3.69 48.96 87.98 23.97 -11.09 20.91 23.97 34.94 27.92 -8.033 -4.08 1.913 6.885 12.88 2.933 1.913 60.95
3.695 60.95 78.92 8.925 -21.04 33.92 20.91 25.88 15.94 -8.033 5.993 0 8.925 12.88 1.913 10.97 67.96
3.7 62.99 66.94 5.993 -26.01 26.9 14.92 20.91 9.945 -7.013 10.97 1.913 8.925 13.9 0 12.88 66.94
3.705 52.91 60.95 16.96 -23.08 11.99 17.98 21.93 6.885 -6.12 11.99 -1.02 10.97 11.99 0 10.97 62.99
3.71 50.87 72.93 38 -12.11 0.8925 28.94 28.94 15.94 0.8925 6.885 0 12.88 11.99 2.933 12.88 60.95
3.715 44.88 89 50.87 -5.1 1.913 38.89 35.96 17.98 -1.02 1.913 -1.02 12.88 8.925 5.993 10.97 51.89
3.72 42.97 99.96 53.93 1.913 12.88 47.94 34.94 19.89 0.8925 1.913 0 12.88 6.885 2.933 9.945 36.98
3.725 42.97 102.9 49.98 3.953 39.91 57.89 36.98 22.95 4.973 2.933 10.97 16.96 7.905 0.8925 11.99 21.93
3.73 50.87 101 47.94 9.945 65.92 68.98 42.97 30.98 10.97 10.97 23.97 22.95 14.92 -2.04 13.9 9.945
3.735 52.91 89.89 45.9 11.99 70.89 67.96 42.97 35.96 10.97 14.92 27.92 24.99 16.96 -2.04 6.885 1.913
3.74 50.87 76.88 35.96 2.933 48.96 54.95 38 30.98 2.933 11.99 19.89 20.91 14.92 -5.1 0.8925 -12.11
3.745 56.99 76.88 34.94 3.953 22.95 48.96 35.96 30.98 -2.04 5.993 16.96 19.89 15.94 -1.02 -1.02 -11.09
3.75 62.99 90.91 42.97 14.92 12.88 52.91 40.93 42.97 8.925 10.97 24.99 28.94 28.94 6.885 0.8925 -2.04
3.755 60.95 99.96 44.88 26.9 13.9 56.99 47.94 47.94 27.92 23.97 38 41.95 43.99 20.91 17.98 12.88
3.76 44.88 86.96 32.9 31.88 19.89 53.93 41.95 44.88 35.96 31.88 46.92 49.98 52.91 28.94 34.94 30.98
3.765 24.99 68.98 16.96 30.98 19 44.88 36.98 36.98 38.89 36.98 52.91 54.95 60.95 36.98 52.91 56.99
3.77 6.885 48.96 2.933 22.95 9.945 31.88 27.92 30.98 33.92 33.92 55.97 57.89 64.9 40.93 63.88 77.9
3.775 -7.013 30.98 -6.12 3.953 -5.1 10.97 12.88 17.98 19 19 41.95 48.96 57.89 34.94 63.88 86.96
3.78 -27.03 14.92 -14.03 -10.07 -28.05 -6.12 -1.02 2.933 -1.02 1.913 16.96 32.9 40.93 22.95 50.87 86.96
3.785 -37.1 11.99 -13.01 -17.09 -37.1 -17.09 -8.033 1.913 -6.12 -10.07 2.933 19 25.88 12.88 41.95 86.96
3.79 -35.06 12.88 -4.08 -14.03 -32 -12.11 -12.11 1.913 -2.04 -8.033 1.913 14.92 19.89 12.88 42.97 90.91
3.795 -33.02 6.885 -4.08 -8.033 -24.1 -12.11 -14.03 -4.08 1.913 0 6.885 12.88 19 8.925 44.88 87.98
3.8 -35.06 -3.06 -17.09 -11.09 -26.01 -17.09 -23.08 -21.04 -7.013 0.8925 4.973 11.99 15.94 0 40.93 83.9
3.805 -39.02 -17.09 -31.11 -21.04 -36.08 -25.12 -28.05 -35.06 -20.02 0 5.993 8.925 7.905 0 36.98 76.88
3.81 -37.1 -19.13 -37.1 -29.07 -45.01 -31.11 -29.07 -41.06 -31.11 -5.1 0 3.953 3.953 -3.06 31.88 61.97
3.815 -33.02 -11.09 -31.11 -31.11 -50.11 -33.02 -28.05 -37.1 -34.04 -12.11 0.8925 -1.02 1.913 -6.12 24.99 35.96
3.82 -33.02 -8.033 -26.01 -32 -51 -42.08 -27.03 -38.12 -29.07 -19.13 -12.11 -5.1 -9.053 -11.09 7.905 4.973
3.825 -27.03 -1.02 -17.09 -21.04 -39.02 -43.1 -29.07 -31.11 -15.05 -25.12 -19.13 -15.05 -21.04 -11.09 0.8925 -21.04
3.83 -19.13 0 -9.053 -9.053 -25.12 -37.1 -29.07 -23.08 0.8925 -21.04 -19.13 -21.04 -29.07 -11.09 -7.013 -43.1
3.835 -17.09 0 -9.053 -6.12 -16.07 -33.02 -32 -25.12 0 -16.07 -23.08 -28.05 -38.12 -19.13 -15.05 -61.07
3.84 -27.03 -1.02 -17.09 -13.01 -22.06 -35.06 -37.1 -37.1 -15.05 -18.11 -32 -35.06 -47.05 -39.02 -31.11 -79.05
3.845 -29.07 0.8925 -13.01 -19.13 -25.12 -29.07 -35.06 -39.02 -29.07 -15.05 -35.06 -37.1 -51 -47.05 -33.02 -79.05
3.85 -11.09 19 0 -8.033 -13.01 -9.053 -13.01 -21.04 -25.12 -1.02 -17.09 -21.04 -32 -33.02 -19.13 -63.11
3.855 8.925 39.91 19 9.945 4.973 6.885 8.925 1.913 -6.12 10.97 2.933 1.913 -7.013 -10.07 -2.04 -44.12
3.86 26.9 55.97 23.97 23.97 27.92 25.88 29.96 15.94 9.945 21.93 23.97 15.94 9.945 3.953 13.9 -25.12
3.865 38.89 59.93 22.95 29.96 45.9 38.89 40.93 22.95 20.91 35.96 44.88 28.94 26.9 16.96 38.89 -4.08
3.87 38.89 49.98 10.97 16.96 48.96 40.93 35.96 16.96 19.89 46.92 50.87 35.96 33.92 14.92 60.95 10.97
3.875 14.92 22.95 -6.12 -10.07 35.96 24.99 11.99 0 0.8925 43.99 38.89 25.88 25.88 1.913 68.98 24.99
3.88 -11.09 -7.013 -29.07 -43.1 10.97 1.913 -11.09 -29.07 -23.08 32.9 13.9 9.945 12.88 -19.13 59.93 39.91
3.885 -37.1 -30.09 -44.12 -59.03 -4.08 -22.06 -29.07 -46.03 -35.06 19 1.913 1.913 0.8925 -28.05 48.96 60.95
3.89 -39.02 -36.08 -46.03 -52.02 -9.053 -32 -34.04 -48.07 -30.09 5.993 -2.04 0.8925 -1.02 -20.02 38.89 80.96
3.895 -33.02 -34.04 -43.1 -35.06 -5.1 -32 -32 -43.1 -22.06 1.913 -3.06 1.913 0.8925 -9.053 29.96 87.98
3.9 -25.12 -31.11 -43.1 -30.09 -3.06 -28.05 -30.09 -43.1 -24.1 -5.1 -8.033 -5.1 -10.07 -13.01 11.99 71.91
3.905 -13.01 -24.1 -42.08 -30.09 -4.08 -22.06 -26.01 -42.08 -32 -4.08 -8.033 -18.11 -22.06 -26.01 2.933 36.98
3.91 -1.02 -9.053 -32 -33.02 1.913 -13.01 -24.1 -38.12 -40.04 0 -7.013 -30.09 -31.11 -38.12 -2.04 -1.02
3.915 8.925 -1.02 -21.04 -39.02 -1.02 -10.07 -15.05 -31.11 -45.01 0.8925 -12.11 -37.1 -38.12 -49.09 -14.03 -35.06
3.92 10.97 0.8925 -14.03 -40.04 2.933 -10.07 -12.11 -26.01 -46.03 -2.04 -14.03 -38.12 -40.04 -56.1 -28.05 -64.01
3.925 12.88 15.94 1.913 -29.07 7.905 0.8925 -1.02 -12.11 -41.06 -2.04 -10.07 -30.09 -30.09 -50.11 -33.02 -74.08
3.93 20.91 39.91 16.96 -11.09 22.95 14.92 15.94 4.973 -25.12 0.8925 1.913 -17.09 -15.05 -38.12 -29.07 -70.13
3.935 26.9 54.95 28.94 1.913 28.94 34.94 30.98 16.96 -16.07 2.933 2.933 -6.12 -12.11 -34.04 -28.05 -70.13
3.94 26.9 55.97 23.97 1.913 29.96 39.91 31.88 13.9 -17.09 3.953 -1.02 -7.013 -19.13 -41.06 -29.07 -74.08
3.945 28.94 48.96 11.99 -6.12 31.88 40.93 24.99 6.885 -16.07 6.885 0.8925 -13.01 -23.08 -44.12 -28.05 -81.09
3.95 34.94 38.89 2.933 -11.09 35.96 33.92 16.96 1.913 -8.033 10.97 -1.02 -18.11 -26.01 -37.1 -23.08 -82.11
3.955 32.9 24.99 -5.1 -14.03 27.92 22.95 6.885 -2.04 -2.04 8.925 1.913 -15.05 -23.08 -32 -14.03 -81.09
3.96 20.91 11.99 -11.09 -15.05 15.94 7.905 0 -7.013 -1.02 3.953 0 -13.01 -17.09 -29.07 -11.09 -68.09
3.965 4.973 10.97 -10.07 -14.03 0.8925 4.973 0.8925 0 -4.08 1.913 -1.02 -6.12 -4.08 -20.02 1.913 -46.03
3.97 0.8925 17.98 -1.02 -7.013 -6.12 8.925 11.99 6.885 -7.013 1.913 2.933 0 3.953 -10.07 9.945 -10.07
3.975 -9.053 15.94 2.933 -3.06 -13.01 11.99 15.94 12.88 -13.01 -4.08 1.913 4.973 6.885 -8.033 11.99 16.96
3.98 -23.08 4.973 -2.04 -12.11 -18.11 2.933 10.97 6.885 -20.02 -16.07 -12.11 -1.02 0.8925 -8.033 4.973 42.97
3.985 -27.03 -1.02 -9.053 -15.05 -20.02 -2.04 1.913 -2.04 -17.09 -31.11 -20.02 -3.06 1.913 -1.02 1.913 61.97
3.99 -27.03 -5.1 -10.07 -7.013 -18.11 -7.013 -2.04 0 -6.12 -42.08 -23.08 -4.08 1.913 4.973 0 74.97
3.995 -25.12 -4.08 -8.033 0 -22.06 -10.07 -4.08 -2.04 2.933 -46.03 -26.01 -4.08 -1.02 14.92 -6.12 70.89
4 -27.03 -1.02 -5.1 -1.02 -27.03 -14.03 -4.08 -1.02 6.885 -47.05 -34.04 -9.053 -2.04 17.98 -17.09 53.93
4.005 -29.07 -1.02 -3.06 0 -29.07 -12.11 0 1.913 4.973 -41.06 -39.02 -14.03 -11.09 15.94 -25.12 31.88
4.01 -27.03 -1.02 -4.08 -1.02 -29.07 -8.033 -1.02 0.8925 -1.02 -37.1 -42.08 -20.02 -16.07 8.925 -38.12 10.97
4.015 -29.07 -10.07 -14.03 0.8925 -24.1 -16.07 0.8925 0 -7.013 -34.04 -48.07 -29.07 -26.01 0 -50.11 -8.033
4.02 -29.07 -27.03 -29.07 -9.053 -20.02 -23.08 -7.013 -15.05 -21.04 -34.04 -57.12 -39.02 -36.08 -17.09 -59.03 -31.11
4.025 -15.05 -24.1 -30.09 -14.03 -9.053 -18.11 -5.1 -16.07 -29.07 -25.12 -46.03 -41.06 -37.1 -28.05 -54.06 -50.11
4.03 6.885 0 -10.07 -6.12 4.973 4.973 9.945 -2.04 -21.04 0 -22.06 -21.04 -27.03 -30.09 -30.09 -60.05
4.035 26.9 29.96 6.885 1.913 21.93 34.94 28.94 12.88 -10.07 13.9 0 -6.12 -12.11 -26.01 -8.033 -66.05
4.04 30.98 41.95 17.98 0 21.93 47.94 38 21.93 -5.1 19.89 3.953 -2.04 -7.013 -25.12 0.8925 -71.02
4.045 20.91 33.92 16.96 7.905 14.92 44.88 34.94 24.99 1.913 14.92 4.973 4.973 1.913 -16.07 0.8925 -60.05
4.05 4.973 6.885 5.993 6.885 3.953 27.92 17.98 19.89 1.913 0 1.913 7.905 2.933 -3.06 5.993 -35.06
4.055 -7.013 -19.13 -13.01 0 -1.02 1.913 0 3.953 3.953 -9.053 -1.02 7.905 9.945 1.913 7.905 -7.013
4.06 -21.04 -39.02 -29.07 -3.06 -6.12 -9.053 -5.1 -5.1 5.993 -14.03 -2.04 13.9 17.98 9.945 15.94 15.94
4.065 -15.05 -29.07 -21.04 -10.07 0 0.8925 -1.02 0 8.925 -6.12 7.905 24.99 30.98 19.89 31.88 47.94
4.07 -5.1 0.8925 -2.04 -1.02 9.945 21.93 25.88 21.93 19.89 5.993 27.92 43.99 49.98 25.88 47.94 71.91
4.075 -1.02 23.97 21.93 5.993 19.89 43.99 45.9 41.95 25.88 15.94 43.99 59.93 59.93 25.88 53.93 85.94
4.08 2.933 28.94 26.9 14.92 17.98 42.97 47.94 42.97 21.93 9.945 39.91 59.93 59.93 19.89 41.95 90.91
4.085 -1.02 17.98 21.93 19.89 10.97 27.92 36.98 33.92 16.96 0.8925 31.88 52.91 52.91 19 26.9 93.97
4.09 6.885 1.913 9.945 17.98 5.993 9.945 15.94 21.93 15.94 0.8925 17.98 41.95 43.99 19.89 13.9 91.93
4.095 14.92 0.8925 -2.04 13.9 2.933 -2.04 0.8925 5.993 12.88 1.913 5.993 26.9 34.94 22.95 4.973 80.96
4.1 19 0 -5.1 3.953 0.8925 -2.04 -1.02 0.8925 7.905 0 0 11.99 21.93 19 1.913 57.89
4.105 19 12.88 -8.033 -1.02 6.885 8.925 2.933 0 6.885 10.97 -2.04 2.933 8.925 12.88 0 35.96
4.11 20.91 27.92 1.913 -1.02 17.98 30.98 16.96 3.953 8.925 22.95 0 2.933 3.953 12.88 0.8925 17.98
4.115 12.88 24.99 0 1.913 23.97 39.91 26.9 6.885 8.925 24.99 10.97 2.933 2.933 9.945 1.913 0
4.12 2.933 12.88 2.933 -4.08 24.99 40.93 28.94 10.97 8.925 22.95 16.96 6.885 2.933 6.885 1.913 -6.12
4.125 6.885 9.945 10.97 0 20.91 40.93 32.9 17.98 19 20.91 23.97 12.88 9.945 9.945 -2.04 -7.013
4.13 22.95 20.91 31.88 10.97 23.97 45.9 40.93 38.89 34.94 24.99 33.92 23.97 23.97 21.93 1.913 -2.04
4.135 38.89 40.93 46.92 28.94 24.99 48.96 46.92 48.96 40.93 26.9 32.9 30.98 30.98 22.95 2.933 -2.04
4.14 44.88 50.87 47.94 36.98 22.95 45.9 40.93 43.99 36.98 20.91 24.99 24.99 27.92 15.94 0.8925 -8.033
4.145 44.88 53.93 32.9 35.96 16.96 32.9 25.88 30.98 24.99 14.92 14.92 19.89 16.96 11.99 3.953 -8.033
4.15 36.98 38.89 10.97 28.94 12.88 20.91 12.88 13.9 14.92 10.97 8.925 14.92 10.97 14.92 12.88 0
4.155 22.95 13.9 -4.08 12.88 2.933 4.973 1.913 1.913 5.993 5.993 5.993 12.88 9.945 15.94 21.93 3.953
4.16 -21.04 16.96 -5.1 -11.09 -45.01 -24.1 -6.12 -1.02 -25.12 -70.13 -92.06 -44.12 -43.1 -41.06 -131.1 -54.06
4.165 -7.013 17.98 -4.08 -13.01 -35.06 -23.08 -10.07 -11.09 -23.08 -62.09 -90.02 -49.09 -46.03 -39.02 -131.1 -52.02
4.17 2.933 10.97 -12.11 -18.11 -26.01 -24.1 -16.07 -20.02 -20.02 -54.06 -84.02 -46.03 -46.03 -40.04 -118.1 -50.11
4.175 -1.02 1.913 -25.12 -24.1 -26.01 -28.05 -22.06 -31.11 -19.13 -44.12 -69.11 -45.01 -47.05 -37.1 -93.08 -42.08
4.18 -3.06 -7.013 -24.1 -25.12 -28.05 -23.08 -25.12 -30.09 -24.1 -31.11 -41.06 -29.07 -40.04 -34.04 -59.03 -27.03
4.185 2.933 -4.08 -16.07 -20.02 -18.11 -8.033 -10.07 -16.07 -26.01 -6.12 -6.12 -8.033 -26.01 -26.01 -24.1 -8.033
4.19 -1.02 -3.06 -7.013 -20.02 -4.08 1.913 0.8925 -1.02 -34.04 8.925 14.92 3.953 -14.03 -26.01 0.8925 -1.02
4.195 -1.02 -3.06 0.8925 -25.12 4.973 7.905 9.945 1.913 -41.06 20.91 26.9 14.92 -5.1 -27.03 19 5.993
4.2 4.973 1.913 3.953 -27.03 20.91 11.99 19 7.905 -34.04 24.99 31.88 19 1.913 -26.01 36.98 12.88
4.205 12.88 -1.02 10.97 -21.04 31.88 12.88 17.98 10.97 -16.07 26.9 28.94 20.91 0.8925 -20.02 49.98 12.88
4.21 8.925 1.913 10.97 -18.11 25.88 10.97 10.97 6.885 -1.02 19 20.91 8.925 1.913 -17.09 57.89 9.945
4.215 2.933 -9.053 1.913 -17.09 15.94 5.993 1.913 0 0 8.925 11.99 1.913 -8.033 -20.02 54.95 2.933
4.22 0.8925 -15.05 -2.04 -15.05 3.953 4.973 -6.12 0.8925 -3.06 5.993 10.97 0 -12.11 -19.13 52.91 7.905
4.225 -3.06 -15.05 -1.02 -9.053 0 10.97 1.913 2.933 -9.053 8.925 19.89 6.885 -3.06 -10.07 55.97 16.96
4.23 -1.02 -15.05 0.8925 -3.06 2.933 14.92 9.945 15.94 -8.033 10.97 24.99 20.91 3.953 -4.08 52.91 24.99
4.235 -9.053 -17.09 0.8925 1.913 1.913 10.97 14.92 16.96 -1.02 8.925 19.89 28.94 13.9 -1.02 41.95 28.94
4.24 -5.1 -17.09 5.993 13.9 3.953 4.973 19 21.93 13.9 7.905 12.88 30.98 19 9.945 28.94 25.88
4.245 -1.02 -13.01 15.94 27.92 6.885 0 19 25.88 26.9 2.933 3.953 22.95 16.96 14.92 16.96 12.88
4.25 -1.02 -13.01 19 30.98 0 -4.08 10.97 16.96 25.88 0 -8.033 4.973 3.953 11.99 1.913 -3.06
4.255 -11.09 -22.06 10.97 19.89 -7.013 -18.11 0.8925 0.8925 12.88 -14.03 -26.01 -10.07 -14.03 0.8925 -15.05 -22.06
4.26 -19.13 -31.11 3.953 7.905 -18.11 -25.12 -8.033 -7.013 0 -26.01 -37.1 -26.01 -28.05 -2.04 -20.02 -32
4.265 -19.13 -35.06 0 0 -20.02 -27.03 -9.053 -11.09 -7.013 -33.02 -42.08 -26.01 -31.11 -5.1 -16.07 -33.02
4.27 -23.08 -37.1 -3.06 0 -22.06 -25.12 -6.12 -13.01 -6.12 -32 -38.12 -27.03 -32 -8.033 -10.07 -28.05
4.275 -29.07 -38.12 -6.12 -4.08 -20.02 -26.01 -6.12 -14.03 1.913 -28.05 -36.08 -22.06 -26.01 -10.07 -2.04 -24.1
4.28 -25.12 -35.06 -1.02 1.913 -16.07 -19.13 -3.06 -6.12 4.973 -17.09 -25.12 -11.09 -18.11 -6.12 7.905 -15.05
4.285 -15.05 -24.1 9.945 4.973 -8.033 -10.07 0.8925 1.913 15.94 -1.02 -7.013 0.8925 -5.1 1.913 23.97 -1.02
4.29 -9.053 -24.1 14.92 4.973 -6.12 -8.033 0.8925 4.973 10.97 12.88 2.933 4.973 -1.02 4.973 32.9 12.88
4.295 -11.09 -41.06 0.8925 -1.02 -9.053 -17.09 -2.04 -1.02 1.913 14.92 6.885 3.953 -1.02 1.913 39.91 20.91
4.3 -11.09 -64.01 -11.09 -9.053 -13.01 -24.1 -12.11 -11.09 -9.053 19 8.925 0.8925 1.913 -2.04 43.99 26.9
4.305 -9.053 -82.11 -18.11 -8.033 -10.07 -20.02 -16.07 -18.11 -10.07 20.91 12.88 -1.02 -4.08 1.913 50.87 28.94
4.31 -13.01 -105.1 -17.09 -2.04 -11.09 -17.09 -18.11 -18.11 -10.07 19 12.88 -2.04 -7.013 -2.04 51.89 20.91
4.315 -15.05 -126.1 -12.11 -2.04 -11.09 -16.07 -18.11 -20.02 -7.013 12.88 9.945 -6.12 -11.09 -5.1 40.93 10.97
4.32 -19.13 -140.1 -2.04 2.933 -10.07 -14.03 -12.11 -12.11 -2.04 8.925 10.97 0 -12.11 -4.08 28.94 3.953
4.325 -13.01 -145.1 1.913 4.973 -4.08 -7.013 -9.053 -3.06 1.913 3.953 14.92 3.953 -3.06 1.913 20.91 1.913
4.33 -11.09 -149.1 -3.06 0 -1.02 -3.06 -4.08 0.8925 0.8925 -1.02 8.925 2.933 -3.06 0.8925 4.973 0
4.335 -13.01 -153 -15.05 -7.013 -2.04 -7.013 -5.1 -5.1 -3.06 -3.06 0.8925 -2.04 -3.06 -1.02 -11.09 -11.09
4.34 -5.1 -137.1 -13.01 -5.1 1.913 0.8925 -1.02 0.8925 1.913 -6.12 -7.013 0 -2.04 -1.02 -24.1 -19.13
4.345 2.933 -110 0.8925 5.993 0.8925 8.925 13.9 10.97 7.905 -5.1 -11.09 -2.04 0.8925 3.953 -31.11 -32
4.35 10.97 -89.13 19.89 23.97 -1.02 17.98 27.92 21.93 15.94 -7.013 -11.09 -1.02 -3.06 1.913 -37.1 -47.05
4.355 8.925 -79.05 31.88 33.92 -3.06 19.89 35.96 23.97 19.89 -9.053 -11.09 -5.1 -9.053 0.8925 -41.06 -61.07
4.36 8.925 -75.1 38 39.91 0.8925 25.88 40.93 27.92 20.91 -6.12 -3.06 -6.12 -10.07 0.8925 -29.07 -59.03
4.365 6.885 -72.04 38.89 35.96 17.98 32.9 45.9 30.98 23.97 0 0.8925 0.8925 -5.1 -1.02 -8.033 -44.12
4.37 8.925 -67.07 38 29.96 25.88 38 47.94 33.92 19.89 11.99 9.945 3.953 1.913 3.953 9.945 -21.04
4.375 10.97 -59.03 35.96 21.93 28.94 38 46.92 35.96 19 20.91 15.94 12.88 14.92 13.9 31.88 1.913
4.38 12.88 -52.02 38 14.92 27.92 39.91 47.94 45.9 23.97 31.88 27.92 27.92 29.96 27.92 48.96 30.98
4.385 16.96 -47.05 40.93 15.94 27.92 38.89 45.9 50.87 29.96 38 38.89 39.91 45.9 40.93 64.9 54.95
4.39 16.96 -47.05 31.88 20.91 26.9 33.92 43.99 47.94 38 44.88 47.94 49.98 51.89 43.99 75.99 67.96
4.395 6.885 -60.05 16.96 22.95 21.93 25.88 32.9 34.94 36.98 41.95 45.9 44.88 45.9 35.96 75.99 77.9
4.4 0.8925 -62.09 10.97 28.94 21.93 26.9 28.94 26.9 40.93 45.9 46.92 42.97 40.93 32.9 78.92 82.88
4.405 6.885 -50.11 17.98 41.95 28.94 31.88 32.9 29.96 45.9 52.91 49.98 42.97 41.95 33.92 80.96 90.91
4.41 14.92 -37.1 27.92 46.92 26.9 26.9 31.88 35.96 43.99 50.87 42.97 43.99 40.93 32.9 71.91 89.89
4.415 10.97 -32 30.98 36.98 19 12.88 24.99 28.94 32.9 40.93 32.9 36.98 36.98 28.94 58.91 76.88
4.42 16.96 -32 26.9 21.93 7.905 4.973 17.98 23.97 19.89 31.88 22.95 33.92 28.94 26.9 45.9 60.95
4.425 14.92 -31.11 22.95 5.993 8.925 1.913 14.92 19 12.88 22.95 21.93 28.94 26.9 23.97 33.92 39.91
4.43 12.88 -40.04 8.925 1.913 4.973 0.8925 14.92 12.88 10.97 14.92 14.92 24.99 20.91 16.96 20.91 20.91
4.435 4.973 -50.11 0 0 5.993 1.913 13.9 6.885 13.9 8.925 7.905 19.89 13.9 10.97 5.993 5.993
4.44 2.933 -56.1 -3.06 3.953 2.933 -2.04 11.99 5.993 24.99 8.925 3.953 15.94 14.92 13.9 -3.06 -1.02
4.445 4.973 -54.06 1.913 19 10.97 -1.02 10.97 8.925 34.94 12.88 4.973 14.92 12.88 20.91 -10.07 -10.07
4.45 4.973 -51 -2.04 21.93 14.92 -1.02 4.973 4.973 31.88 13.9 0 6.885 4.973 21.93 -18.11 -23.08
4.455 0.8925 -54.06 0.8925 7.905 11.99 -10.07 0 -5.1 11.99 10.97 -4.08 0 -5.1 7.905 -21.04 -33.02
4.46 0.8925 -52.02 -2.04 -2.04 6.885 -12.11 -4.08 -14.03 -4.08 10.97 -4.08 -10.07 -12.11 1.913 -10.07 -32
4.465 -1.02 -47.05 -3.06 -8.033 4.973 -7.013 -1.02 -16.07 -19.13 14.92 0.8925 -6.12 -9.053 -2.04 10.97 -13.01
4.47 -7.013 -47.05 -5.1 -8.033 1.913 -3.06 1.913 -14.03 -19.13 19.89 13.9 0 -2.04 -1.02 38.89 10.97
4.475 -17.09 -43.1 -12.11 -7.013 3.953 -2.04 1.913 -10.07 -11.09 28.94 29.96 19 20.91 2.933 62.99 47.94
4.48 -13.01 -37.1 -9.053 -1.02 11.99 3.953 1.913 -1.02 5.993 38 49.98 39.91 45.9 23.97 89 89
4.485 -1.02 -17.09 -1.02 8.925 32.9 23.97 9.945 16.96 25.88 54.95 74.97 64.9 70 44.88 108.9 126
4.49 8.925 -4.08 0.8925 8.925 50.87 36.98 22.95 28.94 36.98 64.9 86.96 78.92 82.88 50.87 114.9 145
4.495 20.91 -2.04 1.913 1.913 55.97 38.89 32.9 27.92 27.92 62.99 86.96 80.96 79.94 39.91 108 147.9
4.5 22.95 -5.1 -1.02 0 46.92 41.95 36.98 28.94 19.89 53.93 81.98 76.88 76.88 31.88 104.9 140
4.505 26.9 -8.033 -1.02 6.885 38.89 38.89 40.93 28.94 10.97 44.88 80.96 76.88 74.97 26.9 102.9 134.9
4.51 28.94 -10.07 5.993 9.945 30.98 35.96 35.96 25.88 8.925 34.94 71.91 77.9 68.98 27.92 95.88 117.9
4.515 24.99 -4.08 6.885 14.92 23.97 28.94 23.97 16.96 7.905 24.99 59.93 71.91 57.89 22.95 75.99 91.93
4.52 26.9 2.933 12.88 12.88 24.99 32.9 16.96 16.96 10.97 20.91 48.96 64.9 48.96 20.91 56.99 60.95
4.525 36.98 19.89 22.95 11.99 34.94 43.99 20.91 20.91 19 24.99 47.94 58.91 40.93 17.98 38 23.97
4.53 40.93 22.95 26.9 11.99 43.99 50.87 31.88 29.96 21.93 25.88 42.97 49.98 30.98 6.885 19.89 -10.07
4.535 30.98 19 24.99 4.973 48.96 48.96 36.98 32.9 20.91 16.96 36.98 38.89 20.91 0 -2.04 -44.12
4.54 26.9 15.94 27.92 10.97 48.96 44.88 45.9 41.95 27.92 10.97 30.98 31.88 16.96 -2.04 -31.11 -63.11
4.545 22.95 16.96 33.92 25.88 44.88 41.95 44.88 43.99 31.88 3.953 21.93 26.9 15.94 0 -58.01 -74.08
4.55 16.96 16.96 34.94 30.98 30.98 28.94 32.9 38.89 32.9 -7.013 2.933 14.92 6.885 6.885 -94.1 -80.07
4.555 4.973 10.97 22.95 26.9 5.993 9.945 10.97 20.91 20.91 -25.12 -21.04 -2.04 -7.013 3.953 -127.1 -85.04
4.56 0.8925 5.993 9.945 19 -4.08 -2.04 -3.06 0 13.9 -36.08 -37.1 -19.13 -21.04 1.913 -137.1 -83
4.565 -1.02 3.953 6.885 11.99 -9.053 1.913 -13.01 0 5.993 -35.06 -38.12 -29.07 -27.03 0.8925 -114.1 -70.13
4.57 -1.02 -1.02 3.953 6.885 0.8925 0 -15.05 -3.06 3.953 -21.04 -29.07 -25.12 -19.13 1.913 -74.08 -48.07
4.575 -1.02 -7.013 -5.1 1.913 0.8925 -1.02 -20.02 -13.01 1.913 -10.07 -19.13 -18.11 -8.033 -5.1 -25.12 -17.09
4.58 -3.06 -21.04 -13.01 -1.02 3.953 -7.013 -23.08 -21.04 -3.06 0.8925 -1.02 -3.06 1.913 -1.02 19.89 13.9
4.585 0.8925 -30.09 -20.02 -1.02 3.953 -10.07 -27.03 -22.06 -1.02 7.905 12.88 7.905 17.98 4.973 60.95 52.91
4.59 -5.1 -43.1 -33.02 0.8925 -2.04 -21.04 -36.08 -29.07 -4.08 8.925 21.93 14.92 24.99 15.94 85.94 79.94
4.595 -25.12 -61.07 -47.05 -9.053 -17.09 -35.06 -45.01 -37.1 -9.053 1.913 17.98 11.99 23.97 15.94 89.89 93.97
4.6 -37.1 -65.03 -47.05 -11.09 -19.13 -35.06 -43.1 -33.02 -5.1 0 19.89 15.94 25.88 15.94 87.98 103.9
4.605 -35.06 -50.11 -34.04 -9.053 -9.053 -20.02 -27.03 -18.11 0 9.945 25.88 23.97 33.92 15.94 79.94 104.9
4.61 -29.07 -33.02 -21.04 -9.053 0.8925 -7.013 -16.07 -9.053 0.8925 14.92 26.9 24.99 32.9 6.885 58.91 87.98
4.615 -19.13 -19.13 -19.13 -13.01 7.905 -3.06 -11.09 -9.053 -2.04 11.99 17.98 21.93 23.97 -2.04 29.96 51.89
4.62 0.8925 0.8925 -11.09 -10.07 16.96 1.913 -8.033 -3.06 0.8925 7.905 10.97 17.98 15.94 0.8925 4.973 19
4.625 24.99 13.9 -2.04 -2.04 21.93 11.99 0.8925 0 1.913 9.945 10.97 15.94 9.945 1.913 -13.01 -5.1
4.63 40.93 28.94 0.8925 0.8925 24.99 20.91 2.933 4.973 0.8925 4.973 6.885 8.925 0.8925 0.8925 -32 -37.1
4.635 42.97 36.98 5.993 0 24.99 22.95 11.99 8.925 -1.02 0 1.913 0 -7.013 0.8925 -56.1 -58.01
4.64 42.97 43.99 20.91 0 32.9 35.96 26.9 21.93 -5.1 1.913 0 1.913 -11.09 -1.02 -74.08 -74.08
4.645 48.96 52.91 34.94 -2.04 42.97 48.96 42.97 32.9 -2.04 4.973 4.973 1.913 -14.03 1.913 -82.11 -83
4.65 54.95 58.91 41.95 -6.12 51.89 55.97 46.92 40.93 0.8925 0 4.973 -1.02 -14.03 1.913 -82.11 -88.11
4.655 48.96 52.91 33.92 -10.07 40.93 54.95 39.91 34.94 0 -8.033 0.8925 -3.06 -16.07 0 -79.05 -88.11
4.66 40.93 44.88 24.99 -4.08 22.95 44.88 22.95 26.9 0.8925 -18.11 -4.08 -12.11 -14.03 0 -58.01 -72.04
4.665 30.98 36.98 16.96 3.953 6.885 29.96 7.905 16.96 4.973 -22.06 -6.12 -13.01 -13.01 -1.02 -31.11 -40.04
4.67 16.96 20.91 9.945 5.993 -6.12 14.92 -4.08 3.953 0 -17.09 -12.11 -16.07 -8.033 0.8925 -7.013 -3.06
4.675 6.885 6.885 1.913 1.913 -12.11 1.913 -12.11 -8.033 -8.033 -8.033 -12.11 -14.03 -8.033 -6.12 10.97 22.95
4.68 12.88 2.933 -4.08 -14.03 -7.013 -2.04 -7.013 -11.09 -19.13 2.933 0 -2.04 1.913 -9.053 35.96 51.89
4.685 24.99 11.99 -3.06 -26.01 7.905 9.945 1.913 -8.033 -20.02 19 15.94 13.9 12.88 -2.04 63.88 75.99
4.69 32.9 19.89 -3.06 -27.03 20.91 17.98 4.973 -3.06 -16.07 24.99 28.94 26.9 24.99 0 82.88 80.96
4.695 16.96 17.98 -9.053 -24.1 20.91 10.97 0.8925 -7.013 -12.11 21.93 27.92 24.99 24.99 0 86.96 77.9
4.7 -1.02 9.945 -12.11 -11.09 13.9 1.913 -11.09 -15.05 -9.053 16.96 19 13.9 16.96 0.8925 78.92 65.92
4.705 0.8925 3.953 -11.09 0 8.925 0.8925 -22.06 -15.05 -4.08 14.92 7.905 -1.02 4.973 1.913 62.99 40.93
4.71 4.973 0.8925 -13.01 1.913 6.885 -8.033 -32 -26.01 -7.013 14.92 -8.033 -16.07 -15.05 -6.12 33.92 2.933
4.715 14.92 -6.12 -19.13 -6.12 3.953 -24.1 -41.06 -35.06 -19.13 8.925 -32 -37.1 -37.1 -21.04 -1.02 -41.06
4.72 28.94 -6.12 -23.08 -18.11 -1.02 -33.02 -41.06 -38.12 -20.02 0.8925 -45.01 -53.04 -56.1 -31.11 -21.04 -71.02
4.725 32.9 0 -17.09 -16.07 0.8925 -38.12 -39.02 -37.1 -17.09 0 -56.1 -59.03 -57.12 -27.03 -36.08 -89.13
4.73 16.96 -1.02 -15.05 -13.01 -12.11 -48.07 -42.08 -36.08 -11.09 -16.07 -68.09 -66.05 -59.03 -26.01 -53.04 -98.05
4.735 -3.06 -13.01 -17.09 -5.1 -28.05 -59.03 -54.06 -45.01 -16.07 -34.04 -83 -78.03 -64.01 -28.05 -76.12 -110
4.74 -17.09 -21.04 -16.07 0.8925 -37.1 -65.03 -57.12 -47.05 -19.13 -50.11 -94.1 -89.13 -74.08 -31.11 -104 -127.1
4.745 -15.05 -19.13 -7.013 -1.02 -38.12 -52.02 -49.09 -37.1 -24.1 -61.07 -97.03 -90.02 -84.02 -30.09 -130.1 -153
4.75 -7.013 -9.053 -1.02 1.913 -34.04 -37.1 -32 -27.03 -32 -74.08 -96.01 -88.11 -92.06 -36.08 -158.1 -174
4.755 -1.02 -3.06 0.8925 -4.08 -31.11 -25.12 -16.07 -20.02 -34.04 -86.06 -91.04 -79.05 -90.02 -38.12 -173 -179
4.76 0.8925 6.885 -1.02 -2.04 -27.03 -13.01 0.8925 -9.053 -29.07 -90.02 -78.03 -62.09 -72.04 -33.02 -167 -157.1
4.765 -1.02 20.91 4.973 2.933 -16.07 -2.04 6.885 1.913 -14.03 -82.11 -54.06 -34.04 -44.12 -20.02 -132.1 -108.1
4.77 -5.1 22.95 0 9.945 -10.07 -2.04 2.933 -1.02 -3.06 -69.11 -36.08 -16.07 -20.02 -11.09 -89.13 -57.12
4.775 -15.05 6.885 -10.07 5.993 -12.11 -15.05 -5.1 -16.07 1.913 -54.06 -26.01 -9.053 -11.09 -12.11 -51 -14.03
4.78 -23.08 -8.033 -22.06 2.933 -14.03 -28.05 -24.1 -30.09 -1.02 -34.04 -24.1 -12.11 -6.12 -6.12 -10.07 19
4.785 -27.03 -20.02 -29.07 0.8925 -14.03 -40.04 -37.1 -40.04 2.933 -14.03 -17.09 -11.09 1.913 6.885 21.93 52.91
4.79 -27.03 -34.04 -35.06 0.8925 -18.11 -55.08 -48.07 -48.07 3.953 -1.02 -16.07 -15.05 2.933 27.92 48.96 78.92
4.795 -33.02 -40.04 -44.12 1.913 -28.05 -68.09 -56.1 -58.01 1.913 1.913 -18.11 -14.03 6.885 38.89 62.99 95.88
4.8 -39.02 -37.1 -50.11 -1.02 -32 -69.11 -60.05 -59.03 -1.02 0.8925 -17.09 -12.11 7.905 43.99 70.89 101
4.805 -45.01 -32 -47.05 3.953 -28.05 -62.09 -59.03 -56.1 -3.06 3.953 -9.053 -11.09 3.953 35.96 72.93 86.96
4.81 -43.1 -24.1 -46.03 -1.02 -18.11 -54.06 -52.02 -54.06 -6.12 16.96 -10.07 -16.07 -6.12 19 62.99 53.93
4.815 -39.02 -21.04 -44.12 -2.04 -9.053 -47.05 -49.09 -53.04 -11.09 31.88 -14.03 -31.11 -23.08 0 47.94 19.89
4.82 -17.09 -5.1 -33.02 -6.12 -1.02 -39.02 -38.12 -49.09 -15.05 43.99 -14.03 -39.02 -29.07 0.8925 42.97 0.8925
4.825 2.933 11.99 -15.05 0.8925 9.945 -31.11 -23.08 -37.1 -11.09 53.93 -9.053 -35.06 -23.08 3.953 39.91 0.8925
4.83 22.95 33.92 0 7.905 10.97 -23.08 -8.033 -19.13 -4.08 44.88 -8.033 -28.05 -14.03 12.88 28.94 0
4.835 14.92 36.98 6.885 7.905 -1.02 -30.09 0.8925 -12.11 -1.02 17.98 -19.13 -23.08 -11.09 11.99 7.905 0
4.84 -1.02 31.88 11.99 9.945 -17.09 -35.06 0.8925 -5.1 -3.06 -9.053 -29.07 -21.04 -17.09 3.953 -17.09 -11.09
4.845 -15.05 23.97 17.98 9.945 -29.07 -37.1 0 0 -5.1 -31.11 -33.02 -15.05 -19.13 -2.04 -39.02 -21.04
4.85 -25.12 15.94 17.98 7.905 -36.08 -37.1 -1.02 1.913 -8.033 -40.04 -35.06 -12.11 -21.04 0.8925 -55.08 -27.03
4.855 -31.11 8.925 12.88 5.993 -37.1 -38.12 0.8925 0 -13.01 -39.02 -38.12 -9.053 -21.04 0 -62.09 -26.01
4.86 -25.12 13.9 11.99 13.9 -35.06 -31.11 0.8925 0.8925 -11.09 -33.02 -31.11 -3.06 -11.09 3.953 -53.04 -13.01
4.865 -5.1 31.88 17.98 33.92 -24.1 -17.09 4.973 5.993 0.8925 -20.02 -17.09 6.885 0.8925 13.9 -33.02 0
4.87 0.8925 40.93 25.88 46.92 -17.09 -5.1 7.905 13.9 13.9 -19.13 -7.013 15.94 11.99 15.94 -11.09 11.99
4.875 -1.02 33.92 19 43.99 -25.12 -12.11 3.953 10.97 15.94 -29.07 -6.12 17.98 13.9 2.933 -4.08 14.92
4.88 0.8925 26.9 13.9 32.9 -30.09 -13.01 0 5.993 9.945 -34.04 -3.06 21.93 15.94 -3.06 0 19.89
4.885 2.933 22.95 11.99 16.96 -33.02 -13.01 -1.02 6.885 0.8925 -29.07 0 22.95 25.88 -5.1 11.99 25.88
4.89 0.8925 20.91 6.885 2.933 -29.07 -10.07 0 2.933 -4.08 -15.05 6.885 22.95 26.9 -4.08 20.91 28.94
4.895 2.933 15.94 0.8925 -1.02 -23.08 -13.01 -6.12 -3.06 -12.11 0.8925 9.945 15.94 22.95 0 27.92 25.88
4.9 2.933 15.94 -6.12 -2.04 -15.05 -14.03 -11.09 -9.053 -9.053 11.99 8.925 5.993 16.96 8.925 34.94 24.99
4.905 -1.02 8.925 -8.033 2.933 0 -16.07 -18.11 -12.11 -4.08 24.99 8.925 1.913 10.97 19 40.93 20.91
4.91 -3.06 1.913 -14.03 10.97 0.8925 -26.01 -23.08 -20.02 0.8925 19.89 -1.02 -9.053 3.953 19.89 38 14.92
4.915 -17.09 -20.02 -27.03 13.9 -10.07 -40.04 -36.08 -32 -2.04 4.973 -11.09 -21.04 0 12.88 26.9 7.905
4.92 -31.11 -32 -30.09 8.925 -16.07 -42.08 -42.08 -38.12 -2.04 -2.04 -20.02 -26.01 -6.12 4.973 20.91 6.885
4.925 -37.1 -33.02 -27.03 5.993 -14.03 -34.04 -37.1 -36.08 0 -2.04 -19.13 -22.06 -6.12 4.973 16.96 11.99
4.93 -39.02 -25.12 -24.1 0.8925 -9.053 -23.08 -33.02 -31.11 1.913 3.953 -12.11 -16.07 -5.1 1.913 19.89 9.945
4.935 -35.06 -22.06 -26.01 -10.07 -6.12 -22.06 -32 -36.08 0 12.88 -4.08 -8.033 -8.033 -4.08 20.91 10.97
4.94 -21.04 -9.053 -26.01 -17.09 0 -15.05 -24.1 -33.02 -6.12 22.95 2.933 1.913 -4.08 -2.04 28.94 20.91
4.945 0.8925 -1.02 -20.02 -9.053 1.913 -7.013 -14.03 -21.04 -6.12 27.92 13.9 11.99 2.933 1.913 38 39.91
4.95 6.885 6.885 -14.03 0 -2.04 -2.04 -2.04 -8.033 0 14.92 12.88 19 14.92 6.885 32.9 52.91
4.955 4.973 7.905 -9.053 5.993 -12.11 -2.04 1.913 0.8925 1.913 -1.02 2.933 20.91 22.95 7.905 17.98 57.89
4.96 -1.02 9.945 0 15.94 -22.06 1.913 8.925 8.925 3.953 -18.11 0.8925 22.95 25.88 3.953 0 50.87
4.965 -1.02 19.89 8.925 20.91 -23.08 3.953 20.91 19 3.953 -21.04 -2.04 25.88 24.99 0 -5.1 33.92
4.97 -1.02 27.92 16.96 9.945 -12.11 11.99 24.99 20.91 1.913 -12.11 1.913 32.9 17.98 -3.06 -9.053 12.88
4.975 -1.02 27.92 15.94 -7.013 -2.04 14.92 27.92 15.94 -12.11 0 6.885 34.94 6.885 -9.053 -7.013 -1.02
4.98 -1.02 28.94 12.88 -22.06 6.885 22.95 32.9 16.96 -18.11 16.96 19 40.93 6.885 -8.033 0 -8.033
4.985 0.8925 30.98 14.92 -21.04 12.88 33.92 40.93 31.88 -12.11 29.96 31.88 47.94 16.96 0.8925 1.913 0
4.99 0.8925 25.88 17.98 -11.09 10.97 33.92 46.92 41.95 1.913 26.9 30.98 46.92 32.9 2.933 1.913 12.88
4.995 -11.09 19 16.96 0.8925 0.8925 24.99 40.93 48.96 8.925 16.96 20.91 40.93 40.93 6.885 -8.033 26.9
5 -9.053 23.97 22.95 16.96 0 25.88 39.91 53.93 19.89 17.98 19 32.9 47.94 13.9 -7.013 38
5.005 2.933 38 33.92 25.88 14.92 32.9 41.95 56.99 27.92 26.9 27.92 28.94 48.96 19 4.973 45.9
5.01 19 54.95 38.89 22.95 32.9 40.93 40.93 52.91 28.94 40.93 40.93 26.9 44.88 20.91 28.94 42.97
5.015 26.9 58.91 31.88 9.945 44.88 44.88 42.97 46.92 24.99 50.87 49.98 23.97 38.89 19 50.87 38
5.02 24.99 56.99 30.98 4.973 47.94 46.92 45.9 50.87 29.96 55.97 58.91 23.97 39.91 15.94 67.96 32.9
5.025 24.99 52.91 32.9 20.91 42.97 50.87 52.91 60.95 40.93 56.99 68.98 38.89 48.96 24.99 82.88 36.98
5.03 26.9 51.89 38.89 38.89 41.95 54.95 57.89 71.91 55.97 59.93 72.93 53.93 62.99 32.9 84.92 42.97
5.035 28.94 51.89 47.94 55.97 45.9 59.93 60.95 77.9 66.94 59.93 77.9 70 78.92 43.99 83.9 53.93
5.04 40.93 66.94 58.91 64.9 61.97 72.93 70.89 90.91 78.92 71.91 86.96 86.96 94.99 52.91 89 68.98
5.045 54.95 90.91 73.95 66.94 79.94 93.97 82.88 102.9 86.96 81.98 97.92 104.9 108 61.97 97.92 83.9
5.05 50.87 102.9 75.99 58.91 84.92 103.9 91.93 106 83.9 84.92 101.9 108 106 57.89 97.92 87.98
5.055 32.9 101.9 68.98 49.98 67.96 98.94 87.98 96.9 67.96 70 90.91 95.88 87.98 44.88 82.88 74.97
5.06 20.91 101 67.96 48.96 44.88 91.93 85.94 89.89 55.97 55.97 75.99 77.9 63.88 33.92 65.92 55.97
5.065 24.99 103.9 70 59.93 26.9 87.98 84.92 87.98 44.88 36.98 61.97 66.94 48.96 29.96 47.94 33.92
5.07 26.9 101.9 75.99 63.88 15.94 87.98 83.9 87.98 38 19.89 47.94 53.93 38 23.97 29.96 19.89
5.075 24.99 94.99 74.97 61.97 11.99 80.96 83.9 86.96 35.96 1.913 40.93 51.89 33.92 22.95 16.96 14.92
5.08 20.91 85.94 71.91 55.97 6.885 75.99 78.92 85.94 34.94 -6.12 39.91 52.91 39.91 21.93 15.94 23.97
5.085 12.88 73.95 61.97 45.9 5.993 65.92 71.91 79.94 38 -9.053 39.91 57.89 45.9 21.93 19.89 31.88
5.09 4.973 57.89 41.95 33.92 -2.04 47.94 53.93 63.88 33.92 -9.053 31.88 53.93 41.95 19.89 23.97 31.88
5.095 0.8925 40.93 15.94 19.89 -5.1 24.99 27.92 40.93 25.88 -7.013 17.98 39.91 27.92 13.9 21.93 19
5.1 12.88 31.88 3.953 16.96 0 11.99 6.885 23.97 20.91 0 10.97 22.95 12.88 10.97 19 5.993
5.105 28.94 31.88 3.953 19.89 7.905 9.945 0 21.93 21.93 5.993 15.94 11.99 3.953 9.945 19.89 -3.06
5.11 38.89 38 11.99 28.94 22.95 13.9 1.913 29.96 25.88 19 24.99 11.99 9.945 9.945 23.97 -7.013
5.115 36.98 38 14.92 32.9 30.98 17.98 9.945 33.92 27.92 25.88 30.98 15.94 16.96 7.905 27.92 -4.08
5.12 26.9 34.94 19 36.98 28.94 20.91 8.925 34.94 24.99 28.94 38.89 19 27.92 8.925 32.9 1.913
5.125 22.95 32.9 19.89 38 24.99 24.99 1.913 34.94 25.88 31.88 42.97 21.93 36.98 17.98 41.95 11.99
5.13 16.96 21.93 8.925 27.92 17.98 19.89 -4.08 23.97 19.89 30.98 38 15.94 36.98 17.98 42.97 15.94
5.135 2.933 8.925 -1.02 14.92 8.925 8.925 -16.07 8.925 14.92 24.99 26.9 4.973 24.99 14.92 36.98 7.905
5.14 0.8925 4.973 1.913 6.885 11.99 10.97 -15.05 10.97 10.97 25.88 25.88 3.953 19 10.97 33.92 4.973
5.145 2.933 19.89 15.94 6.885 31.88 26.9 1.913 24.99 10.97 39.91 39.91 10.97 21.93 13.9 39.91 4.973
5.15 2.933 38.89 26.9 12.88 46.92 44.88 22.95 36.98 10.97 42.97 42.97 20.91 20.91 10.97 32.9 1.913
5.155 20.91 49.98 26.9 7.905 52.91 50.87 29.96 36.98 0 39.91 38.89 20.91 14.92 3.953 21.93 -3.06
5.16 38.89 50.87 16.96 0 47.94 50.87 24.99 28.94 -8.033 26.9 26.9 13.9 6.885 -2.04 6.885 -14.03
5.165 58.91 46.92 6.885 -2.04 40.93 44.88 14.92 14.92 -16.07 20.91 16.96 2.933 -2.04 -10.07 1.913 -28.05
5.17 56.99 32.9 -1.02 -11.09 27.92 28.94 -1.02 -1.02 -20.02 13.9 0 -5.1 -15.05 -17.09 -10.07 -43.1
5.175 32.9 12.88 -8.033 -21.04 11.99 9.945 -7.013 -9.053 -20.02 1.913 -9.053 -17.09 -25.12 -24.1 -21.04 -52.02
5.18 6.885 5.993 -3.06 -13.01 0.8925 0 -6.12 -7.013 -12.11 1.913 -16.07 -20.02 -24.1 -22.06 -28.05 -48.07
5.185 -9.053 8.925 0.8925 0 0.8925 -2.04 1.913 0.8925 -3.06 -9.053 -17.09 -11.09 -17.09 -15.05 -32 -38.12
5.19 -19.13 9.945 3.953 -2.04 -9.053 -2.04 0.8925 0 -5.1 -24.1 -20.02 -8.033 -16.07 -19.13 -43.1 -35.06
5.195 -17.09 5.993 -1.02 -11.09 -18.11 0.8925 -2.04 -3.06 -24.1 -40.04 -27.03 -10.07 -26.01 -32 -52.02 -40.04
5.2 -7.013 6.885 -11.09 -33.02 -19.13 -1.02 -13.01 -16.07 -48.07 -41.06 -28.05 -15.05 -38.12 -43.1 -50.11 -46.03
5.205 4.973 12.88 -15.05 -49.09 -15.05 -1.02 -18.11 -24.1 -61.07 -35.06 -18.11 -24.1 -48.07 -50.11 -40.04 -56.1
5.21 10.97 17.98 -13.01 -58.01 -8.033 0.8925 -17.09 -31.11 -70.13 -21.04 -13.01 -31.11 -56.1 -50.11 -38.12 -67.07
5.215 8.925 20.91 -15.05 -59.03 -7.013 -4.08 -18.11 -40.04 -65.03 -21.04 -14.03 -40.04 -58.01 -46.03 -42.08 -74.08
5.22 8.925 26.9 -5.1 -47.05 -5.1 -3.06 -9.053 -32 -52.02 -25.12 -16.07 -37.1 -50.11 -37.1 -48.07 -66.05
5.225 20.91 38 0 -23.08 0 1.913 1.913 -17.09 -32 -28.05 -13.01 -28.05 -34.04 -24.1 -48.07 -52.02
5.23 20.91 39.91 3.953 -13.01 -1.02 9.945 -1.02 -9.053 -21.04 -30.09 -14.03 -20.02 -20.02 -17.09 -45.01 -37.1
5.235 14.92 36.98 -1.02 -12.11 -3.06 5.993 -2.04 -9.053 -15.05 -29.07 -15.05 -15.05 -13.01 -21.04 -36.08 -24.1
5.24 6.885 31.88 -1.02 -18.11 -8.033 3.953 -10.07 -11.09 -14.03 -22.06 -8.033 -10.07 -10.07 -22.06 -18.11 -14.03
5.245 -1.02 28.94 -4.08 -21.04 -5.1 0 -11.09 -15.05 -14.03 -11.09 0.8925 -5.1 -7.013 -18.11 0.8925 -2.04
5.25 0.8925 26.9 -9.053 -23.08 0.8925 -1.02 -8.033 -16.07 -18.11 -5.1 0 -5.1 -7.013 -15.05 4.973 0.8925
5.255 -1.02 26.9 -14.03 -30.09 2.933 -1.02 -6.12 -18.11 -24.1 -2.04 -1.02 -6.12 -2.04 -10.07 4.973 -1.02
5.26 14.92 36.98 -6.12 -23.08 15.94 8.925 1.913 -12.11 -26.01 0.8925 0.8925 0.8925 -1.02 -2.04 8.925 6.885
5.265 34.94 55.97 -1.02 -11.09 30.98 30.98 9.945 1.913 -19.13 15.94 10.97 6.885 10.97 1.913 19.89 17.98
5.27 42.97 62.99 4.973 -6.12 34.94 42.97 14.92 0.8925 -14.03 28.94 20.91 12.88 20.91 1.913 26.9 25.88
5.275 32.9 53.93 0 -10.07 27.92 40.93 15.94 0 -14.03 33.92 29.96 14.92 23.97 -9.053 29.96 28.94
5.28 10.97 32.9 -1.02 -20.02 15.94 36.98 7.905 -6.12 -10.07 35.96 35.96 17.98 19 -18.11 31.88 30.98
5.285 0.8925 10.97 -8.033 -30.09 19 32.9 4.973 -10.07 -10.07 40.93 42.97 16.96 20.91 -18.11 34.94 27.92
5.29 -13.01 0.8925 -16.07 -45.01 21.93 27.92 1.913 -13.01 -11.09 40.93 38 11.99 16.96 -15.05 30.98 21.93
5.295 -13.01 -6.12 -23.08 -51 22.95 19 -7.013 -22.06 -21.04 38 24.99 9.945 10.97 -17.09 23.97 11.99
5.3 -5.1 0 -20.02 -50.11 20.91 16.96 -6.12 -20.02 -24.1 36.98 14.92 6.885 7.905 -14.03 24.99 13.9
5.305 6.885 7.905 -12.11 -30.09 14.92 19.89 -3.06 -11.09 -17.09 31.88 14.92 11.99 12.88 -5.1 33.92 19
5.31 6.885 7.905 -11.09 -12.11 2.933 17.98 -3.06 -9.053 -11.09 16.96 14.92 11.99 17.98 0.8925 31.88 23.97
5.315 -9.053 -5.1 -17.09 -3.06 -7.013 7.905 -11.09 -17.09 -3.06 -2.04 13.9 9.945 15.94 0 19.89 19.89
5.32 -25.12 -17.09 -21.04 -1.02 -4.08 5.993 -18.11 -17.09 0.8925 -12.11 10.97 8.925 16.96 10.97 4.973 15.94
5.325 -27.03 -16.07 -19.13 3.953 1.913 8.925 -17.09 -12.11 11.99 -15.05 11.99 7.905 17.98 17.98 0.8925 10.97
5.33 -23.08 -7.013 -13.01 5.993 11.99 9.945 -15.05 -9.053 15.94 -15.05 9.945 3.953 13.9 13.9 -9.053 0
5.335 -13.01 -2.04 -9.053 3.953 9.945 5.993 -11.09 -7.013 11.99 -11.09 3.953 -2.04 5.993 3.953 -13.01 -5.1
5.34 -1.02 7.905 -3.06 3.953 -1.02 1.913 -4.08 -5.1 8.925 -4.08 3.953 1.913 3.953 0.8925 -7.013 -3.06
5.345 0.8925 2.933 -6.12 0.8925 -7.013 -2.04 -5.1 -8.033 5.993 0 2.933 -1.02 0 -2.04 0 -2.04
5.35 -11.09 -11.09 -21.04 -5.1 -15.05 -17.09 -21.04 -21.04 -3.06 -2.04 0.8925 -11.09 -3.06 -9.053 -1.02 -7.013
5.355 -25.12 -31.11 -42.08 -21.04 -18.11 -33.02 -42.08 -40.04 -20.02 -2.04 -14.03 -30.09 -16.07 -15.05 -10.07 -17.09
5.36 -29.07 -40.04 -51 -34.04 -9.053 -39.02 -53.04 -53.04 -29.07 -3.06 -25.12 -45.01 -26.01 -17.09 -15.05 -19.13
5.365 -17.09 -27.03 -40.04 -29.07 -3.06 -30.09 -51 -48.07 -27.03 -3.06 -26.01 -49.09 -25.12 -10.07 -16.07 -20.02
5.37 -1.02 -7.013 -23.08 -20.02 0.8925 -21.04 -33.02 -36.08 -9.053 0 -24.1 -41.06 -23.08 -7.013 -18.11 -15.05
5.375 0.8925 0 -6.12 -8.033 -4.08 -14.03 -18.11 -20.02 0.8925 1.913 -24.1 -35.06 -13.01 0.8925 -20.02 -11.09
5.38 -1.02 6.885 4.973 0.8925 -8.033 -2.04 -2.04 0 20.91 0 -16.07 -24.1 -2.04 10.97 -20.02 0.8925
5.385 0.8925 12.88 13.9 17.98 -1.02 5.993 9.945 16.96 35.96 1.913 -4.08 -9.053 10.97 27.92 -10.07 21.93
5.39 -1.02 13.9 17.98 24.99 11.99 15.94 17.98 27.92 38 1.913 0.8925 0.8925 21.93 34.94 -3.06 30.98
5.395 0.8925 10.97 8.925 24.99 19 19 14.92 22.95 30.98 -2.04 0 2.933 22.95 28.94 1.913 30.98
5.4 2.933 8.925 5.993 19.89 23.97 19.89 11.99 15.94 21.93 1.913 0 2.933 15.94 20.91 3.953 28.94
5.405 6.885 7.905 4.973 19 20.91 16.96 5.993 2.933 15.94 0.8925 0.8925 -1.02 9.945 9.945 4.973 21.93
5.41 8.925 0 0 10.97 8.925 6.885 -2.04 -8.033 6.885 2.933 -8.033 -6.12 0 -1.02 -1.02 8.925
5.415 0.8925 -22.06 -17.09 -4.08 -3.06 -8.033 -18.11 -27.03 1.913 -1.02 -24.1 -23.08 -15.05 -9.053 -3.06 0.8925
5.42 -5.1 -40.04 -30.09 -22.06 -19.13 -21.04 -30.09 -40.04 -10.07 -13.01 -29.07 -30.09 -26.01 -12.11 -8.033 -6.12
5.425 -15.05 -48.07 -32 -28.05 -24.1 -28.05 -32 -40.04 -18.11 -14.03 -28.05 -34.04 -28.05 -10.07 -2.04 -10.07
5.43 -29.07 -51 -29.07 -30.09 -26.01 -32 -35.06 -41.06 -27.03 -15.05 -29.07 -36.08 -31.11 -11.09 -6.12 -18.11
5.435 -43.1 -54.06 -28.05 -24.1 -30.09 -41.06 -40.04 -43.1 -32 -23.08 -35.06 -42.08 -37.1 -20.02 -20.02 -27.03
5.44 -39.02 -48.07 -20.02 -14.03 -30.09 -38.12 -36.08 -40.04 -26.01 -26.01 -42.08 -44.12 -38.12 -26.01 -36.08 -32
5.445 -19.13 -32 -11.09 0.8925 -26.01 -31.11 -26.01 -32 -12.11 -29.07 -44.12 -40.04 -34.04 -23.08 -49.09 -33.02
5.45 -7.013 -25.12 -12.11 -1.02 -24.1 -29.07 -16.07 -24.1 -3.06 -34.04 -46.03 -38.12 -28.05 -15.05 -59.03 -33.02
5.455 -5.1 -26.01 -19.13 -4.08 -31.11 -32 -10.07 -20.02 -2.04 -43.1 -50.11 -41.06 -27.03 -16.07 -65.03 -35.06
5.46 -19.13 -35.06 -24.1 -12.11 -36.08 -35.06 -6.12 -14.03 -9.053 -42.08 -50.11 -40.04 -26.01 -15.05 -59.03 -39.02
5.465 -27.03 -40.04 -17.09 -11.09 -34.04 -27.03 0 -6.12 -12.11 -31.11 -44.12 -37.1 -22.06 -17.09 -51 -39.02
5.47 -35.06 -44.12 -14.03 -14.03 -28.05 -20.02 0.8925 0 -14.03 -22.06 -38.12 -30.09 -18.11 -22.06 -40.04 -34.04
5.475 -37.1 -42.08 -12.11 -22.06 -18.11 -11.09 6.885 -2.04 -18.11 -17.09 -27.03 -20.02 -13.01 -32 -30.09 -25.12
5.48 -17.09 -25.12 0.8925 -26.01 1.913 2.933 19.89 7.905 -17.09 -7.013 -13.01 -2.04 0 -25.12 -16.07 -8.033
5.485 4.973 0 4.973 -24.1 16.96 24.99 38.89 20.91 -10.07 0.8925 2.933 14.92 14.92 -14.03 -1.02 6.885
5.49 19 10.97 10.97 -22.06 23.97 35.96 50.87 32.9 -4.08 5.993 17.98 28.94 24.99 -2.04 10.97 14.92
5.495 10.97 4.973 9.945 -18.11 15.94 30.98 48.96 33.92 -4.08 7.905 16.96 27.92 21.93 -1.02 17.98 13.9
5.5 2.933 -4.08 6.885 -8.033 2.933 22.95 44.88 34.94 0 10.97 12.88 20.91 12.88 -2.04 19 6.885
5.505 -5.1 -13.01 10.97 0 1.913 20.91 41.95 34.94 1.913 14.92 13.9 12.88 5.993 -5.1 20.91 0
5.51 -3.06 -18.11 11.99 -1.02 0 17.98 38 29.96 -1.02 15.94 10.97 4.973 0 -10.07 17.98 -6.12
5.515 0.8925 -14.03 6.885 -8.033 4.973 19 30.98 19 -8.033 14.92 8.925 -1.02 -2.04 -16.07 12.88 -16.07
5.52 8.925 1.913 7.905 -14.03 23.97 27.92 31.88 15.94 -13.01 25.88 17.98 -1.02 -3.06 -18.11 19.89 -18.11
5.525 26.9 24.99 11.99 -11.09 42.97 38 31.88 14.92 -9.053 41.95 32.9 7.905 0 -9.053 30.98 -13.01
5.53 36.98 36.98 14.92 -6.12 50.87 40.93 24.99 14.92 -8.033 52.91 40.93 8.925 0 -10.07 40.93 -16.07
5.535 34.94 31.88 10.97 -8.033 40.93 30.98 12.88 6.885 -10.07 50.87 38.89 3.953 -5.1 -19.13 36.98 -23.08
5.54 24.99 17.98 3.953 -8.033 25.88 13.9 1.913 0.8925 -11.09 39.91 28.94 0.8925 -15.05 -27.03 26.9 -23.08
5.545 12.88 4.973 -1.02 -9.053 7.905 0.8925 -7.013 -4.08 -15.05 13.9 16.96 -9.053 -19.13 -30.09 6.885 -28.05
5.55 -1.02 -2.04 -9.053 -12.11 0.8925 -7.013 -17.09 -15.05 -17.09 -5.1 0.8925 -19.13 -22.06 -31.11 -15.05 -31.11
5.555 -11.09 -13.01 -24.1 -17.09 -12.11 -23.08 -30.09 -32 -20.02 -30.09 -16.07 -28.05 -28.05 -29.07 -40.04 -33.02
5.56 -19.13 -19.13 -29.07 -17.09 -17.09 -31.11 -35.06 -35.06 -11.09 -39.02 -19.13 -27.03 -27.03 -17.09 -47.05 -25.12
5.565 -11.09 -16.07 -18.11 -6.12 -13.01 -28.05 -31.11 -26.01 0 -31.11 -14.03 -19.13 -19.13 1.913 -38.12 -14.03
5.57 -11.09 -17.09 -11.09 1.913 -14.03 -35.06 -34.04 -19.13 6.885 -26.01 -13.01 -13.01 -15.05 3.953 -35.06 -11.09
5.575 -23.08 -31.11 -19.13 1.913 -29.07 -57.12 -49.09 -29.07 0 -33.02 -29.07 -25.12 -27.03 0.8925 -47.05 -25.12
5.58 -35.06 -41.06 -27.03 0 -45.01 -77.01 -65.03 -41.06 -7.013 -43.1 -49.09 -39.02 -39.02 -11.09 -59.03 -39.02
5.585 -35.06 -44.12 -35.06 0.8925 -57.12 -87.09 -77.01 -52.02 -15.05 -47.05 -63.11 -49.09 -45.01 -19.13 -67.07 -46.03
5.59 -35.06 -43.1 -41.06 -6.12 -60.05 -85.04 -88.11 -63.11 -26.01 -50.11 -72.04 -64.01 -54.06 -28.05 -74.08 -49.09
5.595 -33.02 -47.05 -49.09 -17.09 -59.03 -79.05 -93.08 -75.1 -29.07 -45.01 -73.06 -71.02 -59.03 -33.02 -71.02 -49.09
5.6 -21.04 -43.1 -42.08 -18.11 -48.07 -57.12 -83 -69.11 -23.08 -35.06 -60.05 -67.07 -55.08 -31.11 -61.07 -37.1
5.605 -13.01 -41.06 -32 -12.11 -35.06 -38.12 -63.11 -53.04 -11.09 -23.08 -43.1 -56.1 -48.07 -21.04 -43.1 -28.05
5.61 -15.05 -44.12 -30.09 -10.07 -32 -32 -46.03 -40.04 -10.07 -24.1 -36.08 -44.12 -43.1 -16.07 -36.08 -29.07
5.615 -29.07 -52.02 -29.07 -11.09 -38.12 -39.02 -33.02 -30.09 -15.05 -33.02 -36.08 -35.06 -38.12 -9.053 -33.02 -31.11
5.62 -33.02 -45.01 -24.1 -15.05 -39.02 -36.08 -23.08 -18.11 -21.04 -31.11 -28.05 -23.08 -26.01 0.8925 -23.08 -23.08
5.625 -23.08 -28.05 -12.11 -6.12 -30.09 -26.01 -4.08 0 -18.11 -18.11 -10.07 -2.04 -6.12 10.97 -6.12 -9.053
5.63 -11.09 -9.053 0 -1.02 -15.05 -7.013 3.953 5.993 -9.053 1.913 2.933 10.97 5.993 16.96 5.993 3.953
5.635 -9.053 -1.02 1.913 4.973 -8.033 1.913 10.97 7.905 0 8.925 14.92 21.93 14.92 10.97 12.88 12.88
5.64 -11.09 8.925 4.973 10.97 -4.08 16.96 20.91 16.96 8.925 14.92 22.95 32.9 20.91 2.933 16.96 17.98
5.645 -13.01 19.89 15.94 15.94 -3.06 34.94 38.89 33.92 20.91 19 28.94 38 21.93 0.8925 16.96 17.98
5.65 -9.053 32.9 32.9 13.9 -8.033 42.97 57.89 50.87 23.97 17.98 24.99 38 22.95 1.913 6.885 10.97
5.655 -5.1 44.88 44.88 8.925 -8.033 46.92 70.89 62.99 20.91 14.92 12.88 34.94 20.91 1.913 0 0
5.66 4.973 55.97 56.99 13.9 0.8925 51.89 77.9 71.91 13.9 11.99 5.993 31.88 17.98 2.933 -12.11 -10.07
5.665 22.95 63.88 61.97 23.97 15.94 54.95 75.99 70.89 13.9 19 0.8925 31.88 21.93 10.97 -17.09 -14.03
5.67 22.95 51.89 51.89 28.94 22.95 47.94 66.94 59.93 10.97 12.88 -2.04 28.94 16.96 14.92 -28.05 -18.11
5.675 8.925 28.94 33.92 19 12.88 26.9 46.92 41.95 5.993 1.913 -13.01 20.91 10.97 9.945 -35.06 -14.03
5.68 -3.06 10.97 21.93 7.905 0.8925 11.99 32.9 28.94 2.933 -9.053 -14.03 22.95 15.94 12.88 -33.02 -1.02
5.685 -9.053 5.993 17.98 -1.02 -6.12 7.905 30.98 27.92 2.933 -10.07 1.913 32.9 28.94 16.96 -10.07 19
5.69 -9.053 3.953 8.925 -10.07 -7.013 8.925 27.92 24.99 1.913 -2.04 12.88 38 33.92 15.94 8.925 31.88
5.695 -9.053 0 0.8925 -14.03 -1.02 14.92 15.94 11.99 -10.07 4.973 27.92 36.98 30.98 3.953 28.94 29.96
5.7 -1.02 -1.02 -3.06 -6.12 0.8925 17.98 9.945 -2.04 -13.01 22.95 35.96 28.94 19.89 0.8925 44.88 22.95
5.705 4.973 -1.02 -7.013 4.973 11.99 20.91 1.913 -3.06 -14.03 34.94 38 14.92 4.973 -3.06 50.87 11.99
5.71 6.885 -9.053 -4.08 14.92 9.945 12.88 -1.02 -12.11 -7.013 28.94 16.96 -1.02 -7.013 -1.02 36.98 0.8925
5.715 4.973 -17.09 -1.02 13.9 0 -1.02 -14.03 -21.04 -8.033 2.933 -6.12 -18.11 -24.1 -6.12 8.925 -16.07
5.72 2.933 -20.02 0.8925 7.905 -15.05 -17.09 -20.02 -24.1 -8.033 -21.04 -32 -30.09 -29.07 -4.08 -17.09 -28.05
5.725 2.933 -16.07 0.8925 4.973 -22.06 -24.1 -18.11 -17.09 -5.1 -44.12 -39.02 -30.09 -26.01 -5.1 -37.1 -36.08
5.73 2.933 -15.05 -3.06 0.8925 -26.01 -27.03 -14.03 -11.09 -4.08 -52.02 -40.04 -26.01 -22.06 -8.033 -48.07 -42.08
5.735 -9.053 -19.13 -11.09 1.913 -25.12 -28.05 -11.09 -14.03 -1.02 -48.07 -36.08 -21.04 -17.09 -12.11 -47.05 -46.03
5.74 -17.09 -23.08 -10.07 7.905 -15.05 -21.04 -5.1 -7.013 5.993 -31.11 -19.13 -15.05 -9.053 -2.04 -34.04 -36.08
5.745 -15.05 -22.06 -4.08 20.91 0 -12.11 -2.04 0 24.99 -8.033 -6.12 -10.07 -2.04 8.925 -22.06 -22.06
5.75 -17.09 -30.09 0 25.88 -1.02 -10.07 -7.013 0 35.96 -2.04 -8.033 -13.01 -4.08 20.91 -26.01 -14.03
5.755 -23.08 -39.02 -11.09 23.97 -5.1 -20.02 -18.11 -9.053 30.98 -8.033 -22.06 -23.08 -19.13 17.98 -42.08 -17.09
5.76 -31.11 -40.04 -12.11 16.96 -22.06 -24.1 -18.11 -14.03 20.91 -26.01 -36.08 -34.04 -26.01 19 -62.09 -21.04
5.765 -27.03 -28.05 -8.033 14.92 -32 -17.09 -10.07 -7.013 14.92 -34.04 -40.04 -35.06 -22.06 22.95 -68.09 -20.02
5.77 -19.13 -15.05 0 12.88 -27.03 -11.09 0 0 17.98 -31.11 -36.08 -28.05 -11.09 26.9 -63.11 -15.05
5.775 -7.013 -4.08 2.933 6.885 -16.07 -6.12 8.925 6.885 19 -20.02 -24.1 -14.03 2.933 32.9 -50.11 -3.06
5.78 4.973 -1.02 6.885 5.993 1.913 1.913 13.9 14.92 23.97 -1.02 -2.04 1.913 22.95 41.95 -21.04 17.98
5.785 14.92 -6.12 5.993 13.9 20.91 1.913 11.99 16.96 29.96 7.905 14.92 19.89 40.93 43.99 3.953 41.95
5.79 8.925 -20.02 -6.12 12.88 20.91 -1.02 0.8925 4.973 24.99 10.97 26.9 26.9 41.95 32.9 26.9 53.93
5.795 -5.1 -37.1 -26.01 2.933 3.953 -6.12 -11.09 -7.013 11.99 5.993 25.88 24.99 32.9 17.98 39.91 56.99
5.8 -21.04 -39.02 -36.08 1.913 -10.07 -9.053 -21.04 -21.04 -2.04 0 26.9 17.98 19.89 0 47.94 47.94
5.805 -29.07 -31.11 -31.11 -5.1 -17.09 -9.053 -21.04 -25.12 -3.06 7.905 25.88 11.99 7.905 -1.02 53.93 33.92
5.81 -23.08 -19.13 -19.13 -6.12 -18.11 -7.013 -20.02 -21.04 -4.08 14.92 20.91 2.933 1.913 -10.07 42.97 13.9
5.815 -27.03 -24.1 -21.04 -13.01 -19.13 -19.13 -21.04 -26.01 -7.013 9.945 1.913 -5.1 -15.05 -19.13 21.93 -10.07
5.82 -31.11 -29.07 -23.08 -13.01 -19.13 -27.03 -25.12 -25.12 -11.09 -2.04 -7.013 -17.09 -29.07 -25.12 0 -31.11
5.825 -33.02 -21.04 -27.03 -9.053 -19.13 -29.07 -21.04 -21.04 -13.01 -11.09 -11.09 -19.13 -31.11 -25.12 -7.013 -39.02
5.83 -33.02 -1.02 -33.02 -11.09 -22.06 -27.03 -16.07 -17.09 -20.02 -20.02 -11.09 -16.07 -27.03 -25.12 -13.01 -39.02
5.835 -31.11 26.9 -40.04 -25.12 -23.08 -26.01 -15.05 -22.06 -29.07 -23.08 -8.033 -13.01 -27.03 -30.09 -18.11 -38.12
5.84 -21.04 67.96 -37.1 -33.02 -21.04 -19.13 -11.09 -21.04 -37.1 -19.13 -3.06 -9.053 -21.04 -29.07 -17.09 -31.11
5.845 -5.1 106 -25.12 -27.03 -12.11 -9.053 -2.04 -13.01 -32 -8.033 -2.04 0 -12.11 -25.12 -19.13 -23.08
5.85 -5.1 113 -17.09 -18.11 -13.01 -5.1 0.8925 -9.053 -25.12 -5.1 1.913 -1.02 -13.01 -19.13 -21.04 -25.12
5.855 -23.08 92.95 -22.06 -13.01 -23.08 -18.11 -5.1 -10.07 -23.08 -11.09 -6.12 -7.013 -19.13 -20.02 -28.05 -26.01
5.86 -37.1 70.89 -23.08 -2.04 -30.09 -27.03 -7.013 -11.09 -16.07 -14.03 -9.053 -3.06 -15.05 -11.09 -15.05 -19.13
5.865 -43.1 54.95 -21.04 0.8925 -30.09 -33.02 -12.11 -3.06 -10.07 -6.12 1.913 -1.02 1.913 0.8925 0 1.913
5.87 -33.02 50.87 -22.06 1.913 -24.1 -38.12 -18.11 -6.12 -10.07 1.913 4.973 8.925 10.97 0.8925 26.9 20.91
5.875 -23.08 47.94 -24.1 -6.12 -18.11 -41.06 -30.09 -13.01 -16.07 4.973 5.993 13.9 22.95 5.993 45.9 44.88
5.88 -9.053 50.87 -22.06 -11.09 -12.11 -42.08 -33.02 -21.04 -15.05 12.88 13.9 17.98 32.9 10.97 56.99 64.9
5.885 2.933 52.91 -18.11 -4.08 -4.08 -32 -26.01 -16.07 -8.033 20.91 22.95 32.9 38.89 19 66.94 76.88
5.89 2.933 39.91 -19.13 -2.04 0 -28.05 -19.13 -10.07 -2.04 24.99 31.88 39.91 41.95 13.9 74.97 73.95
5.895 -5.1 26.9 -24.1 -8.033 -1.02 -23.08 -12.11 -7.013 -2.04 23.97 34.94 43.99 36.98 4.973 75.99 60.95
5.9 -3.06 19 -28.05 -14.03 0 -20.02 -6.12 1.913 0 26.9 42.97 44.88 36.98 -2.04 78.92 46.92
5.905 2.933 23.97 -22.06 -24.1 0 -9.053 -3.06 -1.02 1.913 36.98 48.96 42.97 34.94 -4.08 79.94 32.9
5.91 0.8925 22.95 -26.01 -34.04 5.993 -11.09 -5.1 1.913 0 38.89 47.94 34.94 31.88 -4.08 63.88 20.91
5.915 -1.02 20.91 -34.04 -38.12 -1.02 -16.07 -18.11 -10.07 -4.08 32.9 32.9 26.9 22.95 1.913 44.88 12.88
5.92 0.8925 12.88 -43.1 -36.08 -5.1 -16.07 -20.02 -11.09 -3.06 22.95 24.99 22.95 20.91 4.973 25.88 19
5.925 0.8925 10.97 -46.03 -21.04 -5.1 -8.033 -12.11 -6.12 -2.04 16.96 25.88 27.92 21.93 8.925 19 24.99
5.93 0.8925 6.885 -56.1 -14.03 -4.08 0 -4.08 0 0.8925 12.88 28.94 28.94 24.99 2.933 12.88 24.99
5.935 -1.02 1.913 -67.07 -19.13 -3.06 1.913 0 -2.04 -1.02 8.925 24.99 26.9 19.89 -8.033 8.925 19
5.94 -5.1 -7.013 -69.11 -29.07 -2.04 1.913 -2.04 -4.08 -14.03 8.925 21.93 19 14.92 -19.13 1.913 9.945
5.945 -1.02 -14.03 -62.09 -35.06 7.905 5.993 -4.08 -7.013 -18.11 11.99 15.94 10.97 11.99 -13.01 1.913 5.993
5.95 2.933 -27.03 -51 -33.02 7.905 5.993 -8.033 -10.07 -18.11 2.933 5.993 4.973 6.885 -7.013 -13.01 1.913
5.955 6.885 -50.11 -45.01 -27.03 3.953 1.913 -16.07 -18.11 -11.09 -10.07 -4.08 -1.02 1.913 1.913 -32 -1.02
5.96 19 -68.09 -38.12 -10.07 0.8925 0.8925 -18.11 -18.11 1.913 -22.06 -10.07 -1.02 2.933 0.8925 -42.08 -1.02
5.965 26.9 -84.02 -32 0 1.913 6.885 -14.03 -14.03 9.945 -24.1 -7.013 3.953 7.905 0.8925 -44.12 2.933
5.97 22.95 -102 -37.1 2.933 -1.02 -1.02 -18.11 -17.09 13.9 -20.02 -6.12 0.8925 6.885 1.913 -45.01 0.8925
5.975 0.8925 -124.1 -46.03 -4.08 -8.033 -14.03 -30.09 -30.09 10.97 -16.07 -14.03 -4.08 -1.02 -6.12 -42.08 -1.02
5.98 -7.013 -134 -50.11 -14.03 -13.01 -32 -41.06 -38.12 2.933 -10.07 -15.05 -10.07 -1.02 -4.08 -35.06 0.8925
5.985 -7.013 -131.1 -44.12 -14.03 -15.05 -35.06 -43.1 -38.12 5.993 -8.033 -14.03 -10.07 -4.08 1.913 -21.04 6.885
5.99 2.933 -124.1 -36.08 -4.08 -14.03 -36.08 -48.07 -36.08 6.885 -10.07 -14.03 -12.11 -10.07 0 -14.03 2.933
5.995 12.88 -112.1 -32 -1.02 -13.01 -31.11 -46.03 -41.06 4.973 -17.09 -16.07 -17.09 -18.11 -8.033 -7.013 -6.12
6 22.95 -103 -27.03 8.925 -10.07 -20.02 -43.1 -42.08 2.933 -16.07 -11.09 -23.08 -28.05 -11.09 0 -19.13
6.005 26.9 -92.06 -26.01 12.88 -4.08 -10.07 -40.04 -40.04 0.8925 -4.08 -4.08 -22.06 -32 -4.08 8.925 -26.01
6.01 16.96 -98.05 -30.09 3.953 -8.033 -10.07 -43.1 -43.1 0 1.913 -3.06 -27.03 -34.04 -1.02 14.92 -26.01
6.015 -1.02 -115 -42.08 -8.033 -16.07 -27.03 -56.1 -51 0 -1.02 -9.053 -29.07 -32 5.993 13.9 -18.11
6.02 -15.05 -126.1 -44.12 -16.07 -18.11 -42.08 -64.01 -50.11 1.913 1.913 -8.033 -24.1 -20.02 14.92 4.973 0
6.025 -17.09 -130.1 -31.11 -12.11 -14.03 -51 -64.01 -39.02 2.933 -1.02 -8.033 -14.03 -1.02 21.93 -2.04 15.94
6.03 -11.09 -122 -19.13 -4.08 -8.033 -51 -59.03 -29.07 6.885 -1.02 -11.09 -7.013 1.913 21.93 -7.013 19.89
6.035 -9.053 -113.1 -10.07 -2.04 -7.013 -52.02 -55.08 -24.1 7.905 0 -22.06 -9.053 5.993 19 -18.11 14.92
6.04 0.8925 -96.01 -1.02 4.973 -5.1 -41.06 -43.1 -21.04 11.99 3.953 -27.03 -13.01 0 19.89 -25.12 7.905
6.045 6.885 -77.01 -2.04 13.9 -6.12 -33.02 -36.08 -21.04 14.92 0.8925 -33.02 -20.02 0 17.98 -29.07 0
6.05 6.885 -71.02 -3.06 7.905 -15.05 -31.11 -37.1 -27.03 9.945 -5.1 -45.01 -35.06 -15.05 11.99 -41.06 -5.1
6.055 2.933 -76.12 -14.03 1.913 -27.03 -38.12 -39.02 -34.04 0 -25.12 -58.01 -47.05 -31.11 0.8925 -60.05 -16.07
6.06 -7.013 -79.05 -19.13 0 -36.08 -41.06 -38.12 -33.02 -6.12 -46.03 -63.11 -54.06 -37.1 -1.02 -81.09 -25.12
6.065 -13.01 -79.05 -17.09 0 -35.06 -39.02 -29.07 -23.08 -11.09 -55.08 -61.07 -49.09 -35.06 -5.1 -95.12 -35.06
6.07 -17.09 -79.05 -15.05 0.8925 -33.02 -37.1 -19.13 -15.05 -11.09 -55.08 -57.12 -41.06 -31.11 -11.09 -101.1 -43.1
6.075 -21.04 -82.11 -18.11 -13.01 -33.02 -38.12 -17.09 -14.03 -13.01 -49.09 -57.12 -35.06 -29.07 -17.09 -99.07 -48.07
6.08 -21.04 -83 -19.13 -21.04 -32 -39.02 -20.02 -19.13 -14.03 -42.08 -52.02 -32 -30.09 -22.06 -88.11 -45.01
6.085 -15.05 -87.09 -23.08 -29.07 -35.06 -45.01 -29.07 -29.07 -17.09 -37.1 -47.05 -31.11 -35.06 -25.12 -69.11 -39.02
6.09 -17.09 -93.08 -33.02 -30.09 -40.04 -55.08 -42.08 -43.1 -23.08 -37.1 -42.08 -33.02 -37.1 -29.07 -45.01 -33.02
6.095 -29.07 -105.1 -52.02 -32 -52.02 -73.06 -57.12 -57.12 -29.07 -37.1 -40.04 -33.02 -44.12 -31.11 -23.08 -28.05
6.1 -37.1 -112.1 -58.01 -28.05 -52.02 -76.12 -60.05 -58.01 -34.04 -30.09 -26.01 -32 -43.1 -32 1.913 -21.04
6.105 -35.06 -106.1 -55.08 -23.08 -40.04 -66.05 -48.07 -48.07 -29.07 -9.053 -4.08 -21.04 -25.12 -27.03 27.92 -10.07
6.11 -29.07 -95.12 -44.12 -24.1 -15.05 -47.05 -36.08 -37.1 -29.07 11.99 11.99 -11.09 -11.09 -27.03 45.9 -1.02
6.115 -17.09 -82.11 -30.09 -26.01 2.933 -30.09 -22.06 -28.05 -28.05 26.9 22.95 0 -4.08 -30.09 54.95 -2.04
6.12 0.8925 -60.05 -9.053 -20.02 23.97 -7.013 -8.033 -12.11 -27.03 33.92 35.96 5.993 2.933 -24.1 55.97 7.905
6.125 12.88 -28.05 5.993 -3.06 35.96 12.88 5.993 5.993 -18.11 24.99 45.9 20.91 13.9 -16.07 48.96 15.94
6.13 16.96 -4.08 20.91 4.973 30.98 28.94 22.95 22.95 -4.08 12.88 46.92 32.9 24.99 -12.11 40.93 19.89
6.135 14.92 4.973 27.92 12.88 15.94 38 34.94 35.96 2.933 1.913 41.95 38.89 25.88 -13.01 28.94 19
6.14 16.96 17.98 35.96 22.95 7.905 46.92 47.94 48.96 15.94 -3.06 41.95 43.99 25.88 -10.07 23.97 19
6.145 24.99 30.98 46.92 30.98 6.885 60.95 62.99 66.94 22.95 -1.02 42.97 46.92 30.98 -4.08 22.95 22.95
6.15 34.94 40.93 56.99 33.92 9.945 73.95 76.88 78.92 19.89 7.905 40.93 47.94 35.96 0 19.89 19
6.155 28.94 42.97 61.97 26.9 8.925 74.97 79.94 77.9 12.88 8.925 32.9 42.97 29.96 1.913 7.905 15.94
6.16 28.94 51.89 67.96 21.93 12.88 71.91 82.88 81.98 8.925 4.973 24.99 40.93 28.94 4.973 -1.02 14.92
6.165 24.99 60.95 74.97 15.94 16.96 63.88 85.94 82.88 14.92 -1.02 17.98 38.89 26.9 14.92 -2.04 17.98
6.17 28.94 62.99 77.9 16.96 19 55.97 77.9 79.94 21.93 -5.1 3.953 31.88 24.99 19 -14.03 14.92
6.175 28.94 57.89 75.99 23.97 19 45.9 72.93 79.94 28.94 -14.03 0.8925 26.9 20.91 19 -28.05 8.925
6.18 40.93 55.97 79.94 40.93 24.99 45.9 75.99 86.96 38.89 -15.05 0.8925 28.94 26.9 23.97 -28.05 10.97
6.185 54.95 58.91 89.89 60.95 35.96 55.97 86.96 96.9 46.92 -5.1 13.9 39.91 43.99 28.94 -13.01 16.96
6.19 58.91 57.89 89 66.94 41.95 64.9 89.89 101 48.96 4.973 30.98 49.98 55.97 25.88 0.8925 22.95
6.195 48.96 48.96 75.99 50.87 38 61.97 82.88 86.96 40.93 15.94 43.99 51.89 57.89 22.95 19.89 26.9
6.2 36.98 35.96 59.93 32.9 34.94 55.97 67.96 66.94 32.9 27.92 51.89 42.97 50.87 21.93 44.88 36.98
6.205 26.9 21.93 47.94 21.93 30.98 43.99 42.97 47.94 26.9 32.9 55.97 32.9 40.93 24.99 68.98 44.88
6.21 16.96 4.973 31.88 14.92 28.94 29.96 21.93 27.92 25.88 31.88 43.99 15.94 22.95 26.9 80.96 46.92
6.215 8.925 -2.04 20.91 17.98 22.95 15.94 5.993 14.92 20.91 24.99 33.92 -1.02 6.885 24.99 82.88 41.95
6.22 10.97 0.8925 23.97 25.88 24.99 15.94 4.973 15.94 19 22.95 26.9 -4.08 0.8925 22.95 78.92 32.9
6.225 14.92 6.885 31.88 30.98 26.9 22.95 17.98 17.98 19 24.99 28.94 0 0 22.95 71.91 25.88
6.23 12.88 14.92 34.94 23.97 19.89 23.97 20.91 19 15.94 19.89 22.95 -3.06 1.913 20.91 55.97 12.88
6.235 2.933 8.925 20.91 8.925 4.973 10.97 10.97 4.973 12.88 8.925 10.97 -8.033 -4.08 14.92 28.94 0.8925
6.24 -9.053 0 1.913 -1.02 0.8925 -1.02 -1.02 -4.08 9.945 0.8925 1.913 -15.05 -13.01 12.88 9.945 -2.04
6.245 -9.053 -4.08 -5.1 -1.02 -1.02 -5.1 -16.07 -15.05 8.925 -6.12 -1.02 -22.06 -15.05 9.945 0 -6.12
6.25 -5.1 -10.07 -16.07 -1.02 1.913 -12.11 -32 -28.05 4.973 -10.07 -12.11 -30.09 -24.1 6.885 -12.11 -15.05
6.255 0.8925 -10.07 -23.08 1.913 1.913 -18.11 -39.02 -39.02 1.913 -10.07 -23.08 -36.08 -33.02 0.8925 -24.1 -19.13
6.26 8.925 0 -11.09 0 1.913 -15.05 -32 -38.12 -1.02 -5.1 -25.12 -31.11 -34.04 0.8925 -31.11 -19.13
6.265 22.95 10.97 0 2.933 4.973 -4.08 -16.07 -22.06 -1.02 1.913 -20.02 -18.11 -20.02 10.97 -32 -11.09
6.27 24.99 15.94 0.8925 4.973 3.953 -1.02 -4.08 -11.09 7.905 -1.02 -13.01 0.8925 -5.1 19.89 -37.1 0.8925
6.275 8.925 4.973 -3.06 5.993 -4.08 -8.033 0 -4.08 13.9 -11.09 -10.07 9.945 3.953 25.88 -35.06 10.97
6.28 -1.02 -4.08 -12.11 6.885 -12.11 -16.07 -6.12 -6.12 19 -20.02 -8.033 20.91 14.92 26.9 -32 23.97
6.285 -17.09 -17.09 -18.11 8.925 -18.11 -21.04 -15.05 -9.053 23.97 -23.08 -2.04 25.88 20.91 31.88 -19.13 38.89
6.29 -33.02 -27.03 -21.04 8.925 -26.01 -29.07 -28.05 -25.12 15.94 -27.03 -4.08 13.9 13.9 23.97 -13.01 39.91
6.295 -43.1 -33.02 -29.07 3.953 -29.07 -37.1 -41.06 -43.1 5.993 -23.08 -11.09 0.8925 0 15.94 -3.06 31.88
6.3 -37.1 -25.12 -23.08 3.953 -20.02 -31.11 -42.08 -45.01 -1.02 -8.033 -4.08 -8.033 -2.04 16.96 12.88 27.92
6.305 -19.13 -12.11 -16.07 3.953 -5.1 -20.02 -31.11 -34.04 0.8925 9.945 7.905 -5.1 0.8925 19.89 39.91 26.9
6.31 -7.013 -11.09 -15.05 0 3.953 -11.09 -19.13 -23.08 -9.053 25.88 21.93 -2.04 -2.04 15.94 59.93 19.89
6.315 -5.1 -15.05 -17.09 -3.06 5.993 -7.013 -7.013 -11.09 -19.13 31.88 29.96 9.945 1.913 7.905 67.96 11.99
6.32 -3.06 -15.05 -7.013 -5.1 4.973 -2.04 6.885 0 -22.06 32.9 38 25.88 11.99 7.905 67.96 7.905
6.325 -5.1 -6.12 4.973 1.913 1.913 8.925 25.88 19 -13.01 27.92 38.89 38 17.98 8.925 56.99 4.973
6.33 -11.09 0 21.93 7.905 -1.02 11.99 35.96 27.92 -3.06 11.99 33.92 43.99 21.93 7.905 38 0.8925
6.335 -19.13 7.905 28.94 15.94 -10.07 7.905 34.94 22.95 0.8925 0 20.91 36.98 15.94 7.905 19.89 -7.013
6.34 -21.04 6.885 31.88 19 -9.053 1.913 25.88 15.94 7.905 -9.053 11.99 25.88 6.885 7.905 9.945 -7.013
6.345 -15.05 3.953 24.99 19.89 -9.053 -1.02 19.89 12.88 11.99 -13.01 8.925 19.89 0 4.973 8.925 -8.033
6.35 -13.01 1.913 19.89 14.92 -1.02 0 21.93 8.925 11.99 -7.013 6.885 13.9 0 0.8925 0 -11.09
6.355 -9.053 -1.02 24.99 6.885 -2.04 6.885 26.9 16.96 3.953 -8.033 4.973 13.9 0.8925 -8.033 -7.013 -13.01
6.36 2.933 14.92 44.88 14.92 -1.02 26.9 48.96 40.93 6.885 -8.033 10.97 26.9 6.885 -8.033 -14.03 -8.033
6.365 16.96 44.88 70 32.9 7.905 47.94 75.99 72.93 17.98 -7.013 16.96 41.95 22.95 -1.02 -25.12 -3.06
6.37 20.91 61.97 87.98 47.94 7.905 55.97 85.94 89 32.9 -13.01 11.99 52.91 33.92 7.905 -33.02 -2.04
6.375 6.885 54.95 76.88 48.96 2.933 38.89 74.97 76.88 36.98 -24.1 -1.02 44.88 28.94 14.92 -46.03 -2.04
6.38 -5.1 36.98 57.89 42.97 1.913 15.94 47.94 52.91 40.93 -31.11 -9.053 30.98 19 23.97 -46.03 0
6.385 -11.09 14.92 36.98 36.98 -1.02 1.913 21.93 23.97 41.95 -32 -11.09 12.88 8.925 28.94 -41.06 -2.04
