    T[sec] Fp1 Fp2  F7  F3  F4  F8  T3  C3  C4  T4  T5  P3  P4  T6  O1  O2
41 362.2 362.2 362.2 362.2 362.2 362.2 362.2 362.2 362.2 362.2 362.2 362.2 362.2 362.2 362.2 362.2
0.625 21.93 36.96 17.86 47.92 1.945 -13.09 -51.11 -35.02 -147.1 -147.1 -91.07 -149.1 -201.1 -69.15 -51.11 -33.07
0.63 -7.074 36.96 20.87 40.85 -11.14 -25.11 -42.09 -23.17 -117.1 -119 -50.05 -112.1 -148 -59.07 -10.08 9.903
0.635 -34.13 28.83 18.92 27.94 -17.15 -21.04 -25.11 -7.074 -97.09 -86.12 -7.074 -69.15 -109.1 -56.06 22.99 26
0.64 -39.08 20.87 17.86 13.97 -17.15 -9.019 0.8842 0 -77.1 -47.04 21.93 -27.06 -81.17 -45.1 53.94 26
0.645 -20.16 12.91 14.85 2.83 0 6.897 22.99 12.91 -49.16 -8.135 36.96 19.98 -50.05 -30.06 82.94 19.98
0.65 0.8842 2.83 8.842 1.945 12.91 22.99 44.92 19.98 -14.15 15.92 35.9 65.96 -12.03 -13.09 101.9 18.92
0.655 21.93 -15.03 -2.122 -5.128 23.87 29.89 51.99 21.93 15.92 41.91 33.95 111.9 26 7.958 115.8 29.89
0.66 33.95 -29 -7.074 -14.15 26.88 30.95 46.86 18.92 50.93 59.95 43.86 150.8 75.87 36.96 127 52.88
0.665 27.94 -37.14 -15.03 -28.12 20.87 24.94 30.95 14.85 75.87 77.99 55 179.9 116.9 62.96 130 75.87
0.67 11.85 -37.14 -19.1 -45.1 7.958 13.97 11.85 9.903 85.95 83.82 61.9 197.9 147.8 83.82 127.9 93.9
0.675 1.945 -27.06 -15.03 -54.11 -2.122 3.891 6.897 13.97 84.89 86.83 55 205 165 93.9 119.9 101
0.68 -8.135 -15.03 -7.074 -51.11 -3.006 0.8842 9.903 19.98 66.85 73.92 38.91 199.8 156 89.84 98.86 92.84
0.685 -15.03 -9.019 0.8842 -41.03 -7.074 -5.128 19.98 29.89 43.86 53.94 23.87 177.9 133.9 73.92 73.92 71.98
0.69 -20.16 -5.128 0.8842 -29 -11.14 -9.019 27.94 38.91 19.98 37.84 20.87 147.8 104.9 62.96 48.99 51.99
0.695 -24.05 -5.128 -5.128 -19.1 -13.09 -5.128 27.94 38.91 -1.061 26.88 24.94 101 73.92 56.94 16.98 28.83
0.7 -25.11 -3.006 -13.09 -13.09 -13.09 -2.122 21.93 26 -15.03 23.87 29.89 47.92 47.92 55.88 -9.019 3.891
0.705 -15.03 -1.061 -13.09 -9.019 -11.14 7.958 13.97 2.83 -28.12 20.87 19.98 -1.061 27.94 58.89 -44.03 -10.08
0.71 -3.006 4.952 -7.074 -5.128 -7.074 13.97 5.836 -25.11 -44.03 14.85 0.8842 -40.14 2.83 53.94 -81.17 -26.17
0.715 1.945 8.842 0 -1.061 -7.074 11.85 0 -59.07 -65.08 -2.122 -31.12 -81.17 -23.17 47.92 -113 -33.07
0.72 3.891 10.96 9.903 -2.122 -7.074 7.958 -5.128 -87.01 -83.12 -19.1 -57.12 -115.1 -50.05 35.9 -139.2 -27.06
0.725 0 10.96 13.97 5.836 -5.128 1.945 -23.17 -103.1 -91.07 -39.08 -71.09 -145 -74.1 26 -149.1 -11.14
0.73 -1.061 14.85 9.903 17.86 -1.061 1.945 -43.15 -99.03 -89.13 -49.16 -75.16 -169.1 -79.05 13.97 -143.1 5.836
0.735 -1.061 22.99 1.945 31.83 1.945 5.836 -57.12 -77.1 -71.09 -43.15 -73.04 -177 -63.13 3.891 -119 29.89
0.74 1.945 30.95 0.8842 45.98 11.85 15.92 -57.12 -45.1 -41.03 -21.04 -67.02 -167.1 -29 -2.122 -79.05 49.87
0.745 11.85 30.95 -5.128 51.99 17.86 21.93 -43.15 -13.09 -9.019 1.945 -61.01 -137.1 7.958 -2.122 -33.07 61.9
0.75 13.97 20.87 -7.074 43.86 15.92 23.87 -21.04 1.945 9.903 19.98 -51.11 -99.03 41.91 3.891 3.891 61.9
0.755 5.836 0.8842 -7.074 23.87 5.836 17.86 0.8842 5.836 21.93 23.87 -35.02 -61.01 57.83 7.958 33.95 53.94
0.76 -1.061 -13.09 -7.074 0 -1.061 9.903 13.97 -2.122 15.92 15.92 -13.09 -29 55.88 11.85 51.99 39.97
0.765 -15.03 -23.17 -5.128 -15.03 -15.03 -2.122 26 -11.14 -2.122 3.891 5.836 -3.006 43.86 11.85 61.9 23.87
0.77 -21.04 -25.11 -7.074 -27.06 -25.11 -7.074 29.89 -21.04 -19.1 0 29.89 17.86 27.94 9.903 67.91 7.958
0.775 -23.17 -25.11 -13.09 -36.08 -33.07 -15.03 27.94 -31.12 -31.12 6.897 51.99 39.97 13.97 11.85 73.92 -1.061
0.78 -27.06 -31.12 -23.17 -51.11 -39.08 -21.04 15.92 -43.15 -35.02 9.903 67.91 59.95 -2.122 17.86 73.92 -19.1
0.785 -35.02 -41.03 -31.12 -64.02 -43.15 -23.17 1.945 -61.01 -33.07 6.897 74.98 69.85 -14.15 21.93 65.96 -42.09
0.79 -45.1 -53.05 -35.02 -76.04 -45.1 -23.17 -1.061 -71.09 -29 -4.067 66.85 72.86 -32.01 21.93 49.87 -66.14
0.795 -53.05 -55.18 -33.07 -73.04 -43.15 -19.1 0.8842 -69.15 -25.11 -23.17 45.98 65.96 -45.1 15.92 26 -79.05
0.8 -49.16 -47.04 -23.17 -54.11 -37.14 -13.09 11.85 -47.04 -21.04 -26.17 22.99 66.85 -32.01 11.85 3.891 -70.03
0.805 -35.02 -29 -13.09 -20.16 -25.11 -2.122 33.95 -5.128 -11.14 -8.135 1.945 68.97 -4.067 15.92 -7.074 -46.16
0.81 -13.09 -11.14 -3.006 9.903 -7.074 7.958 53.94 33.95 3.891 23.87 -17.15 77.99 35.9 29.89 -21.04 -7.074
0.815 3.891 2.83 0 37.84 11.85 28.83 60.83 71.98 31.83 69.85 -17.15 88.95 82.94 51.99 -31.12 21.93
0.82 23.87 10.96 5.836 55.88 37.84 52.88 56.94 93.9 65.96 104.9 -9.019 94.97 119.9 67.91 -39.08 43.86
0.825 37.84 20.87 9.903 67.91 59.95 67.91 47.92 99.92 95.85 121.8 -1.061 89.84 130 75.87 -47.04 47.92
0.83 47.92 28.83 15.92 79.93 76.93 70.91 40.85 95.85 110.9 113.9 0.8842 77.99 124.9 65.96 -53.05 50.93
0.835 55.88 40.85 22.99 90.9 76.93 63.84 34.84 89.84 104.9 82.94 -3.006 56.94 98.86 47.92 -51.11 44.92
0.84 53.94 48.99 23.87 95.85 65.96 39.97 27.94 81.88 83.82 37.84 -29 27.94 57.83 23.87 -47.04 39.97
0.845 43.86 48.99 24.94 91.96 47.92 15.92 12.91 67.91 57.83 -5.128 -55.18 1.945 12.91 4.952 -40.14 38.91
0.85 23.87 34.84 9.903 69.85 26 -2.122 -12.03 50.93 30.95 -49.16 -75.16 -21.04 -23.17 1.945 -29 36.96
0.855 1.945 12.91 -6.013 39.97 3.891 -18.04 -42.09 32.89 17.86 -72.15 -82.06 -37.14 -46.16 0 -15.03 43.86
0.86 -13.09 -3.006 -29 11.85 -1.061 -24.05 -62.07 18.92 16.98 -73.04 -67.02 -39.08 -43.15 14.85 1.945 46.86
0.865 -27.06 -17.15 -42.09 0 -7.074 -23.17 -62.07 15.92 29.89 -45.1 -47.04 -27.06 -20.16 30.95 22.99 46.86
0.87 -27.06 -13.09 -39.08 7.958 -9.019 -15.03 -35.02 29.89 49.87 0.8842 -29 -5.128 1.945 39.97 43.86 27.94
0.875 -15.03 0.8842 -18.04 32.89 1.945 1.945 2.83 51.99 72.86 46.86 -11.14 14.85 20.87 33.95 59.95 -2.122
0.88 -1.061 22.99 0.8842 57.83 14.85 18.92 38.91 71.98 92.84 87.89 -2.122 29.89 24.94 23.87 59.95 -48.1
0.885 11.85 34.84 9.903 63.84 33.95 35.9 57.83 79.93 97.97 110 3.891 39.97 17.86 13.97 47.92 -85.06
0.89 26 32.89 9.903 53.94 47.92 48.99 58.89 73.92 87.89 116.9 21.93 42.97 19.98 17.86 35.9 -89.13
0.895 31.83 20.87 1.945 33.95 51.99 52.88 48.99 57.83 67.91 110 43.86 48.99 30.95 37.84 27.94 -59.07
0.9 27.94 6.897 0.8842 13.97 41.91 41.91 37.84 41.91 47.92 93.9 63.84 59.95 57.83 67.91 31.83 -5.128
0.905 15.92 2.83 0.8842 -1.061 21.93 26.88 33.95 27.94 31.83 72.86 78.87 74.98 88.95 91.96 41.91 46.86
0.91 -2.122 -5.128 -1.061 -10.08 0.8842 7.958 27.94 17.86 21.93 44.92 80.99 84.89 107 95.85 47.92 74.98
0.915 -15.03 -11.14 -15.03 -27.06 -25.11 -5.128 15.92 5.836 19.98 13.97 71.98 81.88 101.9 77.99 43.86 71.98
0.92 -31.12 -21.04 -35.02 -46.16 -45.1 -19.1 0.8842 -3.006 19.98 1.945 62.96 64.9 84.89 47.92 26 56.94
0.925 -41.03 -33.07 -49.16 -62.07 -53.05 -23.17 -17.15 -15.03 23.87 -1.061 58.89 41.91 70.91 27.94 7.958 44.92
0.93 -41.03 -37.14 -47.04 -61.01 -47.04 -17.15 -19.1 -11.14 33.95 17.86 57.83 19.98 67.91 27.94 -2.122 51.99
0.935 -29 -25.11 -25.11 -36.08 -25.11 -3.006 -3.006 3.891 55.88 55 51.99 13.97 83.82 45.98 1.945 71.98
0.94 -11.14 -3.006 3.891 0.8842 0.8842 9.903 17.86 33.95 85.95 83.82 39.97 17.86 101.9 69.85 11.85 89.84
0.945 3.891 16.98 27.94 27.94 21.93 23.87 29.89 57.83 107.9 97.97 17.86 19.98 107.9 81.88 19.98 87.89
0.95 19.98 30.95 29.89 41.91 33.95 31.83 15.92 59.95 105.9 79.93 -9.019 0 83.82 71.98 11.85 59.95
0.955 27.94 28.83 9.903 35.9 33.95 31.83 -21.04 31.83 71.98 39.97 -39.08 -41.03 31.83 45.98 -1.061 13.97
0.96 29.89 20.87 -9.019 17.86 23.87 26 -67.02 -9.019 15.92 -5.128 -57.12 -99.03 -35.02 13.97 -25.11 -29
0.965 27.94 12.91 -23.17 3.891 11.85 19.98 -99.03 -49.16 -35.02 -47.04 -61.01 -149.1 -105 -11.14 -43.15 -67.02
0.97 21.93 10.96 -19.1 0.8842 3.891 13.97 -99.03 -69.15 -71.09 -73.04 -51.11 -169.1 -159.2 -35.02 -51.11 -95.14
0.975 15.92 12.91 -3.006 -2.122 0 7.958 -73.04 -61.01 -79.05 -83.12 -29 -155.1 -189 -57.12 -49.16 -115.1
0.98 11.85 12.91 11.85 3.891 1.945 1.945 -31.12 -31.12 -67.02 -81.17 -7.074 -111.1 -191.2 -77.1 -41.03 -133.2
0.985 7.958 10.96 26 11.85 3.891 -2.122 5.836 3.891 -45.1 -67.02 9.903 -57.12 -167.1 -95.14 -31.12 -151
0.99 9.903 10.96 31.83 19.98 7.958 -2.122 37.84 41.91 -21.04 -47.04 27.94 -9.019 -129.1 -105 -17.15 -159.2
0.995 11.85 14.85 31.83 26 13.97 5.836 57.83 69.85 -1.061 -21.04 45.98 19.98 -85.06 -103.1 0 -153.1
1 15.92 24.94 29.89 29.89 19.98 17.86 65.96 83.82 11.85 1.945 57.83 41.91 -45.1 -85.06 27.94 -127.2
1.005 17.86 32.89 26 26 21.93 26 67.91 77.99 23.87 23.87 55.88 53.94 -15.03 -57.12 59.95 -85.06
1.01 13.97 32.89 19.98 13.97 17.86 26 59.95 57.83 26 35.9 37.84 65.96 5.836 -27.06 87.89 -33.07
1.015 5.836 24.94 5.836 -2.122 7.958 15.92 41.91 30.95 19.98 35.9 0 79.93 31.83 1.945 101.9 18.92
1.02 0.8842 8.842 -13.09 -15.03 -7.074 0.8842 15.92 6.897 7.958 33.95 -39.08 95.85 63.84 20.87 101.9 68.97
1.025 -11.14 -7.074 -41.03 -33.07 -27.06 -19.1 -9.019 -7.074 1.945 35.9 -73.04 107.9 101.9 41.91 87.89 113.9
1.03 -25.11 -23.17 -65.08 -49.16 -45.1 -35.02 -33.07 -14.15 5.836 43.86 -81.17 110 139 62.96 61.9 142.9
1.035 -37.14 -37.14 -77.1 -61.01 -55.18 -41.03 -41.03 -12.03 21.93 55.88 -55.18 105.9 160.9 78.87 33.95 159
1.04 -47.04 -45.1 -67.02 -67.02 -55.18 -37.14 -29 -7.074 45.98 65.96 -7.074 97.97 162 89.84 5.836 153.9
1.045 -49.16 -47.04 -45.1 -65.08 -49.16 -30.06 -1.061 0.8842 68.97 70.91 39.97 93.9 147 95.85 -6.013 139.9
1.05 -43.15 -39.08 -17.15 -53.05 -41.03 -24.05 26 1.945 78.87 64.9 79.93 89.84 121 89.84 -10.08 111.9
1.055 -33.07 -23.17 0 -29 -33.07 -21.04 39.97 9.903 73.92 51.99 91.96 79.93 89.84 65.96 -5.128 71.98
1.06 -21.04 2.83 11.85 0 -27.06 -16.09 31.83 10.96 56.94 28.83 71.98 51.99 53.94 34.84 4.952 24.94
1.065 -9.019 24.94 17.86 22.99 -20.16 -10.08 5.836 1.945 22.99 0 32.89 3.891 1.945 -2.122 10.96 -28.12
1.07 -3.006 44.92 23.87 43.86 -7.074 -1.061 -19.1 -11.14 -15.03 -39.08 -11.14 -53.05 -59.07 -45.1 5.836 -91.07
1.075 0.8842 55 26 58.89 8.842 3.891 -34.13 -32.01 -57.12 -79.05 -46.16 -104.2 -132.1 -82.06 1.945 -144.1
1.08 1.945 56.94 29.89 62.96 24.94 5.836 -32.01 -46.16 -95.14 -111.1 -62.07 -130.2 -197 -111.1 -3.006 -183
1.085 9.903 52.88 31.83 51.99 33.95 3.891 -21.04 -47.04 -117.1 -125 -61.01 -123.1 -231.1 -129.1 -3.006 -191.2
1.09 13.97 44.92 26 32.89 31.83 0 -5.128 -32.01 -111.1 -115.1 -45.1 -83.12 -223 -132.1 0.8842 -176.1
1.095 15.92 34.84 15.92 7.958 17.86 -9.019 1.945 -8.135 -83.12 -87.01 -28.12 -38.02 -176.1 -120.1 1.945 -145
1.1 11.85 20.87 3.891 -8.135 0.8842 -17.15 8.842 9.903 -37.14 -43.15 -17.15 -5.128 -106.1 -94.08 -8.135 -103.1
1.105 -2.122 4.952 -1.061 -19.1 -11.14 -19.1 13.97 16.98 3.891 -5.128 -12.03 4.952 -28.12 -52.17 -22.11 -57.12
1.11 -13.09 -7.074 -9.019 -20.16 -19.1 -20.16 17.86 14.85 37.84 26 -7.074 9.903 31.83 -8.135 -33.07 -8.135
1.115 -25.11 -25.11 -15.03 -19.1 -21.04 -21.04 17.86 1.945 53.94 51.99 1.945 11.85 83.82 21.93 -29 35.9
1.12 -37.14 -35.02 -23.17 -24.05 -20.16 -23.17 12.91 -8.135 55.88 59.95 20.87 20.87 115.8 45.98 -19.1 77.99
1.125 -43.15 -43.15 -29 -40.14 -28.12 -27.06 2.83 -18.04 39.97 49.87 38.91 32.89 124.9 56.94 -5.128 108.9
1.13 -49.16 -49.16 -37.14 -59.07 -43.15 -37.14 -3.006 -27.06 11.85 26 51.99 37.84 118 59.95 -1.061 115.8
1.135 -53.05 -53.05 -37.14 -72.15 -56.06 -40.14 -9.019 -31.12 -4.067 0.8842 60.83 35.9 97.97 64.9 -1.061 108.9
1.14 -55.18 -51.11 -29 -72.15 -65.08 -44.03 -11.14 -38.02 -20.16 -12.03 63.84 33.95 81.88 68.97 6.897 98.86
1.145 -53.05 -47.04 -13.09 -55.18 -63.13 -39.08 0.8842 -37.14 -23.17 -11.14 65.96 35.9 67.91 69.85 26 83.82
1.15 -45.1 -31.12 1.945 -25.11 -43.15 -22.11 7.958 -23.17 -4.067 2.83 63.84 49.87 68.97 63.84 48.99 69.85
1.155 -27.06 -7.074 21.93 7.958 -11.14 1.945 23.87 5.836 26.88 30.95 51.99 71.98 76.93 43.86 64.9 43.86
1.16 -2.122 16.98 35.9 47.92 23.87 26 37.84 41.91 63.84 53.94 23.87 89.84 75.87 11.85 59.95 -2.122
1.165 31.83 40.85 43.86 75.87 57.83 49.87 39.97 72.86 95.85 63.84 -9.019 83.82 66.85 -8.135 33.95 -52.17
1.17 57.83 52.88 41.91 83.82 71.98 57.83 27.94 70.91 97.97 45.98 -51.11 49.87 32.89 -24.05 0 -100.1
1.175 63.84 52.88 31.83 73.92 61.9 43.86 3.891 31.83 65.96 7.958 -77.1 -1.061 -9.019 -27.06 -25.11 -119
1.18 43.86 36.96 15.92 43.86 26 11.85 -21.04 -20.16 3.891 -41.03 -79.05 -61.01 -63.13 -20.16 -37.14 -108.1
1.185 3.891 14.85 0 3.891 -17.15 -25.11 -47.04 -76.04 -75.16 -103.1 -53.05 -107.2 -113 -20.16 -33.07 -72.15
1.19 -35.02 -7.074 -11.14 -29 -63.13 -65.08 -59.07 -109.1 -161.1 -157 -13.09 -123.1 -155.1 -31.12 -19.1 -37.14
1.195 -71.09 -27.06 -21.04 -53.05 -95.14 -89.13 -55.18 -105 -227.1 -195.1 17.86 -113 -181.1 -49.16 -5.128 -13.09
1.2 -83.12 -41.03 -25.11 -61.01 -105 -97.09 -41.03 -73.04 -251.1 -203 39.97 -81.17 -193.1 -63.13 1.945 0.8842
1.205 -77.1 -45.1 -23.17 -51.11 -95.14 -91.07 -19.1 -25.11 -229 -179.1 43.86 -39.08 -181.1 -63.13 19.98 7.958
1.21 -57.12 -43.15 -17.15 -33.07 -73.04 -73.04 -2.122 13.97 -169.1 -129.1 39.97 -2.122 -143.1 -45.1 37.84 26
1.215 -37.14 -37.14 -7.074 -13.09 -49.16 -53.05 15.92 41.91 -87.01 -71.09 35.9 35.9 -85.06 -15.03 53.94 47.92
1.22 -21.04 -33.07 -1.061 -3.006 -29 -31.12 26 53.94 -9.019 -19.1 37.84 59.95 -21.04 5.836 51.99 61.9
1.225 -9.019 -29 0.8842 -5.128 -13.09 -13.09 26 45.98 41.91 13.97 39.97 67.91 29.89 17.86 27.94 61.9
1.23 -1.061 -25.11 -1.061 -13.09 -3.006 0 11.85 27.94 71.98 35.9 33.95 57.83 67.91 19.98 -5.128 43.86
1.235 1.945 -23.17 -9.019 -25.11 1.945 11.85 -9.019 1.945 79.93 49.87 13.97 33.95 87.89 17.86 -43.15 26
1.24 7.958 -19.1 -17.15 -33.07 9.903 15.92 -39.08 -15.03 77.99 57.83 -7.074 7.958 99.92 27.94 -65.08 15.92
1.245 1.945 -17.15 -23.17 -35.02 7.958 11.85 -57.12 -27.06 77.99 63.84 -27.06 -3.006 110 47.92 -63.13 23.87
1.25 -5.128 -17.15 -25.11 -31.12 0.8842 -2.122 -61.01 -21.04 77.99 61.9 -37.14 -1.061 119.9 71.98 -46.16 41.91
1.255 -23.17 -19.1 -25.11 -25.11 -19.1 -11.14 -47.04 -5.128 79.93 55.88 -37.14 7.958 127.9 91.96 -31.12 53.94
1.26 -35.02 -21.04 -23.17 -17.15 -33.07 -21.04 -27.06 12.91 79.93 47.92 -31.12 26 127.9 95.85 -28.12 52.88
1.265 -33.07 -19.1 -21.04 -5.128 -35.02 -17.15 -13.09 30.95 80.99 44.92 -29 33.95 119.9 85.95 -40.14 32.89
1.27 -15.03 -7.074 -15.03 7.958 -17.15 0.8842 -11.14 31.83 83.82 49.87 -25.11 23.87 105.9 69.85 -55.18 5.836
1.275 7.958 6.897 -5.128 26 9.903 18.92 -21.04 18.92 92.84 60.83 -15.03 0 91.96 53.94 -62.07 -8.135
1.28 35.9 26.88 3.891 37.84 39.97 34.84 -31.12 -1.061 92.84 66.85 0 -23.17 75.87 37.84 -55.18 -12.03
1.285 51.99 40.85 13.97 43.86 57.83 39.97 -35.02 -19.1 79.93 57.83 23.87 -45.1 57.83 23.87 -33.07 -3.006
1.29 49.87 40.85 13.97 36.96 56.94 34.84 -29 -34.13 48.99 32.89 44.92 -52.17 33.95 5.836 -1.061 15.92
1.295 33.95 24.94 1.945 18.92 40.85 20.87 -19.1 -39.08 1.945 -5.128 44.92 -46.16 1.945 -7.074 26.88 33.95
1.3 13.97 -1.061 -13.09 -1.061 13.97 1.945 -13.09 -41.03 -59.07 -61.01 27.94 -37.14 -39.08 -27.06 45.98 41.91
1.305 -1.061 -15.03 -35.02 -22.11 -4.067 -10.08 -13.09 -37.14 -119 -115.1 2.83 -32.01 -87.01 -42.09 51.99 36.96
1.31 -13.09 -23.17 -43.15 -32.01 -18.04 -21.04 -15.03 -26.17 -156.2 -150.1 -14.15 -38.02 -133.2 -48.1 40.85 24.94
1.315 -15.03 -21.04 -37.14 -33.07 -25.11 -29 -19.1 -17.15 -163.1 -165.2 -23.17 -55.18 -163.1 -49.16 19.98 11.85
1.32 -17.15 -7.074 -27.06 -21.04 -19.1 -28.12 -21.04 0.8842 -135.1 -145 -21.04 -69.15 -167.1 -40.14 -1.061 -1.061
1.325 -15.03 0.8842 -21.04 -11.14 -9.019 -18.04 -19.1 16.98 -84 -96.03 -23.17 -72.15 -147.1 -29 -22.11 -11.14
1.33 -11.14 -1.061 -23.17 -5.128 0 -3.006 -19.1 33.95 -23.17 -37.14 -25.11 -63.13 -105 -19.1 -47.04 -31.12
1.335 -2.122 -9.019 -28.12 -5.128 15.92 12.91 -16.09 46.86 26 16.98 -35.02 -46.16 -61.01 -12.03 -72.15 -56.06
1.34 2.83 -15.03 -26.17 -8.135 29.89 31.83 -10.08 52.88 60.83 56.94 -40.14 -34.13 -22.11 -7.074 -97.09 -78.17
1.345 12.91 -7.074 -9.019 -8.135 41.91 44.92 -1.061 53.94 75.87 73.92 -37.14 -24.05 0.8842 1.945 -115.1 -86.12
1.35 22.99 2.83 10.96 0 45.98 47.92 20.87 56.94 72.86 70.91 -18.04 -18.04 20.87 7.958 -117.1 -68.09
1.355 26.88 20.87 30.95 9.903 45.98 38.91 40.85 62.96 69.85 62.96 -2.122 -14.15 41.91 24.94 -106.1 -26.17
1.36 26 30.95 35.9 21.93 35.9 23.87 47.92 63.84 69.85 55.88 9.903 -3.006 69.85 41.91 -77.1 21.93
1.365 11.85 30.95 19.98 19.98 23.87 2.83 37.84 56.94 74.98 55 11.85 6.897 97.97 57.83 -40.14 71.98
1.37 -1.061 12.91 -3.006 1.945 1.945 -12.03 9.903 37.84 75.87 49.87 3.891 19.98 118 66.85 -10.08 107
1.375 -27.06 -11.14 -29 -31.12 -19.1 -31.12 -19.1 13.97 65.96 39.97 -13.09 23.87 125.9 63.84 3.891 119.9
1.38 -45.1 -27.06 -41.03 -54.11 -32.01 -33.07 -45.1 -2.122 55 36.96 -30.06 24.94 115.8 62.96 14.85 121
1.385 -45.1 -31.12 -33.07 -56.06 -32.01 -22.11 -51.11 -9.019 39.97 33.95 -38.02 20.87 97.97 56.94 19.98 110.9
1.39 -27.06 -17.15 -9.019 -35.02 -13.09 0.8842 -29 0.8842 27.94 35.9 -37.14 13.97 75.87 47.92 17.86 95.85
1.395 0 8.842 15.92 0.8842 8.842 22.99 3.891 17.86 15.92 35.9 -24.05 12.91 49.87 31.83 20.87 69.85
1.4 27.94 40.85 39.97 36.96 32.89 38.91 43.86 34.84 0 22.99 -4.067 8.842 19.98 7.958 19.98 29.89
1.405 41.91 60.83 57.83 53.94 41.91 39.97 73.92 41.91 -27.06 0.8842 9.903 5.836 -13.09 -19.1 17.86 -17.15
1.41 39.97 60.83 57.83 47.92 37.84 34.84 81.88 36.96 -60.13 -28.12 23.87 1.945 -51.11 -49.16 15.92 -62.07
1.415 33.95 44.92 47.92 29.89 26 26.88 71.98 24.94 -88.07 -60.13 31.83 0.8842 -83.12 -71.09 8.842 -96.03
1.42 35.9 24.94 29.89 9.903 15.92 21.93 47.92 11.85 -107.2 -91.07 33.95 -9.019 -105 -79.05 -3.006 -119
1.425 43.86 12.91 15.92 0 11.85 17.86 21.93 2.83 -112.1 -114.1 29.89 -25.11 -121.1 -81.17 -22.11 -134
1.43 51.99 10.96 9.903 5.836 9.903 9.903 1.945 4.952 -109.1 -133.2 21.93 -47.04 -135.1 -91.07 -48.1 -156.2
1.435 43.86 18.92 9.903 19.98 5.836 0.8842 -3.006 7.958 -103.1 -147.1 3.891 -73.04 -151 -109.1 -77.1 -189
1.44 17.86 28.83 11.85 31.83 0.8842 -17.15 -3.006 19.98 -91.07 -139.2 -21.04 -93.02 -157 -129.1 -100.1 -219.1
1.445 -9.019 28.83 5.836 35.9 -11.14 -29 -2.122 35.9 -71.09 -107.2 -53.05 -97.09 -145 -137.1 -111.1 -227.1
1.45 -35.02 20.87 -3.006 26 -19.1 -33.07 5.836 49.87 -39.08 -57.12 -79.05 -85.06 -109.1 -117.1 -103.1 -195.1
1.455 -43.15 4.952 -19.1 7.958 -19.1 -27.06 9.903 57.83 0.8842 -1.061 -83.12 -57.12 -53.05 -67.02 -75.16 -125
1.46 -35.02 -11.14 -33.07 -11.14 -17.15 -15.03 5.836 47.92 35.9 35.9 -63.13 -25.11 5.836 -5.128 -35.02 -35.02
1.465 -23.17 -33.07 -41.03 -35.02 -15.03 -5.128 -1.061 19.98 63.84 53.94 -29 -1.061 55.88 47.92 0 43.86
1.47 -17.15 -55.18 -45.1 -57.12 -21.04 -3.006 -23.17 -17.15 71.98 51.99 1.945 5.836 83.82 85.95 33.95 104
1.475 -23.17 -73.04 -49.16 -77.1 -33.07 -9.019 -51.11 -61.01 61.9 39.97 19.98 7.958 91.96 104 55.88 133.9
1.48 -33.07 -85.06 -55.18 -87.01 -45.1 -19.1 -75.16 -91.07 43.86 26 17.86 5.836 87.89 101.9 67.91 139.9
1.485 -43.15 -89.13 -63.13 -93.02 -53.05 -25.11 -89.13 -101.2 27.94 15.92 0 5.836 79.93 91.96 73.92 131.9
1.49 -45.1 -81.17 -63.13 -91.07 -51.11 -29 -85.06 -87.01 17.86 9.903 -19.1 11.85 71.98 75.87 77.99 115.8
1.495 -41.03 -69.15 -53.05 -83.12 -43.15 -27.06 -65.08 -59.07 17.86 3.891 -31.12 19.98 59.95 55.88 81.88 91.96
1.5 -29 -57.12 -37.14 -71.09 -31.12 -23.17 -37.14 -29 19.98 0 -27.06 29.89 43.86 37.84 81.88 65.96
1.505 -13.09 -45.1 -21.04 -57.12 -25.11 -16.09 -11.14 -5.128 21.93 0 -9.019 37.84 23.87 19.98 76.93 41.91
1.51 0 -35.02 -9.019 -45.1 -21.04 -10.08 3.891 5.836 18.92 4.952 9.903 43.86 3.891 9.903 64.9 21.93
1.515 3.891 -25.11 -3.006 -31.12 -19.1 -7.074 15.92 13.97 11.85 5.836 26 41.91 -7.074 3.891 43.86 7.958
1.52 8.842 -11.14 0.8842 -19.1 -10.08 1.945 21.93 18.92 2.83 8.842 26 31.83 -16.09 1.945 10.96 -7.074
1.525 16.98 -1.061 0.8842 -7.074 -1.061 10.96 23.87 18.92 0 4.952 9.903 10.96 -28.12 0.8842 -28.12 -37.14
1.53 26 12.91 0.8842 0 21.93 26 23.87 15.92 -9.019 -3.006 -11.14 -15.03 -45.1 -9.019 -79.05 -73.04
1.535 42.97 22.99 -2.122 11.85 48.99 44.92 19.98 10.96 -16.09 -14.15 -38.02 -52.17 -68.09 -21.04 -128 -109.1
1.54 56.94 28.83 -2.122 21.93 64.9 59.95 9.903 4.952 -22.11 -22.11 -56.06 -90.01 -86.12 -31.12 -167.1 -129.1
1.545 63.84 32.89 0 31.83 73.92 61.9 -2.122 -2.122 -19.1 -23.17 -65.08 -123.1 -95.14 -35.02 -191.2 -125
1.55 61.9 38.91 1.945 41.91 73.92 55.88 -2.122 0 -3.006 -11.14 -56.06 -140.1 -79.05 -27.06 -189 -89.13
1.555 58.89 44.92 11.85 47.92 67.91 46.86 1.945 5.836 9.903 0 -40.14 -136.2 -47.04 -10.08 -164.1 -40.14
1.56 53.94 52.88 21.93 51.99 61.9 41.91 7.958 19.98 37.84 26 -21.04 -115.1 0.8842 5.836 -123.1 1.945
1.565 61.9 64.9 27.94 55 58.89 45.98 24.94 34.84 63.84 55.88 1.945 -71.09 46.86 28.83 -73.04 34.84
1.57 70.91 66.85 26 52.88 62.96 59.95 34.84 41.91 86.83 82.94 13.97 -18.04 89.84 44.92 -19.1 48.99
1.575 77.99 62.96 13.97 47.92 67.91 73.92 33.95 45.98 101.9 101.9 23.87 21.93 118 55.88 19.98 45.98
1.58 81.88 50.93 1.945 43.86 72.86 83.82 22.99 42.97 107.9 111.9 31.83 59.95 130.9 57.83 55 37.84
1.585 75.87 34.84 -15.03 26.88 64.9 76.93 7.958 31.83 101 104.9 34.84 69.85 119.9 52.88 74.98 32.89
1.59 56.94 10.96 -27.06 5.836 45.98 53.94 -2.122 13.97 76.93 80.99 34.84 61.9 97.97 37.84 83.82 31.83
1.595 26 -7.074 -23.17 -14.15 12.91 22.99 -7.074 0.8842 44.92 46.86 24.94 49.87 61.9 22.99 78.87 30.95
1.6 -3.006 -29 -18.04 -36.08 -16.09 -1.061 -4.067 -12.03 5.836 11.85 9.903 37.84 28.83 7.958 70.91 26
1.605 -33.07 -47.04 -13.09 -51.11 -43.15 -29 -2.122 -15.03 -25.11 -17.15 -2.122 35.9 0 0.8842 61.9 13.97
1.61 -52.17 -53.05 -11.14 -56.06 -58 -41.03 8.842 -9.019 -46.16 -32.01 -1.061 50.93 -9.019 -2.122 53.94 -2.122
1.615 -59.07 -49.16 -13.09 -56.06 -64.02 -49.16 20.87 0.8842 -57.12 -27.06 3.891 67.91 -8.135 -2.122 47.92 -28.12
1.62 -57.12 -43.15 -13.09 -51.11 -63.13 -47.04 31.83 15.92 -57.12 -17.15 19.98 83.82 -1.061 0.8842 41.91 -55.18
1.625 -50.05 -29 -5.128 -41.03 -55.18 -36.08 48.99 31.83 -53.05 -3.006 40.85 94.97 -2.122 8.842 26.88 -70.03
1.63 -39.08 -13.09 5.836 -25.11 -43.15 -17.15 62.96 47.92 -37.14 3.891 55 88.95 5.836 26 -1.061 -69.15
1.635 -21.04 4.952 26 -2.122 -21.04 3.891 67.91 55.88 -23.17 11.85 55.88 69.85 7.958 43.86 -45.1 -49.16
1.64 2.83 36.96 45.98 27.94 12.91 37.84 67.91 60.83 -4.067 18.92 40.85 36.96 12.91 55.88 -97.09 -17.15
1.645 38.91 70.91 67.91 59.95 52.88 66.85 61.9 58.89 6.897 26.88 14.85 -2.122 10.96 51.99 -144.1 5.836
1.65 75.87 101 81.88 85.95 87.89 85.95 51.99 49.87 15.92 31.83 -11.14 -45.1 -2.122 31.83 -173.1 21.93
1.655 107 121 89.84 104 108.9 94.97 39.97 32.89 14.85 22.99 -35.02 -78.17 -16.09 5.836 -172.1 23.87
1.66 116.9 124.9 87.89 110 110.9 86.83 21.93 16.98 2.83 0.8842 -49.16 -93.02 -40.14 -17.15 -148 11.85
1.665 104 112.8 69.85 104 93.9 65.96 -1.061 -1.061 -5.128 -25.11 -51.11 -89.13 -57.12 -39.08 -107.2 -3.006
1.67 76.93 88.95 41.91 87.89 67.91 40.85 -37.14 -15.03 -10.08 -52.17 -47.04 -71.09 -53.05 -57.12 -62.07 -25.11
1.675 41.91 62.96 13.97 63.84 41.91 14.85 -69.15 -25.11 -11.14 -63.13 -47.04 -45.1 -39.08 -73.04 -26.17 -47.04
1.68 15.92 36.96 -1.061 39.97 17.86 0.8842 -83.12 -31.12 -7.074 -51.11 -45.1 -17.15 -17.15 -89.13 3.891 -67.02
1.685 0 18.92 -5.128 17.86 3.891 -3.006 -77.1 -31.12 -5.128 -19.1 -37.14 5.836 0.8842 -97.09 43.86 -77.1
1.69 -1.061 8.842 -2.122 3.891 0.8842 0 -51.11 -29 -5.128 9.903 -13.09 35.9 5.836 -89.13 89.84 -75.16
1.695 0.8842 4.952 11.85 -2.122 0.8842 11.85 -19.1 -27.06 -13.09 31.83 23.87 63.84 5.836 -65.08 136 -57.12
1.7 0.8842 0.8842 17.86 -3.006 -2.122 15.92 0 -25.11 -23.17 31.83 69.85 83.82 0 -33.07 171.9 -31.12
1.705 -3.006 -7.074 15.92 -11.14 0.8842 9.903 9.903 -21.04 -35.02 11.85 107.9 97.97 -7.074 -5.128 185.9 -9.019
1.71 -13.09 -17.15 7.958 -23.17 -9.019 -1.061 9.903 -15.03 -49.16 -17.15 124 99.92 -21.04 0 177.9 -1.061
1.715 -23.17 -19.1 3.891 -33.07 -21.04 -17.15 5.836 -9.019 -65.08 -47.04 118 93.9 -39.08 -7.074 151.9 -11.14
1.72 -27.06 -13.09 1.945 -39.08 -33.07 -29 3.891 -5.128 -81.17 -65.08 97.97 85.95 -57.12 -31.12 115.8 -29
1.725 -27.06 -3.006 0 -39.08 -37.14 -33.07 3.891 0.8842 -91.07 -57.12 75.87 73.92 -65.08 -49.16 77.99 -37.14
1.73 -21.04 -1.061 -1.061 -37.14 -37.14 -29 1.945 3.891 -85.06 -29 59.95 61.9 -53.05 -49.16 37.84 -27.06
1.735 -15.03 -1.061 -11.14 -35.02 -33.07 -21.04 0.8842 11.85 -63.13 3.891 45.98 44.92 -21.04 -23.17 -1.061 1.945
1.74 -15.03 -13.09 -21.04 -33.07 -27.06 -13.09 -11.14 17.86 -29 37.84 29.89 22.99 23.87 17.86 -45.1 43.86
1.745 -17.15 -21.04 -23.17 -33.07 -25.11 -5.128 -23.17 15.92 3.891 51.99 5.836 -1.061 67.91 67.91 -85.06 73.92
1.75 -17.15 -19.1 -13.09 -27.06 -25.11 -1.061 -35.02 1.945 27.94 47.92 -17.15 -36.08 89.84 99.92 -113 77.99
1.755 -13.09 -5.128 0.8842 -21.04 -21.04 -2.122 -42.09 -25.11 27.94 27.94 -43.15 -82.06 71.98 99.92 -129.1 53.94
1.76 -3.006 8.842 5.836 -17.15 -11.14 3.891 -51.11 -63.13 1.945 3.891 -67.02 -139.2 19.98 67.91 -135.1 9.903
1.765 5.836 22.99 5.836 -15.03 0.8842 11.85 -58 -101.2 -33.07 -13.09 -87.01 -191.2 -45.1 18.92 -132.1 -27.06
1.77 19.98 26.88 0.8842 -15.03 5.836 15.92 -70.03 -125 -77.1 -35.02 -101.2 -229 -109.1 -24.05 -130.2 -55.18
1.775 27.94 24.94 -9.019 -13.09 9.903 15.92 -85.06 -125 -107.2 -63.13 -109.1 -239.1 -141.1 -55.18 -123.1 -61.01
1.78 27.94 24.94 -10.08 -3.006 5.836 9.903 -94.08 -99.03 -117.1 -90.01 -101.2 -210.1 -139.2 -64.02 -106.1 -50.05
1.785 17.86 30.95 0 7.958 0 0.8842 -87.01 -57.12 -101.2 -114.1 -75.16 -151 -105 -60.13 -78.17 -38.02
1.79 5.836 46.86 15.92 33.95 -2.122 -11.14 -65.08 -1.061 -61.01 -111.1 -37.14 -77.1 -57.12 -55.18 -33.07 -25.11
1.795 -2.122 55 30.95 62.96 7.958 -9.019 -23.17 45.98 -5.128 -74.1 -1.061 -1.061 0 -52.17 19.98 -18.04
1.8 -2.122 56.94 38.91 82.94 26 0 18.92 85.95 45.98 -12.03 36.96 67.91 42.97 -45.1 75.87 -12.03
1.805 9.903 50.93 35.9 85.95 49.87 26 53.94 105.9 89.84 43.86 63.84 125.9 77.99 -31.12 124 -11.14
1.81 27.94 40.85 27.94 78.87 63.84 49.87 71.98 108.9 104 83.82 82.94 170.8 92.84 -6.013 156.9 -11.14
1.815 43.86 30.95 21.93 57.83 61.9 61.9 76.93 96.91 90.9 79.93 90.9 203.9 88.95 12.91 165.9 -23.17
1.82 45.98 22.99 11.85 26 43.86 51.99 75.87 79.93 59.95 55.88 87.89 217.9 65.96 26 151.9 -33.07
1.825 31.83 14.85 5.836 2.83 19.98 31.83 74.98 69.85 30.95 28.83 76.93 218.9 42.97 26.88 121.8 -36.08
1.83 12.91 0.8842 -3.006 -12.03 -1.061 10.96 71.98 58.89 11.85 16.98 51.99 205.8 26.88 21.93 76.93 -22.11
1.835 0 -9.019 -17.15 -21.04 -10.08 -1.061 57.83 47.92 10.96 22.99 26.88 176 28.83 24.94 33.95 4.952
1.84 -10.08 -17.15 -33.07 -26.17 -14.15 0 41.91 30.95 15.92 38.91 7.958 145.9 43.86 39.97 4.952 44.92
1.845 -15.03 -17.15 -39.08 -20.16 -13.09 -5.128 20.87 11.85 20.87 44.92 4.952 114.9 62.96 66.85 0.8842 80.99
1.85 -15.03 -13.09 -29 -13.09 -13.09 -9.019 11.85 -1.061 19.98 41.91 13.97 91.96 77.99 87.89 7.958 99.92
1.855 -19.1 -1.061 -7.074 1.945 -13.09 -19.1 24.94 0 26.88 35.9 32.89 83.82 92.84 92.84 29.89 99.92
1.86 -21.04 0.8842 11.85 20.87 -15.03 -27.06 47.92 4.952 39.97 41.91 46.86 82.94 101 78.87 48.99 91.96
1.865 -15.03 12.91 27.94 43.86 -3.006 -19.1 65.96 21.93 61.9 53.94 45.98 81.88 107.9 51.99 59.95 73.92
1.87 -2.122 30.95 38.91 64.9 11.85 0.8842 74.98 33.95 83.82 68.97 32.89 69.85 108.9 21.93 55.88 50.93
1.875 23.87 50.93 40.85 78.87 31.83 19.98 61.9 27.94 85.95 62.96 10.96 42.97 84.89 -2.122 41.91 20.87
1.88 49.87 64.9 33.95 77.99 47.92 33.95 33.95 3.891 55.88 26 -7.074 -2.122 29.89 -27.06 11.85 -15.03
1.885 55.88 64.9 22.99 65.96 41.91 29.89 0 -23.17 -2.122 -22.11 -25.11 -53.05 -45.1 -52.17 -14.15 -58
1.89 39.97 44.92 2.83 43.86 19.98 7.958 -32.01 -51.11 -69.15 -82.06 -39.08 -110.2 -135.1 -74.1 -44.03 -92.14
1.895 5.836 8.842 -15.03 17.86 -7.074 -15.03 -65.08 -69.15 -131 -125 -47.04 -155.1 -203 -85.06 -65.08 -97.09
1.9 -23.17 -25.11 -33.07 -5.128 -35.02 -39.08 -86.12 -69.15 -163.1 -145 -49.16 -175.1 -235 -78.17 -66.14 -75.16
1.905 -43.15 -47.04 -43.15 -27.06 -49.16 -51.11 -88.07 -57.12 -159.2 -143.1 -43.15 -159.2 -223 -52.17 -50.05 -35.02
1.91 -41.03 -49.16 -41.03 -39.08 -45.1 -49.16 -65.08 -31.12 -129.1 -131 -31.12 -121.1 -179.1 -19.1 -27.06 -2.122
1.915 -23.17 -31.12 -27.06 -35.02 -33.07 -39.08 -20.16 -1.061 -91.07 -111.1 -11.14 -68.09 -123.1 0 -3.006 17.86
1.92 -1.061 -9.019 -9.019 -21.04 -17.15 -23.17 21.93 23.87 -57.12 -81.17 5.836 -18.04 -73.04 7.958 5.836 13.97
1.925 9.903 4.952 3.891 -3.006 -1.061 -5.128 63.84 51.99 -33.07 -41.03 27.94 7.958 -35.02 1.945 3.891 -2.122
1.93 19.98 12.91 19.98 7.958 7.958 9.903 85.95 67.91 -11.14 0 47.92 28.83 -3.006 0.8842 0.8842 -7.074
1.935 27.94 12.91 29.89 15.92 21.93 27.94 89.84 73.92 5.836 39.97 65.96 40.85 23.87 3.891 -1.061 -2.122
1.94 35.9 10.96 37.84 17.86 33.95 39.97 87.89 73.92 33.95 67.91 79.93 57.83 61.9 26 3.891 23.87
1.945 41.91 10.96 41.91 15.92 41.91 43.86 87.89 71.98 65.96 77.99 91.96 83.82 101.9 47.92 23.87 53.94
1.95 41.91 10.96 41.91 13.97 41.91 37.84 91.96 69.85 95.85 81.88 97.97 111.9 136 53.94 49.87 71.98
1.955 35.9 6.897 33.95 13.97 37.84 27.94 89.84 61.9 115.8 83.82 91.96 130 153.9 37.84 71.98 75.87
1.96 21.93 -1.061 15.92 7.958 29.89 19.98 75.87 45.98 124 89.84 77.99 130 151.9 13.97 83.82 71.98
1.965 7.958 -11.14 -5.128 -2.122 19.98 13.97 47.92 21.93 115.8 93.9 57.83 113.9 137.9 0.8842 89.84 67.91
1.97 -2.122 -25.11 -25.11 -11.14 11.85 11.85 15.92 0.8842 97.97 87.89 41.91 91.96 115.8 0.8842 91.96 71.98
1.975 -1.061 -33.07 -33.07 -21.04 5.836 9.903 -1.061 -15.03 69.85 73.92 33.95 81.88 91.96 9.903 89.84 75.87
1.98 0 -29 -25.11 -19.1 3.891 7.958 0.8842 -11.14 41.91 49.87 35.9 87.89 70.91 28.83 85.95 76.93
1.985 9.903 -17.15 -7.074 -3.006 9.903 9.903 11.85 3.891 15.92 26 35.9 104 50.93 36.96 75.87 64.9
1.99 21.93 0.8842 5.836 15.92 19.98 15.92 29.89 27.94 0.8842 1.945 23.87 118 27.94 29.89 59.95 41.91
1.995 26 8.842 14.85 35.9 26 23.87 36.96 39.97 -13.09 -15.03 -2.122 113.9 4.952 16.98 38.91 18.92
2 21.93 10.96 12.91 45.98 28.83 23.87 24.94 39.97 -27.06 -39.08 -27.06 85.95 -18.04 0.8842 10.96 1.945
2.005 9.903 6.897 5.836 47.92 19.98 15.92 5.836 29.89 -43.15 -65.08 -49.16 41.91 -53.05 -13.09 -15.03 -19.1
2.01 -1.061 4.952 4.952 42.97 6.897 1.945 -4.067 17.86 -65.08 -88.07 -55.18 0.8842 -91.07 -33.07 -48.1 -45.1
2.015 -2.122 8.842 10.96 40.85 -2.122 -18.04 0 13.97 -89.13 -104.2 -45.1 -37.14 -133.2 -57.12 -78.17 -78.17
2.02 -1.061 16.98 15.92 33.95 -13.09 -31.12 5.836 17.86 -109.1 -109.1 -29 -59.07 -163.1 -79.05 -105 -115.1
2.025 -1.061 20.87 13.97 26.88 -20.16 -30.06 17.86 22.99 -113 -96.03 -19.1 -67.02 -170.1 -92.14 -117.1 -141.1
2.03 -1.061 8.842 -2.122 10.96 -23.17 -20.16 17.86 18.92 -99.03 -72.15 -17.15 -63.13 -148 -89.13 -115.1 -144.1
2.035 -3.006 -7.074 -19.1 -5.128 -23.17 -5.128 5.836 5.836 -73.04 -43.15 -17.15 -55.18 -107.2 -69.15 -97.09 -121.1
2.04 -5.128 -31.12 -34.13 -22.11 -21.04 7.958 0 -8.135 -40.14 -9.019 -11.14 -41.03 -50.05 -38.02 -60.13 -72.15
2.045 -11.14 -47.04 -37.14 -31.12 -16.09 13.97 -10.08 -28.12 -10.08 9.903 0 -27.06 0.8842 -5.128 -18.04 -15.03
2.05 -13.09 -55.18 -35.02 -39.08 -15.03 11.85 -11.14 -49.16 1.945 31.83 11.85 -15.03 27.94 17.86 15.92 35.9
2.055 -12.03 -49.16 -32.01 -42.09 -13.09 4.952 -10.08 -65.08 8.842 44.92 9.903 -5.128 46.86 43.86 50.93 87.89
2.06 -19.1 -47.04 -40.14 -50.05 -24.05 -1.061 -21.04 -85.06 6.897 47.92 -3.006 -6.013 60.83 64.9 71.98 131.9
2.065 -33.07 -55.18 -61.01 -65.08 -39.08 -19.1 -45.1 -109.1 0 45.98 -29 -15.03 75.87 91.96 85.95 167.8
2.07 -47.04 -67.02 -85.06 -78.17 -55.18 -32.01 -77.1 -123.1 -1.061 44.92 -46.16 -18.04 98.86 121.8 94.97 197.9
2.075 -57.12 -83.12 -98.15 -85.06 -62.07 -42.09 -101.2 -125 5.836 43.86 -39.08 -17.15 119.9 148.9 101 214.9
2.08 -57.12 -95.14 -100.1 -86.12 -64.02 -47.04 -107.2 -107.2 16.98 39.97 -15.03 -4.067 133 157.9 95.85 212.9
2.085 -57.12 -93.02 -90.01 -73.04 -60.13 -42.09 -95.14 -79.05 27.94 35.9 1.945 7.958 131.9 139 82.94 191
2.09 -45.1 -77.1 -75.16 -56.06 -45.1 -34.13 -63.13 -41.03 34.84 30.95 10.96 24.94 110.9 99.92 56.94 141.8
2.095 -25.11 -49.16 -51.11 -29 -23.17 -19.1 -19.1 0.8842 33.95 23.87 7.958 43.86 81.88 49.87 21.93 83.82
2.1 1.945 -11.14 -18.04 4.952 4.952 1.945 26 37.84 32.89 21.93 3.891 68.97 56.94 2.83 -2.122 21.93
2.105 38.91 20.87 6.897 42.97 45.98 28.83 68.97 75.87 32.89 20.87 9.903 93.9 40.85 -29 -10.08 -31.12
2.11 71.98 52.88 33.95 73.92 77.99 53.94 99.92 97.97 29.89 13.97 21.93 113.9 33.95 -57.12 -17.15 -77.1
2.115 91.96 70.91 53.94 91.96 96.91 67.91 104.9 102.9 24.94 -1.061 27.94 101.9 21.93 -77.1 -38.02 -111.1
2.12 97.97 76.93 55 88.95 91.96 63.84 80.99 78.87 2.83 -39.08 7.958 39.97 -10.08 -98.15 -90.01 -146.1
2.125 79.93 66.85 41.91 73.92 67.91 43.86 35.9 33.95 -33.07 -89.13 -31.12 -63.13 -81.17 -123.1 -167.1 -181.1
2.13 60.83 55 23.87 56.94 37.84 18.92 -3.006 -10.08 -87.01 -134 -83.12 -193.1 -178.1 -139.2 -245.1 -210.1
2.135 40.85 40.85 13.97 46.86 8.842 0 -33.07 -48.1 -137.1 -162.2 -117.1 -297.1 -272.2 -150.1 -291.1 -223
2.14 19.98 24.94 9.903 39.97 -5.128 -11.14 -41.03 -67.02 -165.2 -165.2 -115.1 -337.1 -335.1 -147.1 -279.1 -203
2.145 2.83 12.91 14.85 34.84 -12.03 -14.15 -26.17 -63.13 -161.1 -136.2 -79.05 -299 -337.1 -129.1 -202.1 -152.1
2.15 -10.08 2.83 16.98 26.88 -16.09 -12.03 0 -47.04 -125 -88.07 -33.07 -203 -275.2 -95.14 -92.14 -81.17
2.155 -31.12 -7.074 11.85 11.85 -21.04 -11.14 15.92 -27.06 -73.04 -33.07 0.8842 -85.06 -171 -55.18 15.92 -3.006
2.16 -39.08 -13.09 0.8842 0.8842 -20.16 -7.074 28.83 -13.09 -17.15 13.97 11.85 15.92 -56.06 -12.03 107 59.95
2.165 -33.07 -21.04 -14.15 -7.074 -15.03 -1.061 24.94 -9.019 23.87 55.88 9.903 87.89 38.91 30.95 156.9 107
2.17 -19.1 -29 -31.12 -11.14 -5.128 0 5.836 -17.15 57.83 83.82 5.836 121.8 101.9 69.85 176 137.9
2.175 -5.128 -35.02 -47.04 -17.15 -1.061 1.945 -19.1 -33.07 71.98 95.85 5.836 124 134.9 98.86 173.8 156.9
2.18 -3.006 -45.1 -59.07 -31.12 -7.074 0.8842 -53.05 -59.07 69.85 91.96 9.903 105.9 140.9 110.9 163.9 160.9
2.185 -15.03 -57.12 -67.02 -49.16 -23.17 -15.03 -79.05 -81.17 57.83 81.88 17.86 79.93 136 101.9 147.8 156
2.19 -35.02 -67.02 -65.08 -63.13 -41.03 -31.12 -83.12 -87.01 43.86 65.96 23.87 51.99 131.9 75.87 131.9 137.9
2.195 -49.16 -71.09 -55.18 -63.13 -55.18 -41.03 -59.07 -71.09 39.97 55.88 26 37.84 133.9 43.86 118 104
2.2 -51.11 -67.02 -37.14 -45.1 -53.05 -39.08 -13.09 -31.12 49.87 51.99 26 39.97 139.9 15.92 107.9 57.83
2.205 -41.03 -51.11 -11.14 -15.03 -39.08 -29 33.95 15.92 69.85 55.88 23.87 59.95 145.9 -1.061 93.9 7.958
2.21 -25.11 -29 7.958 11.85 -15.03 -13.09 71.98 63.84 91.96 59.95 19.98 83.82 144 -11.14 67.91 -33.07
2.215 -11.14 -5.128 27.94 41.91 3.891 1.945 91.96 97.97 107.9 61.9 13.97 99.92 127.9 -13.09 27.94 -69.15
2.22 0.8842 14.85 41.91 65.96 26 21.93 93.9 113.9 111.9 61.9 9.903 99.92 99.92 -5.128 -19.1 -83.12
2.225 11.85 34.84 49.87 81.88 43.86 39.97 89.84 111.9 104 59.95 7.958 82.94 69.85 1.945 -69.15 -71.09
2.23 27.94 46.86 49.87 91.96 53.94 47.92 79.93 98.86 91.96 49.87 9.903 52.88 43.86 19.98 -109.1 -35.02
2.235 41.91 46.86 41.91 91.96 53.94 41.91 63.84 75.87 75.87 33.95 7.958 13.97 27.94 33.95 -129.1 5.836
2.24 41.91 36.96 26 81.88 39.97 26 35.9 48.99 53.94 13.97 -2.122 -28.12 13.97 39.97 -135.1 45.98
2.245 26 22.99 9.903 61.9 17.86 3.891 1.945 18.92 29.89 -3.006 -19.1 -82.06 0.8842 35.9 -135.1 67.91
2.25 1.945 10.96 0 43.86 -2.122 -3.006 -43.15 -7.074 7.958 -17.15 -53.05 -151 -27.06 21.93 -131 65.96
2.255 -15.03 6.897 -1.061 29.89 -3.006 -3.006 -78.17 -28.12 0.8842 -17.15 -85.06 -211.2 -57.12 5.836 -124.1 47.92
2.26 -23.17 10.96 -1.061 26 -2.122 0 -94.08 -39.08 0.8842 -7.074 -103.1 -263.1 -81.17 -1.061 -110.2 23.87
2.265 -15.03 14.85 -3.006 23.87 11.85 9.903 -89.13 -39.08 7.958 3.891 -101.2 -277.1 -89.13 -9.019 -83.12 5.836
2.27 -1.061 12.91 -11.14 19.98 17.86 5.836 -68.09 -25.11 21.93 13.97 -79.05 -252 -76.04 -9.019 -44.03 -2.122
2.275 -2.122 0.8842 -21.04 11.85 9.903 -3.006 -44.03 -2.122 29.89 11.85 -45.1 -200 -50.05 -9.019 -6.013 2.83
2.28 -3.006 -13.09 -27.06 1.945 -5.128 -21.04 -25.11 13.97 29.89 0 -9.019 -129.1 -23.17 -9.019 26 1.945
2.285 -15.03 -29 -23.17 1.945 -23.17 -33.07 -5.128 37.84 21.93 -11.14 14.85 -56.06 1.945 -15.03 55.88 1.945
2.29 -21.04 -29 -8.135 -1.061 -29 -35.02 -2.122 49.87 15.92 -25.11 30.95 0 2.83 -31.12 71.98 -26.17
2.295 -19.1 -19.1 3.891 5.836 -25.11 -27.06 3.891 53.94 11.85 -31.12 39.97 43.86 0 -53.05 77.99 -71.09
2.3 -13.09 -3.006 18.92 18.92 -15.03 -18.04 13.97 55 13.97 -28.12 50.93 77.99 -5.128 -77.1 84.89 -116
2.305 -7.074 6.897 20.87 24.94 -5.128 -16.09 20.87 49.87 17.86 -24.05 55.88 107 -19.1 -97.09 87.89 -151
2.31 -5.128 12.91 17.86 26 -1.061 -15.03 29.89 49.87 15.92 -19.1 53.94 133.9 -27.06 -101.2 91.96 -165.2
2.315 -1.061 12.91 11.85 24.94 0.8842 -11.14 43.86 55 7.958 -13.09 50.93 156 -25.11 -80.11 87.89 -141.1
2.32 0 10.96 4.952 20.87 0.8842 -4.067 55 64.9 0 -8.135 41.91 162.9 -10.08 -45.1 69.85 -95.14
2.325 5.836 2.83 3.891 15.92 6.897 3.891 58.89 66.85 -3.006 0 29.89 154.9 7.958 -5.128 41.91 -36.08
2.33 11.85 -1.061 -1.061 8.842 8.842 12.91 50.93 58.89 -7.074 16.98 19.98 133 40.85 27.94 1.945 23.87
2.335 9.903 2.83 -2.122 2.83 5.836 13.97 39.97 42.97 -3.006 35.9 10.96 104 69.85 58.89 -19.1 85.95
2.34 0 -1.061 0 -1.061 -3.006 5.836 27.94 23.87 -2.122 49.87 1.945 81.88 97.97 85.95 -29 144
2.345 -11.14 -1.061 8.842 -6.013 -23.17 1.945 24.94 5.836 1.945 52.88 -1.061 66.85 115.8 110 -9.019 194
2.35 -27.06 0.8842 16.98 -10.08 -41.03 -10.08 23.87 -2.122 1.945 44.92 -6.013 53.94 124 125.9 14.85 222.8
2.355 -37.14 -1.061 17.86 -17.15 -47.04 -17.15 9.903 -23.17 -2.122 27.94 -1.061 33.95 110 127.9 41.91 223.9
2.36 -35.02 -3.006 14.85 -18.04 -41.03 -15.03 -13.09 -45.1 -5.128 7.958 10.96 9.903 90.9 110 57.83 188.9
2.365 -25.11 -7.074 3.891 -22.11 -27.06 -5.128 -49.16 -65.08 -3.006 1.945 28.83 -14.15 64.9 69.85 53.94 133
2.37 0.8842 -3.006 0 -17.15 -1.061 7.958 -83.12 -81.17 3.891 13.97 35.9 -39.08 43.86 26 35.9 65.96
2.375 27.94 10.96 5.836 0.8842 21.93 33.95 -86.12 -76.04 27.94 41.91 27.94 -50.05 32.89 -9.019 16.98 8.842
2.38 61.9 36.96 17.86 17.86 49.87 53.94 -60.13 -55.18 53.94 67.91 0 -52.17 24.94 -33.07 -1.061 -25.11
2.385 83.82 60.83 31.83 39.97 65.96 61.9 -27.06 -27.06 65.96 75.87 -29 -55.18 11.85 -43.15 -17.15 -55.18
2.39 81.88 72.86 31.83 49.87 67.91 49.87 1.945 -1.061 57.83 55.88 -61.01 -61.01 -5.128 -43.15 -40.14 -75.16
2.395 57.83 64.9 19.98 41.91 49.87 23.87 0 4.952 31.83 13.97 -79.05 -71.09 -27.06 -41.03 -66.14 -89.13
2.4 23.87 42.97 0.8842 17.86 21.93 -1.061 -21.04 0 0.8842 -27.06 -79.05 -83.12 -47.04 -39.08 -89.13 -101.2
2.405 -1.061 14.85 -23.17 -7.074 -1.061 -23.17 -42.09 -6.013 -31.12 -61.01 -65.08 -84 -57.12 -35.02 -99.03 -99.03
2.41 -17.15 -5.128 -37.14 -35.02 -25.11 -33.07 -53.05 -22.11 -57.12 -81.17 -39.08 -80.11 -59.07 -33.07 -97.09 -89.13
2.415 -23.17 -19.1 -37.14 -53.05 -37.14 -35.02 -43.15 -35.02 -77.1 -89.13 -3.006 -73.04 -63.13 -35.02 -81.17 -79.05
2.42 -23.17 -29 -31.12 -65.08 -43.15 -35.02 -29 -50.05 -99.03 -97.09 26 -68.09 -69.15 -41.03 -55.18 -71.09
2.425 -29 -33.07 -23.17 -73.04 -47.04 -37.14 -19.1 -65.08 -119 -103.1 51.99 -66.14 -81.17 -47.04 -25.11 -65.08
2.43 -37.14 -37.14 -17.15 -79.05 -51.11 -41.03 -19.1 -77.1 -135.1 -97.09 63.84 -61.01 -85.06 -51.11 3.891 -53.05
2.435 -47.04 -39.08 -13.09 -79.05 -51.11 -37.14 -21.04 -79.05 -131 -73.04 61.9 -47.04 -73.04 -41.03 41.91 -23.17
2.44 -49.16 -39.08 -13.09 -77.1 -49.16 -29 -19.1 -71.09 -107.2 -33.07 49.87 -21.04 -45.1 -17.15 77.99 17.86
2.445 -45.1 -37.14 -11.14 -67.02 -47.04 -19.1 -13.09 -57.12 -65.08 1.945 35.9 1.945 -5.128 13.97 107.9 69.85
2.45 -39.08 -33.07 -13.09 -55.18 -45.1 -15.03 -11.14 -47.04 -25.11 26 19.98 23.87 23.87 43.86 124 110
2.455 -33.07 -27.06 -17.15 -43.15 -45.1 -19.1 -21.04 -49.16 -1.061 26 5.836 29.89 41.91 57.83 125.9 125.9
2.46 -29 -19.1 -23.17 -33.07 -45.1 -27.06 -43.15 -59.07 0.8842 5.836 -3.006 26 45.98 47.92 113.9 115.8
2.465 -23.17 -9.019 -25.11 -21.04 -37.14 -29 -69.15 -67.02 -7.074 -7.074 -17.15 19.98 43.86 19.98 93.9 91.96
2.47 -11.14 0.8842 -19.1 -7.074 -19.1 -23.17 -81.17 -59.07 -11.14 -13.09 -29 19.98 43.86 -9.019 74.98 67.91
2.475 1.945 16.98 -5.128 5.836 0 -11.14 -71.09 -32.01 0.8842 -3.006 -33.07 31.83 49.87 -33.07 55 47.92
2.48 21.93 32.89 7.958 27.94 21.93 0.8842 -39.08 1.945 21.93 7.958 -33.07 49.87 57.83 -41.03 33.95 31.83
2.485 29.89 42.97 21.93 48.99 33.95 1.945 0.8842 40.85 47.92 21.93 -25.11 67.91 59.95 -33.07 14.85 16.98
2.49 26 48.99 33.95 64.9 35.9 1.945 34.84 68.97 61.9 26 -11.14 81.88 49.87 -15.03 1.945 -2.122
2.495 13.97 50.93 43.86 73.92 31.83 1.945 61.9 79.93 57.83 21.93 5.836 87.89 27.94 0 -19.1 -37.14
2.5 2.83 50.93 47.92 80.99 27.94 3.891 78.87 85.95 39.97 11.85 31.83 83.82 1.945 12.91 -35.02 -70.03
2.505 0.8842 52.88 55.88 82.94 29.89 11.85 82.94 83.82 15.92 1.945 49.87 72.86 -34.13 10.96 -57.12 -110.2
2.51 9.903 52.88 55.88 77.99 33.95 19.98 75.87 77.99 -1.061 -5.128 55.88 51.99 -67.02 -1.061 -83.12 -149.1
2.515 30.95 50.93 47.92 71.98 42.97 33.95 66.85 76.93 -19.1 -19.1 40.85 30.95 -96.03 -26.17 -110.2 -179.1
2.52 50.93 44.92 38.91 63.84 48.99 45.98 58.89 74.98 -35.02 -29 10.96 12.91 -114.1 -54.11 -137.1 -201.1
2.525 63.84 34.84 27.94 57.83 55.88 55.88 55.88 71.98 -43.15 -35.02 -15.03 7.958 -113 -73.04 -155.1 -193.1
2.53 71.98 28.83 24.94 58.89 58.89 60.83 65.96 69.85 -47.04 -29 -30.06 16.98 -83.12 -71.09 -148 -144.1
2.535 61.9 24.94 28.83 62.96 52.88 44.92 73.92 72.86 -39.08 -17.15 -22.11 34.84 -37.14 -55.18 -117.1 -61.01
2.54 41.91 22.99 35.9 57.83 35.9 19.98 79.93 75.87 -21.04 -5.128 0.8842 55.88 9.903 -29 -57.12 31.83
2.545 14.85 20.87 38.91 44.92 9.903 -10.08 71.98 70.91 -2.122 -2.122 21.93 71.98 60.83 -2.122 12.91 122.9
2.55 -9.019 8.842 31.83 21.93 -15.03 -42.09 44.92 55.88 10.96 -2.122 35.9 78.87 93.9 9.903 85.95 176.8
2.555 -39.08 -5.128 7.958 -7.074 -39.08 -57.12 7.958 21.93 15.92 0.8842 31.83 75.87 101.9 26 139.9 191.9
2.56 -57.12 -25.11 -13.09 -39.08 -52.17 -58 -24.05 -11.14 12.91 -5.128 20.87 67.91 99.92 41.91 174.9 173.8
2.565 -65.08 -47.04 -39.08 -58 -57.12 -47.04 -50.05 -49.16 -1.061 -2.122 11.85 53.94 82.94 58.89 182.9 144.8
2.57 -64.02 -65.08 -58 -67.02 -53.05 -38.02 -60.13 -77.1 -7.074 0.8842 14.85 39.97 72.86 72.86 179.9 118.8
2.575 -55.18 -75.16 -63.13 -64.02 -49.16 -29 -58 -83.12 -12.03 10.96 23.87 31.83 62.96 78.87 160.9 101
2.58 -47.04 -83.12 -61.01 -61.01 -46.16 -28.12 -48.1 -71.09 -8.135 17.86 34.84 26 59.95 73.92 133 83.82
2.585 -41.03 -79.05 -49.16 -55.18 -41.03 -27.06 -37.14 -51.11 0.8842 15.92 29.89 19.98 47.92 63.84 91.96 59.95
2.59 -29 -65.08 -33.07 -41.03 -33.07 -22.11 -24.05 -21.04 0.8842 9.903 11.85 18.92 35.9 49.87 43.86 28.83
2.595 -10.08 -37.14 -14.15 -24.05 -21.04 -12.03 -9.019 1.945 -1.061 3.891 -9.019 15.92 16.98 40.85 -2.122 -4.067
2.6 5.836 -9.019 1.945 -2.122 -3.006 -3.006 3.891 15.92 -1.061 0 -33.07 13.97 -2.122 27.94 -51.11 -41.03
2.605 27.94 14.85 20.87 30.95 14.85 8.842 29.89 36.96 0.8842 7.958 -30.06 12.91 -9.019 13.97 -81.17 -65.08
2.61 37.84 34.84 38.91 70.91 38.91 28.83 69.85 57.83 9.903 19.98 -6.013 12.91 -13.09 -1.061 -92.14 -84
2.615 39.97 46.86 59.95 110 65.96 47.92 105.9 85.95 37.84 35.9 26 13.97 -15.03 -25.11 -93.02 -99.03
2.62 48.99 56.94 88.95 145.9 92.84 69.85 140.9 118.8 67.91 45.98 64.9 24.94 -14.15 -42.09 -85.06 -111.1
2.625 64.9 72.86 115.8 171.9 114.9 85.95 162.9 147 91.96 49.87 84.89 40.85 -8.135 -46.16 -72.15 -111.1
2.63 85.95 92.84 133.9 182 119.9 91.96 169.9 159.9 104 51.99 87.89 61.9 -2.122 -29 -47.04 -89.13
2.635 102.9 104.9 130 166.9 110 85.95 159 159.9 105.9 57.83 81.88 92.84 24.94 6.897 0.8842 -36.08
2.64 98.86 101 104 127 79.93 69.85 130.9 133.9 99.92 69.85 75.87 124 58.89 58.89 59.95 36.96
2.645 69.85 72.86 57.83 69.85 43.86 51.99 83.82 85.95 87.89 79.93 71.98 141.8 95.85 111.9 118 119.9
2.65 33.95 36.96 13.97 18.92 9.903 35.9 30.95 32.89 71.98 83.82 57.83 136 119.9 147.8 156.9 186.9
2.655 5.836 2.83 -9.019 -10.08 -5.128 26 -19.1 -14.15 51.99 75.87 31.83 101.9 124 159.9 159 220.9
2.66 -1.061 -13.09 -19.1 -23.17 -13.09 15.92 -63.13 -57.12 29.89 59.95 -1.061 41.91 105.9 145.9 125.9 220
2.665 -2.122 -19.1 -17.15 -21.04 -13.09 7.958 -89.13 -86.12 7.958 39.97 -39.08 -15.03 77.99 113.9 72.86 191.9
2.67 3.891 -19.1 -15.03 -19.1 -15.03 0.8842 -97.09 -103.1 -1.061 21.93 -61.01 -57.12 51.99 77.99 30.95 151.9
2.675 1.945 -23.17 -17.15 -21.04 -21.04 -9.019 -83.12 -109.1 -7.074 5.836 -55.18 -67.02 35.9 41.91 5.836 107.9
2.68 -1.061 -31.12 -19.1 -21.04 -25.11 -17.15 -55.18 -99.03 -5.128 -1.061 -25.11 -45.1 29.89 11.85 5.836 61.9
2.685 -9.019 -33.07 -15.03 -15.03 -25.11 -19.1 -17.15 -73.04 0.8842 -9.019 9.903 -5.128 27.94 -7.074 19.98 19.98
2.69 -13.09 -25.11 -3.006 -2.122 -17.15 -11.14 11.85 -37.14 0 -13.09 47.92 31.83 23.87 -27.06 31.83 -13.09
2.695 -7.074 -9.019 9.903 19.98 -5.128 -2.122 37.84 -3.006 1.945 -11.14 69.85 55.88 9.903 -39.08 35.9 -41.03
2.7 1.945 4.952 23.87 35.9 3.891 11.85 45.98 15.92 -2.122 -11.14 77.99 59.95 -11.14 -45.1 27.94 -63.13
2.705 15.92 20.87 33.95 41.91 11.85 21.93 37.84 17.86 -9.019 -19.1 73.92 41.91 -49.16 -45.1 9.903 -81.17
2.71 27.94 32.89 35.9 41.91 17.86 23.87 23.87 3.891 -27.06 -39.08 59.95 11.85 -91.07 -43.15 -9.019 -101.2
2.715 39.97 40.85 35.9 43.86 21.93 21.93 11.85 -5.128 -51.11 -67.02 37.84 -19.1 -129.1 -45.1 -35.02 -119
2.72 49.87 52.88 37.84 57.83 31.83 19.98 11.85 -9.019 -75.16 -89.13 3.891 -49.16 -155.1 -49.16 -61.01 -131
2.725 59.95 64.9 41.91 79.93 43.86 23.87 19.98 1.945 -91.07 -87.01 -29 -65.08 -159.2 -51.11 -83.12 -125
2.73 65.96 74.98 46.86 104 55.88 35.9 31.83 27.94 -89.13 -61.01 -59.07 -61.01 -138.1 -39.08 -93.02 -91.07
2.735 69.85 74.98 48.99 118 61.9 45.98 35.9 51.99 -67.02 -21.04 -69.15 -41.03 -102 -11.14 -85.06 -34.13
2.74 67.91 62.96 39.97 113.9 59.95 51.99 27.94 59.95 -33.07 7.958 -51.11 -11.14 -57.12 26 -59.07 26
2.745 53.94 36.96 22.99 89.84 45.98 41.91 6.897 39.97 0 22.99 -15.03 11.85 -14.15 65.96 -21.04 88.95
2.75 29.89 0.8842 -2.122 49.87 19.98 21.93 -18.04 -1.061 12.91 12.91 14.85 21.93 6.897 94.97 11.85 133
2.755 0.8842 -33.07 -37.14 5.836 -5.128 0.8842 -55.18 -55.18 1.945 -3.006 26 11.85 17.86 97.97 39.97 157.9
2.76 -35.02 -63.13 -64.02 -29 -39.08 -25.11 -88.07 -106.1 -18.04 -16.09 6.897 -11.14 26 86.83 51.99 170.8
2.765 -63.13 -81.17 -73.04 -55.18 -67.02 -43.15 -118.1 -142 -44.03 -20.16 -26.17 -47.04 26 68.97 45.98 177.9
2.77 -77.1 -81.17 -71.09 -63.13 -85.06 -53.05 -139.2 -151 -59.07 -15.03 -61.01 -75.16 33.95 51.99 31.83 171.9
2.775 -75.16 -65.08 -57.12 -58 -89.13 -57.12 -141.1 -132.1 -49.16 -9.019 -78.17 -83.12 48.99 38.91 14.85 153.9
2.78 -62.07 -45.1 -40.14 -46.16 -83.12 -59.07 -131 -95.14 -25.11 -17.15 -70.03 -71.09 59.95 22.99 0.8842 116.9
2.785 -53.05 -29 -25.11 -27.06 -71.09 -59.07 -101.2 -59.07 -2.122 -25.11 -43.15 -47.04 57.83 0 -3.006 63.84
2.79 -42.09 -11.14 -11.14 -4.067 -53.05 -53.05 -60.13 -27.06 20.87 -34.13 -11.14 -17.15 47.92 -21.04 -4.067 1.945
2.795 -34.13 -3.006 3.891 7.958 -35.02 -45.1 -21.04 -6.013 23.87 -35.02 6.897 0 22.99 -44.03 -2.122 -50.05
2.8 -25.11 4.952 23.87 19.98 -23.17 -35.02 7.958 1.945 11.85 -33.07 17.86 11.85 -5.128 -67.02 -1.061 -95.14
2.805 -13.09 12.91 40.85 28.83 -13.09 -24.05 30.95 11.85 -4.067 -36.08 21.93 14.85 -38.02 -75.16 -4.067 -118.1
2.81 -1.061 16.98 52.88 30.95 -8.135 -14.15 45.98 21.93 -31.12 -43.15 14.85 8.842 -65.08 -73.04 -16.09 -119
2.815 2.83 18.92 57.83 31.83 -4.067 -7.074 59.95 36.96 -52.17 -49.16 13.97 5.836 -76.04 -59.07 -30.06 -92.14
2.82 3.891 20.87 58.89 36.96 -1.061 0 67.91 49.87 -51.11 -45.1 16.98 2.83 -73.04 -29 -42.09 -45.1
2.825 3.891 26.88 64.9 44.92 5.836 2.83 78.87 59.95 -36.08 -28.12 26 10.96 -52.17 5.836 -42.09 12.91
2.83 5.836 34.84 65.96 53.94 11.85 5.836 79.93 65.96 -9.019 -1.061 31.83 21.93 -19.1 39.97 -29 75.87
2.835 8.842 38.91 63.84 53.94 9.903 5.836 73.92 60.83 9.903 17.86 36.96 31.83 10.96 72.86 -8.135 124.9
2.84 6.897 36.96 43.86 38.91 1.945 0.8842 52.88 39.97 30.95 26.88 27.94 33.95 33.95 79.93 8.842 147.8
2.845 -2.122 16.98 17.86 15.92 -7.074 -7.074 19.98 9.903 31.83 19.98 7.958 29.89 45.98 75.87 27.94 147.8
2.85 -6.013 -1.061 -6.013 -2.122 -21.04 -19.1 -11.14 -15.03 29.89 9.903 -14.15 17.86 59.95 64.9 46.86 133
2.855 -21.04 -11.14 -29 -16.09 -29 -25.11 -37.14 -42.09 33.95 5.836 -38.02 9.903 76.93 56.94 62.96 118
2.86 -35.02 -19.1 -39.08 -23.17 -29 -27.06 -51.11 -55.18 41.91 7.958 -53.05 7.958 101.9 55.88 79.93 113.9
2.865 -45.1 -19.1 -35.02 -25.11 -27.06 -29 -48.1 -54.11 56.94 16.98 -50.05 11.85 127.9 64.9 93.9 119.9
2.87 -51.11 -19.1 -32.01 -29 -27.06 -31.12 -32.01 -52.17 64.9 20.87 -30.06 17.86 141.8 66.85 91.96 114.9
2.875 -55.18 -27.06 -25.11 -35.02 -33.07 -33.07 -15.03 -49.16 57.83 17.86 -1.061 21.93 119.9 49.87 73.92 81.88
2.88 -51.11 -37.14 -20.16 -37.14 -39.08 -27.06 -1.061 -40.14 40.85 12.91 20.87 19.98 78.87 16.98 39.97 18.92
2.885 -33.07 -37.14 -16.09 -27.06 -37.14 -11.14 10.96 -31.12 20.87 14.85 37.84 17.86 22.99 -17.15 5.836 -52.17
2.89 -5.128 -27.06 -7.074 -5.128 -19.1 7.958 19.98 -9.019 9.903 19.98 41.91 21.93 -21.04 -47.04 -15.03 -119
2.895 26 -1.061 4.952 19.98 7.958 33.95 26 15.92 17.86 29.89 39.97 39.97 -40.14 -57.12 -23.17 -146.1
2.9 57.83 26.88 22.99 51.99 45.98 51.99 35.9 49.87 39.97 33.95 31.83 61.9 -36.08 -47.04 -25.11 -129.1
2.905 77.99 56.94 39.97 71.98 75.87 61.9 45.98 73.92 61.9 29.89 17.86 75.87 -17.15 -27.06 -35.02 -81.17
2.91 83.82 72.86 51.99 77.99 87.89 61.9 55.88 83.82 67.91 17.86 0.8842 67.91 -2.122 -7.074 -59.07 -21.04
2.915 77.99 72.86 49.87 71.98 79.93 55.88 55.88 75.87 51.99 3.891 -33.07 35.9 7.958 3.891 -97.09 21.93
2.92 63.84 58.89 37.84 57.83 55.88 47.92 45.98 53.94 23.87 0 -65.08 -3.006 7.958 19.98 -127.2 51.99
2.925 49.87 38.91 19.98 37.84 26 37.84 27.94 29.89 -1.061 3.891 -79.05 -41.03 5.836 33.95 -131 69.85
2.93 37.84 22.99 5.836 19.98 0 27.94 9.903 9.903 -17.15 15.92 -59.07 -55.18 7.958 49.87 -97.09 81.88
2.935 23.87 10.96 0 7.958 -9.019 17.86 1.945 0 -17.15 31.83 -9.019 -39.08 21.93 57.83 -31.12 87.89
2.94 7.958 6.897 1.945 1.945 -17.15 9.903 1.945 0.8842 0.8842 41.91 41.91 -1.061 41.91 57.83 39.97 89.84
2.945 -7.074 0.8842 3.891 -2.122 -21.04 0 5.836 -5.128 23.87 43.86 75.87 31.83 61.9 45.98 104 83.82
2.95 -29 -5.128 1.945 0.8842 -25.11 -5.128 5.836 -17.15 47.92 39.97 71.98 57.83 75.87 27.94 139.9 71.98
2.955 -43.15 -25.11 -3.006 -9.019 -29 -15.03 -2.122 -35.02 61.9 27.94 41.91 63.84 75.87 9.903 145.9 59.95
2.96 -47.04 -47.04 -15.03 -21.04 -33.07 -23.17 -9.019 -57.12 61.9 13.97 7.958 55.88 63.84 -2.122 130 51.99
2.965 -39.08 -65.08 -21.04 -37.14 -33.07 -29 -25.11 -73.04 49.87 0 -5.128 37.84 39.97 -5.128 99.92 45.98
2.97 -25.11 -69.15 -23.17 -45.1 -27.06 -29 -37.14 -81.17 33.95 -5.128 -1.061 19.98 13.97 -9.019 69.85 37.84
2.975 -13.09 -59.07 -17.15 -45.1 -17.15 -21.04 -45.1 -75.16 17.86 -11.14 1.945 5.836 0 -13.09 42.97 19.98
2.98 -7.074 -35.02 -7.074 -35.02 -3.006 -11.14 -45.1 -59.07 7.958 -12.03 0 -2.122 -12.03 -17.15 22.99 -2.122
2.985 -5.128 -9.019 -2.122 -21.04 3.891 0.8842 -35.02 -37.14 5.836 -15.03 -3.006 -2.122 -17.15 -21.04 3.891 -37.14
2.99 -1.061 8.842 9.903 -9.019 13.97 3.891 -13.09 -11.14 4.952 -16.09 -7.074 7.958 -18.04 -25.11 -1.061 -68.09
2.995 5.836 20.87 21.93 -3.006 17.86 9.903 5.836 7.958 2.83 -18.04 1.945 19.98 -20.16 -29 -4.067 -90.01
3 19.98 22.99 33.95 -3.006 21.93 15.92 26 29.89 3.891 -17.15 33.95 26 -25.11 -31.12 -15.03 -99.03
3.005 37.84 18.92 34.84 -1.061 26 23.87 33.95 41.91 4.952 -10.08 64.9 21.93 -25.11 -28.12 -33.07 -84
3.01 45.98 12.91 28.83 1.945 33.95 35.9 31.83 49.87 10.96 1.945 68.97 6.897 -19.1 -16.09 -61.01 -49.16
3.015 49.87 4.952 15.92 15.92 43.86 47.92 27.94 55.88 21.93 11.85 37.84 -7.074 -5.128 1.945 -87.01 -3.006
3.02 45.98 -1.061 4.952 31.83 51.99 49.87 28.83 59.95 37.84 27.94 -10.08 -16.09 18.92 28.83 -108.1 41.91
3.025 38.91 -1.061 0 39.97 49.87 41.91 28.83 59.95 49.87 38.91 -62.07 -10.08 42.97 46.86 -115.1 80.99
3.03 23.87 -7.074 -11.14 26 35.9 21.93 17.86 49.87 57.83 37.84 -93.02 0.8842 59.95 49.87 -107.2 95.85
3.035 8.842 -17.15 -17.15 0.8842 13.97 3.891 -4.067 21.93 58.89 35.9 -91.07 4.952 68.97 41.91 -79.05 95.85
3.04 -2.122 -29 -27.06 -33.07 -2.122 -7.074 -43.15 -11.14 53.94 32.89 -67.02 1.945 71.98 24.94 -38.02 80.99
3.045 -9.019 -41.03 -31.12 -57.12 -19.1 -7.074 -83.12 -45.1 53.94 35.9 -35.02 -11.14 67.91 9.903 3.891 67.91
3.05 -9.019 -41.03 -25.11 -56.06 -16.09 -1.061 -92.14 -62.07 60.83 46.86 -4.067 -29 69.85 6.897 48.99 56.94
3.055 0.8842 -35.02 -10.08 -35.02 -7.074 11.85 -71.09 -59.07 69.85 57.83 9.903 -34.13 74.98 10.96 83.82 46.86
3.06 6.897 -17.15 0 -11.14 0.8842 15.92 -25.11 -39.08 70.91 58.89 23.87 -24.05 69.85 14.85 99.92 31.83
3.065 11.85 -5.128 12.91 0 13.97 15.92 9.903 -15.03 61.9 45.98 41.91 -4.067 50.93 18.92 95.85 6.897
3.07 9.903 0.8842 13.97 0.8842 24.94 14.85 30.95 -2.122 40.85 18.92 56.94 5.836 17.86 14.85 72.86 -18.04
3.075 5.836 -1.061 1.945 -5.128 33.95 15.92 23.87 -3.006 13.97 -1.061 57.83 -2.122 -19.1 3.891 39.97 -53.05
3.08 10.96 -9.019 -3.006 -11.14 42.97 26 3.891 -11.14 -3.006 -24.05 41.91 -17.15 -59.07 -6.013 2.83 -84
3.085 18.92 -17.15 -9.019 -5.128 47.92 35.9 -12.03 -19.1 -20.16 -37.14 7.958 -46.16 -102 -17.15 -31.12 -103.1
3.09 29.89 -13.09 -5.128 7.958 41.91 37.84 -17.15 -17.15 -33.07 -43.15 -29 -71.09 -127.2 -29 -65.08 -111.1
3.095 36.96 2.83 4.952 26 31.83 29.89 -2.122 -7.074 -41.03 -44.03 -54.11 -74.1 -128 -26.17 -81.17 -88.07
3.1 33.95 18.92 20.87 41.91 17.86 19.98 16.98 7.958 -37.14 -39.08 -60.13 -60.13 -104.2 -12.03 -76.04 -47.04
3.105 27.94 36.96 33.95 49.87 11.85 13.97 39.97 33.95 -31.12 -25.11 -39.08 -33.07 -55.18 3.891 -49.16 0
3.11 23.87 46.86 42.97 47.92 15.92 17.86 57.83 59.95 -10.08 -3.006 -4.067 1.945 1.945 28.83 -9.019 49.87
3.115 26 46.86 46.86 43.86 26 27.94 69.85 83.82 10.96 18.92 22.99 27.94 49.87 46.86 26 80.99
3.12 31.83 38.91 51.99 43.86 39.97 35.9 79.93 95.85 35.9 41.91 49.87 47.92 79.93 47.92 45.98 91.96
3.125 41.91 34.84 61.9 47.92 49.87 39.97 89.84 89.84 56.94 60.83 77.99 57.83 92.84 43.86 50.93 88.95
3.13 47.92 38.91 77.99 57.83 53.94 39.97 91.96 71.98 68.97 66.85 105.9 51.99 92.84 37.84 36.96 76.93
3.135 49.87 50.93 87.89 71.98 55.88 39.97 83.82 43.86 71.98 67.91 125.9 35.9 91.96 37.84 13.97 61.9
3.14 51.99 64.9 89.84 81.88 57.83 41.91 61.9 19.98 73.92 70.91 119.9 13.97 94.97 41.91 -6.013 44.92
3.145 49.87 68.97 73.92 81.88 55.88 45.98 26 0 79.93 71.98 79.93 0.8842 96.91 43.86 -34.13 21.93
3.15 43.86 55 47.92 63.84 49.87 43.86 -9.019 -7.074 87.89 71.98 9.903 -9.019 91.96 41.91 -59.07 0
3.155 31.83 28.83 15.92 31.83 37.84 33.95 -43.15 -13.09 87.89 61.9 -63.13 -13.09 75.87 29.89 -75.16 -11.14
3.16 15.92 2.83 -7.074 -2.122 21.93 17.86 -65.08 -19.1 71.98 41.91 -121.1 -9.019 49.87 13.97 -75.16 -21.04
3.165 1.945 -11.14 -25.11 -21.04 7.958 3.891 -71.09 -23.17 35.9 9.903 -143.1 0.8842 13.97 0.8842 -59.07 -29
3.17 0.8842 -11.14 -31.12 -27.06 0 0.8842 -63.13 -21.04 -7.074 -21.04 -131 7.958 -23.17 -15.03 -27.06 -41.03
3.175 0.8842 -1.061 -27.06 -15.03 1.945 0.8842 -45.1 -7.074 -55.18 -53.05 -95.14 17.86 -63.13 -27.06 5.836 -55.18
3.18 1.945 2.83 -15.03 -2.122 7.958 0 -21.04 7.958 -87.01 -73.04 -57.12 21.93 -95.14 -35.02 39.97 -69.15
3.185 5.836 2.83 -1.061 11.85 13.97 1.945 -2.122 29.89 -97.09 -75.16 -21.04 13.97 -109.1 -39.08 57.83 -73.04
3.19 1.945 -3.006 7.958 15.92 11.85 0.8842 19.98 43.86 -85.06 -63.13 0 0.8842 -103.1 -37.14 47.92 -63.13
3.195 -3.006 -13.09 19.98 13.97 3.891 -9.019 37.84 47.92 -57.12 -39.08 21.93 -23.17 -73.04 -27.06 13.97 -43.15
3.2 -15.03 -13.09 31.83 9.903 -3.006 -17.15 49.87 49.87 -25.11 -13.09 41.91 -37.14 -27.06 -13.09 -25.11 -19.1
3.205 -21.04 0.8842 39.97 11.85 -9.019 -19.1 57.83 51.99 0 3.891 53.94 -31.12 13.97 -2.122 -59.07 0.8842
3.21 -21.04 16.98 47.92 17.86 -9.019 -13.09 59.95 57.83 21.93 21.93 55.88 0.8842 51.99 13.97 -65.08 11.85
3.215 -15.03 34.84 51.99 23.87 -1.061 -3.006 55.88 57.83 33.95 31.83 47.92 43.86 79.93 29.89 -35.02 29.89
3.22 -5.128 40.85 51.99 23.87 1.945 5.836 43.86 50.93 41.91 39.97 30.95 89.84 95.85 47.92 15.92 51.99
3.225 1.945 36.96 47.92 13.97 9.903 17.86 23.87 30.95 49.87 45.98 12.91 115.8 107.9 65.96 73.92 77.99
3.23 15.92 28.83 37.84 1.945 15.92 27.94 -2.122 1.945 61.9 49.87 0.8842 111.9 115.8 77.99 111.9 97.97
3.235 29.89 20.87 27.94 -5.128 19.98 35.9 -22.11 -18.04 71.98 51.99 1.945 83.82 110.9 73.92 118 99.92
3.24 39.97 16.98 21.93 -13.09 26 35.9 -40.14 -36.08 72.86 43.86 0.8842 39.97 88.95 49.87 91.96 79.93
3.245 45.98 16.98 19.98 -17.15 29.89 27.94 -49.16 -49.16 59.95 29.89 1.945 -3.006 51.99 9.903 49.87 41.91
3.25 33.95 6.897 18.92 -21.04 27.94 15.92 -42.09 -51.11 32.89 6.897 -3.006 -47.04 6.897 -22.11 7.958 1.945
3.255 13.97 2.83 16.98 -26.17 19.98 3.891 -30.06 -49.16 2.83 -8.135 -35.02 -81.17 -26.17 -52.17 -19.1 -23.17
3.26 -1.061 -5.128 15.92 -27.06 9.903 0.8842 -17.15 -35.02 -15.03 -31.12 -73.04 -95.14 -51.11 -63.13 -31.12 -35.02
3.265 -11.14 2.83 14.85 -16.09 7.958 0.8842 -3.006 -12.03 -20.16 -42.09 -98.15 -89.13 -60.13 -56.06 -27.06 -34.13
3.27 -9.019 18.92 10.96 1.945 14.85 3.891 1.945 9.903 -18.04 -52.17 -105 -61.01 -57.12 -42.09 -23.17 -30.06
3.275 -2.122 36.96 5.836 13.97 19.98 9.903 3.891 27.94 -17.15 -61.01 -91.07 -27.06 -57.12 -31.12 -17.15 -33.07
3.28 8.842 38.91 0.8842 20.87 20.87 7.958 6.897 34.84 -21.04 -55.18 -61.01 0 -54.11 -19.1 -17.15 -36.08
3.285 10.96 24.94 -13.09 13.97 10.96 1.945 5.836 28.83 -30.06 -44.03 -28.12 15.92 -48.1 -7.074 -19.1 -35.02
3.29 7.958 -3.006 -19.1 -3.006 -1.061 -2.122 5.836 17.86 -33.07 -17.15 3.891 19.98 -29 7.958 -15.03 -25.11
3.295 9.903 -27.06 -12.03 -19.1 -11.14 1.945 9.903 11.85 -17.15 12.91 34.84 14.85 -2.122 28.83 -5.128 -2.122
3.3 8.842 -33.07 1.945 -26.17 -12.03 0.8842 19.98 14.85 1.945 40.85 62.96 7.958 15.92 42.97 0.8842 14.85
3.305 9.903 -19.1 26 -26.17 -3.006 4.952 31.83 22.99 23.87 50.93 76.93 -2.122 24.94 38.91 0.8842 23.87
3.31 2.83 2.83 43.86 -14.15 0 6.897 37.84 24.94 39.97 46.86 76.93 0.8842 11.85 14.85 -9.019 14.85
3.315 0.8842 18.92 50.93 1.945 -2.122 4.952 37.84 17.86 35.9 32.89 58.89 -2.122 -4.067 -7.074 -23.17 -1.061
3.32 -3.006 26.88 43.86 17.86 0 3.891 33.95 11.85 26 19.98 29.89 0.8842 -15.03 -25.11 -29 -3.006
3.325 4.952 36.96 33.95 47.92 8.842 13.97 29.89 14.85 30.95 22.99 6.897 7.958 -4.067 -21.04 -15.03 7.958
3.33 30.95 44.92 23.87 74.98 28.83 31.83 16.98 24.94 49.87 37.84 -1.061 27.94 18.92 0 9.903 38.91
3.335 59.95 50.93 9.903 89.84 51.99 47.92 1.945 37.84 79.93 51.99 -5.128 41.91 49.87 29.89 45.98 73.92
3.34 73.92 52.88 0 80.99 68.97 53.94 -11.14 39.97 98.86 58.89 -3.006 49.87 69.85 48.99 79.93 96.91
3.345 61.9 36.96 -14.15 38.91 61.9 45.98 -33.07 18.92 88.95 48.99 0 47.92 58.89 52.88 97.97 94.97
3.35 27.94 6.897 -27.06 -19.1 33.95 23.87 -51.11 -11.14 49.87 19.98 0.8842 35.9 23.87 35.9 101.9 67.91
3.355 -5.128 -13.09 -28.12 -76.04 -2.122 0 -54.11 -43.15 1.945 -18.04 3.891 21.93 -28.12 10.96 93.9 26
3.36 -27.06 -25.11 -18.04 -101.2 -25.11 -15.03 -40.14 -57.12 -56.06 -64.02 13.97 7.958 -92.14 -16.09 75.87 -15.03
3.365 -31.12 -21.04 -5.128 -93.02 -39.08 -25.11 -11.14 -47.04 -101.2 -103.1 17.86 0.8842 -151 -45.1 49.87 -61.01
3.37 -17.15 -3.006 7.958 -53.05 -37.14 -23.17 16.98 -20.16 -124.1 -123.1 18.92 -11.14 -184.1 -69.15 21.93 -99.03
3.375 -2.122 12.91 19.98 -9.019 -23.17 -19.1 42.97 0.8842 -127.2 -119 10.96 -23.17 -188.2 -83.12 -5.128 -127.2
3.38 13.97 24.94 23.87 19.98 -9.019 -11.14 51.99 15.92 -105 -91.07 0 -37.14 -159.2 -83.12 -35.02 -141.1
3.385 21.93 30.95 21.93 35.9 0 -3.006 39.97 20.87 -69.15 -45.1 -8.135 -53.05 -109.1 -71.09 -63.13 -141.1
3.39 26 26.88 15.92 33.95 11.85 1.945 17.86 10.96 -23.17 0.8842 -22.11 -73.04 -53.05 -49.16 -91.07 -121.1
3.395 26 16.98 7.958 23.87 19.98 9.903 0.8842 3.891 17.86 35.9 -33.07 -95.14 -5.128 -19.1 -111.1 -81.17
3.4 23.87 4.952 5.836 13.97 26 17.86 -11.14 -2.122 55.88 61.9 -39.08 -107.2 23.87 5.836 -121.1 -23.17
3.405 21.93 -1.061 7.958 7.958 26 19.98 -7.074 -2.122 77.99 69.85 -39.08 -103.1 47.92 33.95 -109.1 35.9
3.41 17.86 -3.006 13.97 7.958 19.98 19.98 -2.122 0 81.88 67.91 -31.12 -77.1 61.9 55.88 -73.04 89.84
3.415 17.86 0.8842 26 11.85 13.97 21.93 1.945 -2.122 75.87 57.83 -17.15 -35.02 69.85 67.91 -23.17 125.9
3.42 23.87 20.87 35.9 19.98 13.97 26 0.8842 0.8842 67.91 49.87 -1.061 5.836 69.85 67.91 26 136
3.425 35.9 44.92 43.86 33.95 23.87 37.84 -9.019 -1.061 65.96 47.92 5.836 43.86 63.84 61.9 63.84 127.9
3.43 49.87 64.9 47.92 51.99 43.86 51.99 -13.09 3.891 73.92 51.99 15.92 67.91 57.83 53.94 85.95 113.9
3.435 61.9 72.86 47.92 67.91 67.91 63.84 -3.006 23.87 87.89 59.95 23.87 83.82 53.94 45.98 91.96 99.92
3.44 65.96 66.85 43.86 77.99 85.95 67.91 15.92 53.94 101.9 65.96 33.95 99.92 55.88 39.97 95.85 85.95
3.445 63.84 46.86 37.84 75.87 89.84 61.9 39.97 87.89 105.9 61.9 47.92 119.9 57.83 31.83 105.9 69.85
3.45 51.99 18.92 29.89 61.9 75.87 45.98 55.88 110 93.9 47.92 65.96 137.9 49.87 17.86 121.8 43.86
3.455 33.95 -7.074 21.93 37.84 51.99 26 57.83 111.9 67.91 19.98 83.82 145.9 23.87 -1.061 136 5.836
3.46 13.97 -27.06 17.86 13.97 19.98 1.945 49.87 91.96 27.94 -11.14 95.85 136 -13.09 -25.11 137.9 -29
3.465 -1.061 -37.14 17.86 -1.061 -5.128 -13.09 45.98 59.95 -11.14 -49.16 97.97 105.9 -61.01 -43.15 118 -62.07
3.47 -19.1 -31.12 21.93 -7.074 -27.06 -27.06 47.92 29.89 -53.05 -77.1 89.84 61.9 -99.03 -45.1 77.99 -78.17
3.475 -29 -19.1 26 -3.006 -37.14 -35.02 53.94 11.85 -83.12 -87.01 77.99 13.97 -115.1 -31.12 19.98 -71.09
3.48 -29 -5.128 26.88 0 -37.14 -33.07 52.88 7.958 -91.07 -77.1 57.83 -23.17 -111.1 -11.14 -34.13 -50.05
3.485 -23.17 0.8842 18.92 3.891 -31.12 -27.06 36.96 3.891 -83.12 -55.18 34.84 -57.12 -92.14 1.945 -88.07 -22.11
3.49 -13.09 -3.006 5.836 0.8842 -23.17 -17.15 9.903 -1.061 -59.07 -25.11 9.903 -83.12 -69.15 9.903 -123.1 -3.006
3.495 -2.122 -3.006 2.83 -17.15 -16.09 -7.074 -6.013 -25.11 -27.06 1.945 -4.067 -91.07 -46.16 1.945 -132.1 3.891
3.5 -1.061 -1.061 14.85 -33.07 -10.08 0.8842 -14.15 -51.11 0 14.85 -12.03 -87.01 -30.06 -7.074 -112.1 3.891
3.505 1.945 6.897 35.9 -37.14 -3.006 5.836 -3.006 -75.16 17.86 27.94 -5.128 -67.02 -17.15 -15.03 -71.09 -1.061
3.51 6.897 22.99 61.9 -23.17 4.952 15.92 6.897 -79.05 34.84 42.97 18.92 -35.02 -4.067 -13.09 -15.03 -8.135
3.515 18.92 38.91 67.91 -1.061 22.99 30.95 13.97 -69.15 55 56.94 53.94 -7.074 7.958 -2.122 27.94 -10.08
3.52 35.9 38.91 49.87 15.92 43.86 45.98 7.958 -47.04 75.87 71.98 83.82 13.97 27.94 26 65.96 -7.074
3.525 57.83 24.94 20.87 27.94 65.96 58.89 0 -21.04 101 87.89 95.85 28.83 51.99 49.87 80.99 0.8842
3.53 71.98 6.897 -5.128 29.89 73.92 62.96 -8.135 1.945 115.8 89.84 84.89 30.95 70.91 59.95 71.98 15.92
3.535 69.85 -7.074 -21.04 23.87 71.98 55.88 -5.128 13.97 110 73.92 55.88 23.87 71.98 55.88 51.99 39.97
3.54 52.88 -13.09 -14.15 17.86 55 33.95 6.897 24.94 80.99 40.85 23.87 13.97 47.92 37.84 33.95 60.83
3.545 20.87 -13.09 0.8842 10.96 28.83 10.96 21.93 21.93 28.83 -1.061 8.842 -1.061 2.83 14.85 24.94 75.87
3.55 -4.067 -9.019 14.85 2.83 2.83 -7.074 28.83 12.91 -29 -51.11 11.85 -11.14 -46.16 0 21.93 78.87
3.555 -26.17 -3.006 14.85 -2.122 -14.15 -24.05 19.98 0 -82.06 -83.12 26.88 -16.09 -86.12 -6.013 26.88 73.92
3.56 -31.12 -5.128 1.945 -9.019 -22.11 -27.06 6.897 0 -104.2 -90.01 39.97 -7.074 -97.09 0.8842 23.87 62.96
3.565 -21.04 -11.14 -21.04 -15.03 -23.17 -23.17 0.8842 0.8842 -95.14 -69.15 37.84 3.891 -75.16 11.85 9.903 47.92
3.57 -7.074 -15.03 -33.07 -13.09 -15.03 -16.09 -2.122 10.96 -51.11 -29 20.87 26.88 -30.06 23.87 -1.061 33.95
3.575 1.945 -19.1 -24.05 -9.019 -11.14 -14.15 0 19.98 -6.013 3.891 0.8842 36.96 1.945 23.87 -18.04 12.91
3.58 -1.061 -19.1 -3.006 -5.128 -19.1 -21.04 -1.061 17.86 19.98 17.86 -11.14 27.94 15.92 9.903 -27.06 -15.03
3.585 -10.08 -15.03 21.93 -3.006 -32.01 -26.17 -1.061 3.891 26.88 16.98 -5.128 1.945 3.891 -9.019 -25.11 -54.11
3.59 -22.11 -11.14 45.98 0 -40.14 -29 -4.067 -7.074 18.92 6.897 8.842 -19.1 -18.04 -33.07 -11.14 -92.14
3.595 -25.11 -1.061 53.94 15.92 -35.02 -21.04 -1.061 -17.15 11.85 3.891 26 -49.16 -37.14 -47.04 -3.006 -117.1
3.6 -12.03 14.85 52.88 35.9 -12.03 -5.128 -1.061 -15.03 20.87 16.98 28.83 -73.04 -32.01 -49.16 -6.013 -115.1
3.605 4.952 34.84 48.99 55.88 12.91 9.903 1.945 -11.14 43.86 36.96 10.96 -95.14 -12.03 -37.14 -24.05 -93.02
3.61 23.87 48.99 35.9 61.9 37.84 21.93 -19.1 -9.019 69.85 57.83 -17.15 -115.1 9.903 -19.1 -45.1 -57.12
3.615 33.95 48.99 18.92 55.88 49.87 23.87 -50.05 -9.019 83.82 65.96 -46.16 -121.1 38.91 -2.122 -56.06 -6.013
3.62 27.94 34.84 -2.122 43.86 43.86 15.92 -74.1 -3.006 87.89 59.95 -61.01 -97.09 57.83 21.93 -44.03 44.92
3.625 9.903 4.952 -31.12 27.94 27.94 1.945 -75.16 13.97 77.99 47.92 -49.16 -43.15 71.98 45.98 -11.14 97.97
3.63 -7.074 -17.15 -51.11 13.97 7.958 -9.019 -39.08 41.91 59.95 29.89 -23.17 19.98 77.99 63.84 26 134.9
3.635 -23.17 -31.12 -53.05 1.945 -7.074 -23.17 11.85 63.84 33.95 7.958 1.945 75.87 65.96 69.85 57.83 148.9
3.64 -29 -35.02 -41.03 -7.074 -21.04 -31.12 49.87 67.91 0.8842 -19.1 19.98 99.92 29.89 57.83 69.85 130
3.645 -27.06 -33.07 -21.04 -19.1 -31.12 -33.07 51.99 47.92 -51.11 -55.18 26 87.89 -23.17 29.89 65.96 91.96
3.65 -23.17 -27.06 -5.128 -27.06 -31.12 -29 23.87 19.98 -105 -87.01 26 57.83 -83.12 1.945 53.94 47.92
3.655 -19.1 -21.04 0 -23.17 -23.17 -21.04 0.8842 3.891 -141.1 -99.03 29.89 31.83 -123.1 -11.14 47.92 17.86
3.66 -19.1 -15.03 3.891 -5.128 -11.14 -11.14 0.8842 13.97 -143.1 -85.06 41.91 26 -121.1 -13.09 45.98 11.85
3.665 -19.1 -7.074 1.945 15.92 -2.122 0.8842 33.95 45.98 -107.2 -45.1 57.83 37.84 -83.12 -2.122 45.98 21.93
3.67 -15.03 -1.061 -2.122 39.97 7.958 3.891 81.88 81.88 -49.16 -2.122 69.85 51.99 -21.04 17.86 39.97 33.95
3.675 -5.128 2.83 -1.061 51.99 11.85 9.903 105.9 101.9 5.836 37.84 73.92 55.88 29.89 29.89 27.94 33.95
3.68 1.945 4.952 0.8842 51.99 5.836 11.85 87.89 99.92 47.92 61.9 71.98 49.87 65.96 29.89 9.903 15.92
3.685 9.903 6.897 5.836 45.98 0 9.903 41.91 79.93 65.96 65.96 69.85 39.97 73.92 19.98 0.8842 -13.09
3.69 13.97 14.85 27.94 39.97 -2.122 5.836 -1.061 53.94 63.84 55.88 63.84 29.89 55.88 5.836 -11.14 -51.11
3.695 11.85 24.94 53.94 39.97 0 1.945 -31.12 29.89 49.87 37.84 47.92 15.92 23.87 0.8842 -21.04 -79.05
3.7 5.836 32.89 67.91 39.97 5.836 1.945 -41.03 4.952 31.83 17.86 17.86 -3.006 -5.128 0.8842 -35.02 -89.13
3.705 1.945 28.83 55.88 37.84 11.85 1.945 -47.04 -21.04 15.92 3.891 -17.15 -47.04 -29 1.945 -59.07 -79.05
3.71 1.945 16.98 22.99 31.83 15.92 5.836 -58 -54.11 3.891 1.945 -53.05 -103.1 -37.14 11.85 -83.12 -49.16
3.715 5.836 0.8842 -14.15 26 15.92 13.97 -70.03 -80.11 0 9.903 -75.16 -151 -29 19.98 -99.03 -5.128
3.72 13.97 -1.061 -43.15 21.93 17.86 19.98 -73.04 -89.13 -2.122 21.93 -75.16 -173.1 -11.14 27.94 -91.07 35.9
3.725 19.98 2.83 -48.1 19.98 17.86 23.87 -60.13 -72.15 0.8842 19.98 -61.01 -158.1 -1.061 29.89 -58 75.87
3.73 19.98 16.98 -34.13 17.86 15.92 19.98 -44.03 -39.08 -15.03 0.8842 -41.03 -114.1 1.945 26 -10.08 96.91
3.735 9.903 20.87 -19.1 5.836 5.836 9.903 -43.15 -15.03 -45.1 -41.03 -15.03 -59.07 -15.03 13.97 31.83 89.84
3.74 -3.006 8.842 -10.08 -9.019 -7.074 -3.006 -51.11 -5.128 -82.06 -89.13 7.958 -6.013 -38.02 0 66.85 62.96
3.745 -21.04 -9.019 -11.14 -31.12 -31.12 -21.04 -61.01 -6.013 -112.1 -113 37.84 26.88 -54.11 -22.11 80.99 26.88
3.75 -31.12 -31.12 -15.03 -45.1 -47.04 -31.12 -45.1 -11.14 -121.1 -97.09 73.92 51.99 -47.04 -35.02 81.88 -2.122
3.755 -27.06 -29 -9.019 -39.08 -48.1 -27.06 0 1.945 -98.15 -47.04 101.9 77.99 -13.09 -28.12 83.82 -2.122
3.76 -19.1 -9.019 8.842 -19.1 -38.02 -16.09 45.98 29.89 -54.11 5.836 118 95.85 17.86 -6.013 79.93 10.96
3.765 -11.14 8.842 31.83 1.945 -21.04 -9.019 69.85 63.84 -13.09 41.91 115.8 104 47.92 17.86 65.96 26
3.77 -10.08 22.99 51.99 20.87 -8.135 -8.135 59.95 78.87 7.958 46.86 104 90.9 50.93 43.86 44.92 31.83
3.775 -20.16 20.87 61.9 20.87 -10.08 -14.15 30.95 61.9 3.891 20.87 85.95 53.94 31.83 50.93 13.97 20.87
3.78 -33.07 8.842 59.95 7.958 -25.11 -31.12 9.903 26 -7.074 -5.128 71.98 9.903 1.945 35.9 -17.15 -1.061
3.785 -37.14 2.83 60.83 1.945 -36.08 -39.08 21.93 -3.006 -20.16 -13.09 58.89 -18.04 -13.09 12.91 -43.15 -23.17
3.79 -35.02 12.91 62.96 1.945 -35.02 -37.14 50.93 -22.11 -17.15 -1.061 45.98 -33.07 -16.09 -4.067 -51.11 -31.12
3.795 -20.16 32.89 73.92 11.85 -18.04 -22.11 73.92 -18.04 -1.061 15.92 27.94 -29 -5.128 -18.04 -52.17 -27.06
3.8 1.945 58.89 86.83 39.97 3.891 -3.006 68.97 1.945 19.98 35.9 15.92 -17.15 4.952 -22.11 -43.15 -15.03
3.805 19.98 76.93 101 69.85 26.88 11.85 39.97 21.93 40.85 37.84 6.897 -12.03 15.92 -22.11 -43.15 -7.074
3.81 35.9 82.94 105.9 87.89 41.91 21.93 5.836 35.9 49.87 27.94 7.958 -11.14 17.86 -25.11 -45.1 -7.074
3.815 44.92 82.94 105.9 90.9 46.86 30.95 1.945 43.86 51.99 16.98 26 -9.019 17.86 -28.12 -41.03 -10.08
3.82 42.97 78.87 89.84 78.87 44.92 30.95 7.958 50.93 43.86 2.83 53.94 1.945 16.98 -33.07 -28.12 -15.03
3.825 29.89 68.97 61.9 53.94 35.9 23.87 19.98 51.99 19.98 -11.14 83.82 5.836 5.836 -41.03 -5.128 -15.03
3.83 9.903 52.88 30.95 26 20.87 8.842 23.87 45.98 -8.135 -39.08 101.9 15.92 -13.09 -46.16 19.98 -12.03
3.835 -11.14 22.99 1.945 -2.122 -1.061 -11.14 8.842 31.83 -52.17 -79.05 101.9 21.93 -45.1 -48.1 45.98 -10.08
3.84 -37.14 -11.14 -13.09 -23.17 -27.06 -41.03 -3.006 7.958 -99.03 -115.1 83.82 13.97 -83.12 -47.04 59.95 -5.128
3.845 -59.07 -43.15 -19.1 -43.15 -55.18 -63.13 -17.15 -4.067 -132.1 -131 57.83 6.897 -104.2 -34.13 68.97 2.83
3.85 -69.15 -65.08 -30.06 -59.07 -71.09 -69.15 -23.17 -15.03 -140.1 -121.1 31.83 0.8842 -100.1 -14.15 68.97 18.92
3.855 -71.09 -79.05 -47.04 -75.16 -73.04 -63.13 -41.03 -15.03 -121.1 -85.06 7.958 -2.122 -71.09 1.945 57.83 33.95
3.86 -63.13 -79.05 -64.02 -87.01 -61.01 -45.1 -64.02 -9.019 -79.05 -41.03 -3.006 -2.122 -26.17 17.86 44.92 44.92
3.865 -49.16 -75.16 -84 -93.02 -43.15 -29 -88.07 -10.08 -31.12 -3.006 -15.03 -6.013 10.96 26 24.94 41.91
3.87 -33.07 -63.13 -89.13 -87.01 -29 -21.04 -95.14 -11.14 3.891 13.97 -25.11 -11.14 37.84 23.87 0 23.87
3.875 -19.1 -47.04 -72.15 -69.15 -17.15 -15.03 -74.1 -8.135 29.89 21.93 -27.06 -11.14 49.87 19.98 -17.15 0
3.88 -9.019 -27.06 -36.08 -45.1 -11.14 -13.09 -30.06 0 43.86 21.93 -21.04 -3.006 55.88 19.98 -29 -17.15
3.885 -7.074 -5.128 -1.061 -21.04 -5.128 -5.128 1.945 1.945 47.92 21.93 -5.128 3.891 57.83 26 -35.02 -29
3.89 -7.074 10.96 21.93 -3.006 0 3.891 21.93 14.85 55.88 27.94 7.958 9.903 63.84 33.95 -33.07 -25.11
3.895 -3.006 22.99 33.95 5.836 15.92 19.98 21.93 21.93 67.91 39.97 19.98 9.903 71.98 43.86 -31.12 -15.03
3.9 7.958 30.95 29.89 19.98 33.95 35.9 13.97 27.94 81.88 51.99 17.86 3.891 75.87 45.98 -33.07 -5.128
3.905 31.83 36.96 15.92 37.84 53.94 45.98 9.903 31.83 89.84 55.88 3.891 -1.061 67.91 35.9 -39.08 -3.006
3.91 51.99 42.97 3.891 55.88 67.91 47.92 13.97 37.84 79.93 39.97 -9.019 -15.03 41.91 19.98 -47.04 -15.03
3.915 61.9 52.88 -2.122 67.91 69.85 41.91 19.98 43.86 47.92 5.836 -23.17 -27.06 1.945 -2.122 -47.04 -29
3.92 55.88 56.94 -2.122 67.91 59.95 29.89 23.87 43.86 0 -31.12 -31.12 -37.14 -39.08 -13.09 -33.07 -37.14
3.925 35.9 52.88 1.945 53.94 39.97 13.97 26 39.97 -41.03 -63.13 -27.06 -37.14 -73.04 -15.03 -7.074 -33.07
3.93 11.85 34.84 9.903 31.83 15.92 -2.122 27.94 33.95 -71.09 -73.04 -13.09 -23.17 -83.12 -3.006 19.98 -15.03
3.935 -3.006 8.842 9.903 9.903 -3.006 -9.019 31.83 23.87 -77.1 -57.12 3.891 0.8842 -67.02 9.903 47.92 1.945
3.94 -15.03 -15.03 3.891 -3.006 -19.1 -17.15 31.83 19.98 -63.13 -25.11 26 26 -37.14 27.94 63.84 17.86
3.945 -23.17 -35.02 -7.074 -17.15 -29 -21.04 26 19.98 -39.08 1.945 43.86 49.87 -3.006 33.95 61.9 23.87
3.95 -29 -43.15 -25.11 -23.17 -35.02 -23.17 15.92 26 -15.03 21.93 51.99 67.91 17.86 29.89 53.94 19.98
3.955 -35.02 -39.08 -35.02 -25.11 -35.02 -21.04 9.903 38.91 0 27.94 49.87 74.98 35.9 19.98 46.86 11.85
3.96 -37.14 -29 -31.12 -19.1 -31.12 -15.03 19.98 50.93 15.92 26 37.84 76.93 43.86 9.903 42.97 4.952
3.965 -33.07 -19.1 -17.15 -9.019 -21.04 -9.019 45.98 49.87 27.94 21.93 21.93 65.96 47.92 1.945 35.9 0.8842
3.97 -26.17 -15.03 -7.074 -5.128 -12.03 -3.006 76.93 38.91 31.83 19.98 1.945 46.86 41.91 0.8842 24.94 -10.08
3.975 -20.16 -17.15 -8.135 -9.019 -8.135 -2.122 84.89 8.842 30.95 15.92 -15.03 10.96 24.94 -7.074 6.897 -24.05
3.98 -25.11 -27.06 -25.11 -21.04 -15.03 -5.128 63.84 -23.17 15.92 7.958 -35.02 -25.11 0 -11.14 -11.14 -39.08
3.985 -28.12 -37.14 -38.02 -33.07 -16.09 -10.08 20.87 -52.17 0.8842 -2.122 -51.11 -55.18 -16.09 -11.14 -19.1 -44.03
3.99 -30.06 -39.08 -36.08 -35.02 -16.09 -10.08 -18.04 -59.07 -2.122 -3.006 -55.18 -67.02 -24.05 -4.067 -27.06 -39.08
3.995 -23.17 -31.12 -15.03 -21.04 -5.128 0.8842 -45.1 -49.16 -1.061 -7.074 -49.16 -61.01 -19.1 0 -25.11 -31.12
4 0 -5.128 18.92 0.8842 11.85 16.98 -39.08 -27.06 -1.061 -7.074 -28.12 -40.14 -4.067 8.842 -22.11 -19.1
4.005 26 26.88 53.94 17.86 29.89 37.84 -13.09 0 -1.061 -9.019 -2.122 -20.16 0.8842 2.83 -26.17 -14.15
4.01 51.99 64.9 67.91 37.84 49.87 49.87 19.98 13.97 -9.019 -13.09 17.86 -3.006 -2.122 -5.128 -33.07 -15.03
4.015 70.91 94.97 63.84 53.94 60.83 53.94 50.93 31.83 -25.11 -21.04 40.85 6.897 -9.019 -22.11 -24.05 -13.09
4.02 72.86 101 48.99 61.9 55.88 48.99 71.98 55.88 -38.02 -31.12 58.89 31.83 -20.16 -29 0 -6.013
4.025 53.94 82.94 29.89 57.83 37.84 29.89 77.99 71.98 -47.04 -37.14 67.91 59.95 -25.11 -31.12 29.89 7.958
4.03 24.94 42.97 9.903 35.9 9.903 5.836 72.86 77.99 -47.04 -38.02 63.84 81.88 -15.03 -17.15 65.96 31.83
4.035 -9.019 -1.061 -5.128 0.8842 -18.04 -13.09 51.99 60.83 -45.1 -29 50.93 90.9 1.945 0.8842 89.84 50.93
4.04 -44.03 -45.1 -26.17 -36.08 -46.16 -32.01 21.93 23.87 -43.15 -17.15 29.89 75.87 15.92 11.85 97.97 56.94
4.045 -69.15 -77.1 -55.18 -74.1 -68.09 -45.1 -9.019 -12.03 -41.03 -1.061 8.842 44.92 31.83 17.86 93.9 46.86
4.05 -78.17 -93.02 -77.1 -95.14 -75.16 -49.16 -32.01 -47.04 -37.14 6.897 3.891 13.97 31.83 21.93 87.89 26
4.055 -71.09 -93.02 -89.13 -97.09 -75.16 -49.16 -35.02 -65.08 -35.02 11.85 11.85 0.8842 15.92 17.86 87.89 1.945
4.06 -58 -83.12 -84 -85.06 -71.09 -46.16 -15.03 -57.12 -34.13 3.891 24.94 -3.006 1.945 9.903 88.95 -14.15
4.065 -46.16 -65.08 -65.08 -69.15 -62.07 -49.16 2.83 -45.1 -33.07 -3.006 28.83 -4.067 -21.04 -1.061 80.99 -31.12
4.07 -43.15 -51.11 -39.08 -53.05 -57.12 -45.1 7.958 -35.02 -35.02 -15.03 7.958 -11.14 -31.12 -7.074 53.94 -51.11
4.075 -43.15 -37.14 -21.04 -37.14 -43.15 -33.07 -17.15 -36.08 -28.12 -15.03 -28.12 -36.08 -30.06 -10.08 6.897 -66.14
4.08 -42.09 -31.12 -20.16 -23.17 -21.04 -12.03 -69.15 -47.04 -22.11 -3.006 -78.17 -76.04 -24.05 -8.135 -50.05 -75.16
4.085 -31.12 -27.06 -31.12 -9.019 0 7.958 -121.1 -63.13 -13.09 11.85 -115.1 -121.1 -21.04 -1.061 -105 -71.09
4.09 -4.067 -21.04 -46.16 0.8842 24.94 34.84 -134 -75.16 -8.135 23.87 -127.2 -145 -18.04 8.842 -141.1 -51.11
4.095 20.87 -15.03 -58 -2.122 40.85 48.99 -106.1 -80.11 -10.08 23.87 -113 -151 -24.05 24.94 -147.1 -26.17
4.1 43.86 -7.074 -57.12 0 39.97 45.98 -53.05 -73.04 -21.04 5.836 -89.13 -133.2 -35.02 31.83 -139.2 -5.128
4.105 52.88 -5.128 -46.16 0.8842 28.83 28.83 -8.135 -56.06 -32.01 -13.09 -71.09 -102 -42.09 31.83 -118.1 2.83
4.11 40.85 -7.074 -33.07 -3.006 8.842 3.891 2.83 -36.08 -39.08 -35.02 -55.18 -72.15 -47.04 21.93 -98.15 0.8842
4.115 19.98 -17.15 -21.04 -11.14 -5.128 -11.14 -5.128 -21.04 -35.02 -43.15 -43.15 -43.15 -45.1 5.836 -79.05 -1.061
4.12 3.891 -27.06 -9.019 -15.03 -15.03 -15.03 -17.15 -2.122 -23.17 -35.02 -21.04 -12.03 -35.02 -3.006 -46.16 -2.122
4.125 0 -27.06 0 -13.09 -9.019 -5.128 -1.061 16.98 -3.006 -13.09 9.903 16.98 -15.03 -13.09 1.945 1.945
4.13 11.85 -15.03 15.92 -3.006 1.945 5.836 35.9 45.98 15.92 9.903 49.87 59.95 7.958 -11.14 53.94 17.86
4.135 29.89 2.83 26 7.958 23.87 21.93 83.82 77.99 43.86 35.9 79.93 101.9 39.97 -1.061 105.9 27.94
4.14 45.98 20.87 27.94 23.87 39.97 26 104 101.9 69.85 53.94 85.95 125.9 59.95 5.836 131.9 26
4.145 47.92 28.83 15.92 27.94 41.91 17.86 81.88 105.9 83.82 55.88 67.91 119.9 61.9 9.903 124 5.836
4.15 35.9 20.87 -1.061 11.85 29.89 1.945 27.94 79.93 79.93 45.98 33.95 81.88 37.84 5.836 87.89 -15.03
4.155 11.85 0.8842 -23.17 -13.09 3.891 -9.019 -21.04 33.95 57.83 27.94 -2.122 23.87 3.891 0 39.97 -31.12
4.16 -7.074 -17.15 -39.08 -47.04 -19.1 -23.17 -49.16 -13.09 23.87 11.85 -25.11 -31.12 -19.1 -2.122 0 -29
4.165 -23.17 -35.02 -43.15 -73.04 -39.08 -27.06 -47.04 -57.12 -1.061 3.891 -39.08 -75.16 -31.12 5.836 -19.1 -13.09
4.17 -23.17 -45.1 -41.03 -81.17 -47.04 -23.17 -33.07 -85.06 -19.1 0 -43.15 -99.03 -29 17.86 -29 -2.122
4.175 -11.14 -45.1 -35.02 -75.16 -41.03 -15.03 -25.11 -95.14 -31.12 -7.074 -43.15 -105 -31.12 17.86 -35.02 -3.006
4.18 0 -39.08 -31.12 -61.01 -29 -9.019 -35.02 -97.09 -45.1 -31.12 -41.03 -107.2 -51.11 -2.122 -41.03 -31.12
4.185 11.85 -33.07 -27.06 -47.04 -15.03 -7.074 -53.05 -97.09 -73.04 -67.02 -37.14 -109.1 -93.02 -39.08 -55.18 -77.1
4.19 13.97 -23.17 -19.1 -35.02 -9.019 -9.019 -63.13 -93.02 -107.2 -99.03 -33.07 -111.1 -141.1 -89.13 -71.09 -117.1
4.195 9.903 -11.14 -7.074 -27.06 -5.128 -11.14 -53.05 -79.05 -135.1 -111.1 -23.17 -109.1 -165.2 -119 -87.01 -131
4.2 3.891 -1.061 -2.122 -19.1 -1.061 -7.074 -25.11 -52.17 -133.2 -91.07 -17.15 -91.07 -147.1 -119 -99.03 -116
4.205 3.891 10.96 0 -10.08 0 0.8842 3.891 -14.15 -97.09 -45.1 -15.03 -61.01 -89.13 -88.07 -107.2 -80.11
4.21 5.836 12.91 -3.006 -5.128 3.891 7.958 26 15.92 -41.03 -2.122 -21.04 -27.06 -15.03 -41.03 -111.1 -41.03
4.215 3.891 0.8842 -21.04 -4.067 3.891 9.903 30.95 36.96 5.836 29.89 -33.07 0.8842 39.97 -1.061 -105 -10.08
4.22 -5.128 -21.04 -41.03 -18.04 -3.006 0 16.98 34.84 31.83 33.95 -43.15 5.836 61.9 24.94 -87.01 2.83
4.225 -31.12 -51.11 -55.18 -47.04 -27.06 -21.04 0.8842 11.85 17.86 13.97 -43.15 5.836 43.86 26 -51.11 13.97
4.23 -59.07 -73.04 -60.13 -76.04 -59.07 -51.11 -16.09 -12.03 -15.03 -13.09 -28.12 3.891 7.958 20.87 -3.006 23.87
4.235 -79.05 -81.17 -58 -101.2 -89.13 -77.1 -18.04 -35.02 -57.12 -39.08 -6.013 7.958 -23.17 10.96 39.97 31.83
4.24 -85.06 -75.16 -55.18 -117.1 -105 -85.06 -9.019 -45.1 -85.06 -49.16 7.958 21.93 -47.04 1.945 73.92 31.83
4.245 -74.1 -59.07 -48.1 -111.1 -101.2 -76.04 1.945 -43.15 -91.07 -47.04 12.91 26.88 -51.11 0.8842 84.89 16.98
4.25 -58 -47.04 -36.08 -88.07 -83.12 -56.06 5.836 -34.13 -72.15 -37.14 2.83 14.85 -47.04 -1.061 74.98 0.8842
4.255 -37.14 -35.02 -25.11 -59.07 -55.18 -33.07 -3.006 -29 -43.15 -19.1 -11.14 -9.019 -41.03 -3.006 51.99 -27.06
4.26 -14.15 -19.1 -5.128 -27.06 -26.17 -12.03 -20.16 -29 -8.135 -3.006 -25.11 -44.03 -37.14 -7.074 32.89 -51.11
4.265 -1.061 0.8842 3.891 -4.067 -8.135 1.945 -35.02 -29 10.96 7.958 -35.02 -74.1 -33.07 -16.09 18.92 -73.04
4.27 11.85 10.96 15.92 5.836 -1.061 3.891 -37.14 -33.07 13.97 13.97 -29 -87.01 -35.02 -31.12 13.97 -95.14
4.275 18.92 28.83 19.98 17.86 -1.061 6.897 -18.04 -33.07 3.891 10.96 -17.15 -79.05 -38.02 -49.16 10.96 -113
4.28 16.98 36.96 24.94 32.89 2.83 6.897 2.83 -28.12 -11.14 1.945 -6.013 -56.06 -41.03 -65.08 3.891 -123.1
4.285 15.92 34.84 28.83 46.86 10.96 8.842 19.98 -15.03 -22.11 -9.019 0 -33.07 -41.03 -69.15 -4.067 -108.1
4.29 20.87 36.96 32.89 58.89 22.99 14.85 22.99 4.952 -13.09 -15.03 8.842 -14.15 -31.12 -57.12 -19.1 -73.04
4.295 32.89 38.91 35.9 65.96 36.96 20.87 14.85 31.83 9.903 -16.09 15.92 -3.006 -18.04 -29 -36.08 -23.17
4.3 43.86 44.92 29.89 61.9 37.84 19.98 5.836 51.99 37.84 -15.03 11.85 -3.006 -5.128 -7.074 -57.12 15.92
4.305 50.93 42.97 19.98 44.92 30.95 14.85 11.85 53.94 55 -9.019 0.8842 -10.08 -2.122 6.897 -74.1 47.92
4.31 42.97 30.95 3.891 19.98 8.842 -1.061 26.88 31.83 38.91 -9.019 -25.11 -24.05 0.8842 13.97 -88.07 57.83
4.315 19.98 4.952 -9.019 -3.006 -15.03 -19.1 45.98 -2.122 0 -15.03 -53.05 -39.08 -9.019 11.85 -89.13 55.88
4.32 0 -19.1 -20.16 -22.11 -39.08 -38.02 59.95 -32.01 -32.01 -23.17 -66.14 -42.09 -13.09 9.903 -68.09 57.83
4.325 -24.05 -43.15 -28.12 -27.06 -53.05 -48.1 49.87 -51.11 -53.05 -25.11 -58 -36.08 -9.019 11.85 -36.08 60.83
4.33 -43.15 -51.11 -27.06 -23.17 -55.18 -47.04 15.92 -51.11 -51.11 -19.1 -37.14 -19.1 -2.122 9.903 0.8842 59.95
4.335 -49.16 -35.02 -20.16 -11.14 -45.1 -37.14 -16.09 -37.14 -29 -9.019 -8.135 -2.122 11.85 4.952 26 49.87
4.34 -43.15 -5.128 -8.135 -2.122 -31.12 -25.11 -42.09 -18.04 -5.128 -3.006 10.96 17.86 21.93 -6.013 45.98 26
4.345 -27.06 16.98 3.891 0 -17.15 -15.03 -37.14 -1.061 7.958 -3.006 26 33.95 21.93 -25.11 55.88 -3.006
4.35 -7.074 34.84 26 12.91 -7.074 -11.14 -1.061 8.842 11.85 -7.074 37.84 41.91 11.85 -40.14 61.9 -38.02
4.355 7.958 44.92 45.98 28.83 -1.061 -9.019 46.86 20.87 5.836 -11.14 47.92 41.91 0 -44.03 63.84 -64.02
4.36 17.86 48.99 59.95 43.86 0 -7.074 77.99 26 0.8842 -7.074 53.94 35.9 -5.128 -41.03 57.83 -75.16
4.365 17.86 52.88 61.9 55 3.891 -3.006 69.85 16.98 -3.006 0.8842 45.98 17.86 -11.14 -30.06 37.84 -80.11
4.37 9.903 52.88 49.87 47.92 7.958 -1.061 26 -2.122 -7.074 3.891 19.98 -9.019 -15.03 -19.1 5.836 -76.04
4.375 -2.122 48.99 29.89 26 7.958 -3.006 -31.12 -37.14 -11.14 1.945 -9.019 -51.11 -23.17 -7.074 -29 -73.04
4.38 -5.128 34.84 7.958 0.8842 3.891 -7.074 -77.1 -69.15 -19.1 -7.074 -43.15 -93.02 -33.07 -2.122 -63.13 -63.13
4.385 -9.019 18.92 -3.006 -21.04 -2.122 -13.09 -85.06 -85.06 -31.12 -29 -67.02 -125 -41.03 7.958 -87.01 -47.04
4.39 -3.006 4.952 -13.09 -25.11 -3.006 -15.03 -61.01 -79.05 -47.04 -51.11 -77.1 -143.1 -47.04 15.92 -101.2 -23.17
4.395 1.945 -1.061 -15.03 -13.09 -1.061 -11.14 -19.1 -57.12 -59.07 -61.01 -79.05 -145 -45.1 21.93 -109.1 1.945
4.4 11.85 0.8842 -11.14 1.945 0 -1.061 9.903 -29 -63.13 -53.05 -79.05 -133.2 -35.02 27.94 -113 33.95
4.405 19.98 8.842 -1.061 23.87 13.97 7.958 26 -5.128 -49.16 -25.11 -71.09 -107.2 -15.03 29.89 -107.2 65.96
4.41 23.87 16.98 11.85 39.97 31.83 23.87 27.94 11.85 -19.1 7.958 -49.16 -67.02 9.903 35.9 -87.01 95.85
4.415 26 24.94 31.83 51.99 49.87 39.97 27.94 35.9 19.98 43.86 -13.09 -15.03 45.98 45.98 -47.04 119.9
4.42 29.89 32.89 49.87 59.95 63.84 51.99 35.9 67.91 63.84 67.91 21.93 39.97 81.88 55.88 0 131.9
4.425 35.9 42.97 57.83 63.84 69.85 55.88 53.94 97.97 93.9 73.92 51.99 91.96 110 59.95 49.87 130
4.43 39.97 50.93 49.87 59.95 65.96 49.87 65.96 115.8 101.9 59.95 57.83 124 118 57.83 81.88 111.9
4.435 35.9 44.92 27.94 41.91 47.92 31.83 63.84 111.9 85.95 37.84 47.92 127.9 107.9 45.98 91.96 83.82
4.44 23.87 22.99 -2.122 15.92 23.87 11.85 41.91 83.82 57.83 17.86 31.83 105.9 81.88 31.83 87.89 55.88
4.445 7.958 -5.128 -21.04 -13.09 1.945 0.8842 5.836 39.97 26 5.836 23.87 69.85 51.99 17.86 79.93 35.9
4.45 -2.122 -33.07 -35.02 -39.08 -7.074 -7.074 -21.04 -2.122 -2.122 0 27.94 33.95 21.93 9.903 71.98 21.93
4.455 0.8842 -51.11 -41.03 -57.12 -11.14 -9.019 -39.08 -25.11 -21.04 -5.128 35.9 3.891 -1.061 5.836 63.84 7.958
4.46 -2.122 -49.16 -46.16 -67.02 -14.15 -13.09 -44.03 -42.09 -43.15 -25.11 34.84 -15.03 -33.07 0 47.92 -5.128
4.465 -1.061 -39.08 -54.11 -69.15 -22.11 -24.05 -42.09 -50.05 -69.15 -53.05 18.92 -38.02 -65.08 -3.006 23.87 -29
4.47 -17.15 -29 -63.13 -69.15 -37.14 -41.03 -47.04 -57.12 -95.14 -77.1 -3.006 -65.08 -95.14 -11.14 0.8842 -49.16
4.475 -38.02 -21.04 -68.09 -67.02 -48.1 -48.1 -60.13 -60.13 -113 -81.17 -26.17 -82.06 -107.2 -13.09 -25.11 -53.05
4.48 -46.16 -19.1 -64.02 -59.07 -44.03 -38.02 -80.11 -62.07 -111.1 -59.07 -36.08 -88.07 -93.02 -3.006 -41.03 -44.03
4.485 -33.07 -19.1 -55.18 -47.04 -19.1 -11.14 -97.09 -57.12 -83.12 -17.15 -35.02 -79.05 -57.12 7.958 -51.11 -27.06
4.49 2.83 -9.019 -35.02 -30.06 17.86 20.87 -97.09 -43.15 -42.09 21.93 -26.17 -60.13 -7.074 21.93 -59.07 -8.135
4.495 42.97 2.83 -25.11 -14.15 53.94 48.99 -81.17 -25.11 0.8842 53.94 -19.1 -38.02 35.9 31.83 -65.08 -1.061
4.5 65.96 6.897 -7.074 -2.122 75.87 57.83 -53.05 -7.074 35.9 63.84 -15.03 -25.11 65.96 35.9 -73.04 3.891
4.505 65.96 18.92 4.952 16.98 76.93 49.87 -18.04 10.96 52.88 55.88 -12.03 -19.1 72.86 34.84 -75.16 12.91
4.51 45.98 32.89 27.94 39.97 59.95 34.84 9.903 33.95 48.99 33.95 -10.08 -18.04 64.9 34.84 -70.03 19.98
4.515 26 44.92 47.92 57.83 41.91 19.98 33.95 53.94 27.94 15.92 -1.061 -15.03 47.92 33.95 -57.12 21.93
4.52 18.92 55 57.83 66.85 34.84 15.92 49.87 71.98 4.952 2.83 2.83 -3.006 33.95 33.95 -38.02 27.94
4.525 19.98 55 52.88 56.94 36.96 20.87 53.94 77.99 -8.135 0.8842 15.92 8.842 20.87 30.95 -17.15 28.83
4.53 21.93 38.91 29.89 31.83 44.92 29.89 52.88 70.91 -13.09 7.958 24.94 33.95 17.86 33.95 4.952 38.91
4.535 15.92 16.98 8.842 4.952 46.86 32.89 51.99 61.9 -4.067 16.98 35.9 55 24.94 36.96 33.95 58.89
4.54 2.83 0.8842 -1.061 -8.135 42.97 29.89 45.98 53.94 12.91 28.83 46.86 69.85 39.97 45.98 64.9 85.95
4.545 -3.006 -13.09 -1.061 -13.09 29.89 15.92 35.9 43.86 29.89 26 55.88 75.87 55.88 47.92 91.96 97.97
4.55 -11.14 -15.03 1.945 -7.074 9.903 2.83 23.87 37.84 38.91 15.92 62.96 68.97 64.9 44.92 112.8 93.9
4.555 -15.03 -11.14 6.897 -6.013 -8.135 -11.14 0.8842 18.92 28.83 -2.122 58.89 51.99 58.89 28.83 115.8 60.83
4.56 -25.11 -13.09 -2.122 -17.15 -29 -29 -19.1 0.8842 -2.122 -21.04 51.99 39.97 41.91 0 105.9 13.97
4.565 -34.13 -13.09 -11.14 -30.06 -41.03 -38.02 -33.07 -11.14 -26.17 -33.07 45.98 32.89 15.92 -19.1 89.84 -26.17
4.57 -34.13 -19.1 -25.11 -32.01 -37.14 -36.08 -31.12 -9.019 -52.17 -37.14 44.92 38.91 0.8842 -37.14 73.92 -62.07
4.575 -25.11 -21.04 -29 -21.04 -25.11 -21.04 -17.15 5.836 -59.07 -29 47.92 49.87 -13.09 -45.1 61.9 -87.01
4.58 -4.067 -9.019 -16.09 0 -4.067 -2.122 4.952 38.91 -47.04 -17.15 52.88 58.89 -21.04 -39.08 51.99 -98.15
4.585 12.91 -1.061 -2.122 19.98 6.897 10.96 20.87 55 -29 -11.14 55 58.89 -27.06 -33.07 43.86 -101.2
4.59 19.98 6.897 -1.061 21.93 7.958 11.85 9.903 41.91 -17.15 -11.14 43.86 37.84 -33.07 -25.11 27.94 -91.07
4.595 7.958 -1.061 -16.09 -1.061 0 0.8842 -18.04 -1.061 -17.15 -13.09 22.99 8.842 -37.14 -15.03 7.958 -65.08
4.6 -11.14 -15.03 -42.09 -41.03 -22.11 -13.09 -70.03 -50.05 -31.12 -13.09 1.945 -25.11 -29 -5.128 -13.09 -25.11
4.605 -35.02 -43.15 -67.02 -71.09 -39.08 -25.11 -117.1 -89.13 -49.16 -9.019 -23.17 -59.07 -11.14 0 -39.08 7.958
4.61 -41.03 -61.01 -73.04 -75.16 -41.03 -25.11 -137.1 -95.14 -63.13 -1.061 -37.14 -83.12 5.836 5.836 -65.08 31.83
4.615 -29 -57.12 -57.12 -53.05 -27.06 -9.019 -127.2 -69.15 -65.08 1.945 -41.03 -87.01 27.94 7.958 -83.12 35.9
4.62 -5.128 -35.02 -27.06 -13.09 0.8842 9.903 -89.13 -23.17 -49.16 13.97 -37.14 -73.04 43.86 5.836 -97.09 21.93
4.625 19.98 -3.006 0.8842 23.87 26 35.9 -41.03 21.93 -23.17 26 -35.02 -41.03 55.88 1.945 -103.1 0
4.63 41.91 20.87 5.836 53.94 51.99 51.99 0.8842 61.9 0 39.97 -37.14 -1.061 63.84 0.8842 -103.1 -17.15
4.635 53.94 36.96 0 69.85 67.91 57.83 21.93 85.95 23.87 49.87 -43.15 27.94 65.96 -3.006 -93.02 -29
4.64 55.88 36.96 -11.14 73.92 71.98 53.94 29.89 91.96 33.95 53.94 -45.1 49.87 63.84 -5.128 -73.04 -33.07
4.645 45.98 24.94 -21.04 65.96 61.9 39.97 29.89 83.82 33.95 51.99 -33.07 55.88 57.83 -1.061 -41.03 -25.11
4.65 27.94 10.96 -19.1 53.94 39.97 21.93 23.87 69.85 26 43.86 -11.14 47.92 53.94 3.891 -3.006 -9.019
4.655 5.836 -1.061 -1.061 35.9 13.97 5.836 19.98 49.87 11.85 31.83 11.85 31.83 47.92 15.92 27.94 1.945
4.66 -7.074 -1.061 21.93 17.86 -5.128 0.8842 13.97 29.89 -1.061 13.97 31.83 11.85 37.84 21.93 51.99 9.903
4.665 -13.09 2.83 47.92 7.958 -17.15 -3.006 7.958 9.903 -27.06 -1.061 41.91 -5.128 17.86 15.92 61.9 5.836
4.67 -5.128 22.99 67.91 13.97 -15.03 0.8842 5.836 -2.122 -55.18 -21.04 43.86 -23.17 -5.128 -2.122 57.83 -5.128
4.675 7.958 52.88 79.93 37.84 -2.122 7.958 13.97 0 -77.1 -33.07 43.86 -29 -33.07 -19.1 53.94 -21.04
4.68 29.89 88.95 87.89 77.99 26 19.98 33.95 23.87 -77.1 -27.06 41.91 -19.1 -39.08 -33.07 53.94 -25.11
4.685 49.87 116.9 91.96 118 55.88 33.95 63.84 61.9 -47.04 -1.061 33.95 5.836 -15.03 -31.12 59.95 -13.09
4.69 63.84 128.9 93.9 145.9 77.99 45.98 95.85 108.9 3.891 37.84 23.87 47.92 33.95 -17.15 59.95 5.836
4.695 67.91 114.9 87.89 150 85.95 51.99 110 139 64.9 81.88 9.903 81.88 97.97 0 43.86 27.94
4.7 61.9 82.94 67.91 124 73.92 49.87 93.9 136 104 105.9 0 93.9 144 19.98 5.836 33.95
4.705 43.86 40.85 31.83 76.93 43.86 36.96 51.99 98.86 107 101 0 77.99 154.9 33.95 -37.14 26
4.71 22.99 6.897 -3.006 22.99 9.903 14.85 -2.122 42.97 74.98 68.97 9.903 39.97 133 43.86 -79.05 9.903
4.715 0 -5.128 -33.07 -13.09 -13.09 0.8842 -37.14 -5.128 27.94 26 21.93 -2.122 87.89 45.98 -97.09 -2.122
4.72 -6.013 -3.006 -37.14 -26.17 -26.17 -6.013 -41.03 -31.12 -14.15 -8.135 30.95 -25.11 40.85 41.91 -88.07 -3.006
4.725 -6.013 8.842 -13.09 -12.03 -22.11 -6.013 -8.135 -27.06 -44.03 -30.06 30.95 -33.07 2.83 31.83 -66.14 -3.006
4.73 -1.061 26.88 19.98 7.958 -9.019 0 37.84 0.8842 -51.11 -33.07 19.98 -21.04 -21.04 13.97 -43.15 -5.128
4.735 2.83 34.84 47.92 34.84 2.83 13.97 80.99 26.88 -39.08 -19.1 4.952 -9.019 -36.08 -1.061 -26.17 -12.03
4.74 1.945 28.83 50.93 41.91 8.842 21.93 84.89 34.84 -21.04 -3.006 -12.03 -1.061 -37.14 -13.09 -20.16 -16.09
4.745 -2.122 12.91 23.87 23.87 5.836 19.98 47.92 21.93 -2.122 9.903 -41.03 -7.074 -25.11 -15.03 -13.09 -13.09
4.75 0.8842 2.83 -2.122 0 3.891 18.92 -1.061 0 21.93 26.88 -65.08 -19.1 0 -3.006 -1.061 -1.061
4.755 6.897 -3.006 -22.11 -12.03 3.891 23.87 -29 -24.05 44.92 45.98 -72.15 -27.06 42.97 14.85 5.836 22.99
4.76 26 -1.061 -23.17 -21.04 13.97 35.9 -31.12 -35.02 63.84 67.91 -61.01 -23.17 83.82 33.95 13.97 39.97
4.765 47.92 8.842 -9.019 -16.09 30.95 52.88 1.945 -25.11 81.88 84.89 -32.01 -6.013 108.9 44.92 12.91 38.91
4.77 56.94 14.85 0.8842 -10.08 43.86 60.83 34.84 -13.09 84.89 86.83 0 3.891 108.9 37.84 -1.061 17.86
4.775 46.86 12.91 -2.122 -11.14 39.97 51.99 48.99 0.8842 70.91 68.97 14.85 11.85 77.99 12.91 -14.15 -12.03
4.78 16.98 -1.061 -19.1 -22.11 19.98 24.94 34.84 -2.122 40.85 30.95 18.92 5.836 28.83 -19.1 -30.06 -51.11
4.785 -11.14 -11.14 -37.14 -30.06 -4.067 -4.067 9.903 -3.006 3.891 -12.03 12.91 -8.135 -14.15 -56.06 -37.14 -76.04
4.79 -33.07 -11.14 -41.03 -39.08 -31.12 -35.02 -5.128 -19.1 -29 -61.01 3.891 -27.06 -53.05 -81.17 -29 -79.05
4.795 -40.14 0.8842 -30.06 -38.02 -43.15 -45.1 -3.006 -38.02 -48.1 -89.13 4.952 -35.02 -66.14 -86.12 -9.019 -60.13
4.8 -37.14 6.897 -16.09 -41.03 -43.15 -42.09 6.897 -56.06 -55.18 -92.14 11.85 -35.02 -63.13 -79.05 9.903 -34.13
4.805 -25.11 10.96 -13.09 -53.05 -39.08 -27.06 9.903 -77.1 -53.05 -77.1 13.97 -27.06 -53.05 -59.07 26 -13.09
4.81 -11.14 0.8842 -28.12 -73.04 -30.06 -11.14 0 -90.01 -45.1 -49.16 8.842 -21.04 -43.15 -43.15 36.96 -6.013
4.815 -8.135 -31.12 -55.18 -98.15 -30.06 -7.074 -34.13 -90.01 -33.07 -21.04 -8.135 -23.17 -40.14 -29 36.96 -12.03
4.82 -9.019 -61.01 -77.1 -113 -35.02 -13.09 -61.01 -77.1 -29 -5.128 -27.06 -29 -39.08 -15.03 31.83 -21.04
4.825 -16.09 -67.02 -83.12 -106.1 -40.14 -22.11 -60.13 -53.05 -24.05 0 -38.02 -33.07 -32.01 -1.061 36.96 -25.11
4.83 -24.05 -51.11 -65.08 -84 -44.03 -32.01 -27.06 -23.17 -26.17 -6.013 -30.06 -25.11 -16.09 5.836 50.93 -21.04
4.835 -31.12 -23.17 -33.07 -57.12 -43.15 -39.08 15.92 -5.128 -33.07 -19.1 -9.019 -9.019 -3.006 7.958 65.96 -15.03
4.84 -34.13 -1.061 -7.074 -28.12 -37.14 -40.14 51.99 0.8842 -40.14 -32.01 13.97 9.903 0.8842 0.8842 73.92 -13.09
4.845 -33.07 6.897 -1.061 -12.03 -27.06 -40.14 55.88 2.83 -48.1 -46.16 31.83 26 -1.061 -27.06 59.95 -23.17
4.85 -25.11 0.8842 -13.09 -11.14 -19.1 -35.02 29.89 0.8842 -47.04 -51.11 37.84 23.87 -15.03 -59.07 23.87 -37.14
4.855 -17.15 -9.019 -29 -17.15 -17.15 -29 -1.061 -8.135 -38.02 -51.11 26 5.836 -31.12 -77.1 -13.09 -47.04
4.86 -11.14 -13.09 -37.14 -25.11 -15.03 -25.11 -23.17 -18.04 -31.12 -47.04 -2.122 -19.1 -47.04 -79.05 -49.16 -43.15
4.865 -7.074 -7.074 -27.06 -31.12 -15.03 -21.04 -21.04 -27.06 -25.11 -43.15 -31.12 -45.1 -55.18 -67.02 -69.15 -29
4.87 -5.128 0.8842 -7.074 -33.07 -13.09 -17.15 -1.061 -37.14 -29 -39.08 -59.07 -61.01 -57.12 -55.18 -77.1 -13.09
4.875 -7.074 8.842 1.945 -31.12 -11.14 -15.03 11.85 -45.1 -37.14 -39.08 -73.04 -69.15 -59.07 -49.16 -83.12 -5.128
4.88 -7.074 6.897 -2.122 -27.06 -9.019 -11.14 11.85 -53.05 -45.1 -37.14 -77.1 -73.04 -63.13 -51.11 -87.01 -7.074
4.885 -7.074 -1.061 -15.03 -23.17 -7.074 -9.019 -5.128 -57.12 -43.15 -31.12 -77.1 -75.16 -61.01 -51.11 -85.06 -11.14
4.89 -5.128 -13.09 -39.08 -25.11 -5.128 -7.074 -37.14 -57.12 -31.12 -19.1 -75.16 -75.16 -49.16 -39.08 -67.02 -7.074
4.895 -5.128 -21.04 -51.11 -29 -5.128 -5.128 -55.18 -51.11 -9.019 -3.006 -71.09 -69.15 -25.11 -17.15 -31.12 0
4.9 -7.074 -19.1 -41.03 -35.02 -3.006 -3.006 -47.04 -41.03 7.958 3.891 -61.01 -49.16 -2.122 -2.122 9.903 15.92
4.905 -9.019 -15.03 -17.15 -39.08 -5.128 -1.061 -13.09 -29 21.93 5.836 -41.03 -19.1 17.86 5.836 51.99 21.93
4.91 -13.09 -11.14 1.945 -43.15 -11.14 -3.006 17.86 -21.04 19.98 -1.061 -15.03 5.836 19.98 0.8842 77.99 11.85
4.915 -15.03 -11.14 13.97 -45.1 -21.04 -9.019 37.84 -21.04 3.891 -23.17 3.891 26 3.891 -19.1 87.89 -3.006
4.92 -19.1 -17.15 5.836 -49.16 -33.07 -19.1 26 -31.12 -15.03 -45.1 17.86 29.89 -13.09 -37.14 87.89 -23.17
4.925 -23.17 -25.11 -11.14 -53.05 -43.15 -31.12 -5.128 -51.11 -37.14 -55.18 17.86 15.92 -33.07 -41.03 83.82 -29
4.93 -29 -33.07 -37.14 -59.07 -45.1 -39.08 -47.04 -69.15 -49.16 -49.16 7.958 -1.061 -39.08 -31.12 79.93 -21.04
4.935 -35.02 -37.14 -53.05 -63.13 -39.08 -39.08 -75.16 -81.17 -45.1 -31.12 0.8842 -23.17 -37.14 -21.04 71.98 -3.006
4.94 -41.03 -37.14 -59.07 -61.01 -31.12 -35.02 -80.11 -84 -31.12 -13.09 -17.15 -39.08 -31.12 -19.1 55.88 3.891
4.945 -47.04 -39.08 -55.18 -61.01 -27.06 -29 -79.05 -81.17 -19.1 -5.128 -39.08 -51.11 -31.12 -27.06 29.89 3.891
4.95 -51.11 -41.03 -49.16 -62.07 -33.07 -27.06 -78.17 -72.15 -18.04 -11.14 -69.15 -60.13 -37.14 -37.14 -3.006 -1.061
4.955 -55.18 -47.04 -45.1 -68.09 -45.1 -29 -76.04 -64.02 -28.12 -25.11 -97.09 -66.14 -42.09 -45.1 -41.03 -13.09
4.96 -53.05 -49.16 -37.14 -75.16 -59.07 -29 -71.09 -49.16 -39.08 -33.07 -113 -69.15 -39.08 -39.08 -77.1 -15.03
4.965 -47.04 -43.15 -24.05 -70.03 -63.13 -23.17 -42.09 -28.12 -44.03 -29 -104.2 -66.14 -20.16 -22.11 -104.2 -5.128
4.97 -35.02 -29 -8.135 -56.06 -53.05 -13.09 1.945 -4.067 -32.01 -7.074 -78.17 -60.13 2.83 -6.013 -124.1 3.891
4.975 -21.04 -17.15 0 -37.14 -35.02 -3.006 31.83 9.903 -15.03 7.958 -49.16 -53.05 27.94 0.8842 -137.1 11.85
4.98 -9.019 -9.019 4.952 -22.11 -19.1 -1.061 35.9 9.903 1.945 20.87 -34.13 -45.1 40.85 -6.013 -140.1 7.958
4.985 -11.14 -15.03 0 -23.17 -15.03 -9.019 -2.122 -11.14 0 14.85 -44.03 -51.11 28.83 -26.17 -140.1 -9.019
4.99 -23.17 -33.07 -21.04 -41.03 -21.04 -21.04 -53.05 -51.11 -9.019 -2.122 -67.02 -63.13 -2.122 -49.16 -135.1 -41.03
4.995 -37.14 -45.1 -33.07 -58 -31.12 -28.12 -89.13 -89.13 -24.05 -6.013 -79.05 -78.17 -29 -63.13 -123.1 -67.02
5 -44.03 -49.16 -37.14 -60.13 -33.07 -22.11 -86.12 -108.1 -32.01 -6.013 -73.04 -84 -50.05 -66.14 -100.1 -81.17
5.005 -41.03 -39.08 -23.17 -47.04 -23.17 -13.09 -45.1 -95.14 -21.04 3.891 -43.15 -75.16 -45.1 -59.07 -67.02 -77.1
5.01 -26.17 -17.15 -2.122 -18.04 -8.135 -3.006 9.903 -51.11 4.952 20.87 -1.061 -44.03 -19.1 -50.05 -28.12 -59.07
5.015 -15.03 -1.061 22.99 3.891 0 -1.061 49.87 0 35.9 21.93 24.94 -2.122 7.958 -46.16 2.83 -37.14
5.02 -10.08 16.98 38.91 16.98 0 -8.135 71.98 53.94 56.94 6.897 30.95 37.84 29.89 -52.17 28.83 -17.15
5.025 -11.14 24.94 38.91 21.93 -1.061 -17.15 73.92 85.95 57.83 -13.09 16.98 60.83 37.84 -62.07 40.85 -3.006
5.03 -14.15 28.83 21.93 14.85 -12.03 -21.04 65.96 91.96 44.92 -36.08 -5.128 62.96 26 -66.14 38.91 1.945
5.035 -15.03 16.98 -2.122 0 -15.03 -19.1 45.98 67.91 21.93 -43.15 -31.12 41.91 5.836 -59.07 27.94 3.891
5.04 -8.135 2.83 -27.06 -14.15 -11.14 -10.08 16.98 26.88 -1.061 -30.06 -41.03 12.91 -2.122 -36.08 14.85 7.958
5.045 -1.061 -19.1 -45.1 -36.08 -7.074 -4.067 -15.03 -13.09 -14.15 -6.013 -25.11 -14.15 -7.074 -9.019 5.836 7.958
5.05 -3.006 -43.15 -55.18 -57.12 -7.074 -3.006 -53.05 -49.16 -23.17 11.85 -5.128 -33.07 0.8842 5.836 3.891 9.903
5.055 -11.14 -55.18 -46.16 -67.02 -13.09 -7.074 -67.02 -61.01 -21.04 26.88 16.98 -33.07 4.952 20.87 4.952 9.903
5.06 -23.17 -53.05 -32.01 -64.02 -23.17 -11.14 -49.16 -49.16 -20.16 28.83 32.89 -23.17 8.842 20.87 8.842 9.903
5.065 -31.12 -39.08 -19.1 -49.16 -29 -15.03 -9.019 -21.04 -15.03 19.98 31.83 -13.09 5.836 7.958 0 3.891
5.07 -29 -13.09 -8.135 -26.17 -29 -17.15 24.94 2.83 -14.15 5.836 16.98 -4.067 -4.067 -2.122 -2.122 -3.006
5.075 -19.1 2.83 -8.135 -8.135 -23.17 -21.04 44.92 18.92 -18.04 -5.128 -1.061 0 -20.16 -20.16 -8.135 -23.17
5.08 -9.019 14.85 -11.14 -1.061 -15.03 -27.06 39.97 19.98 -27.06 -15.03 -7.074 0.8842 -39.08 -37.14 -11.14 -47.04
5.085 -7.074 22.99 -13.09 0 -7.074 -29 14.85 14.85 -34.13 -21.04 -9.019 0.8842 -48.1 -51.11 0.8842 -69.15
5.09 -11.14 26.88 -9.019 0 -5.128 -29 -6.013 6.897 -34.13 -23.17 -9.019 -1.061 -53.05 -59.07 9.903 -81.17
5.095 -17.15 28.83 -2.122 0.8842 -3.006 -25.11 -23.17 0 -33.07 -27.06 -5.128 -2.122 -51.11 -61.01 23.87 -79.05
5.1 -17.15 32.89 7.958 3.891 -3.006 -19.1 -22.11 0.8842 -29 -33.07 -3.006 -1.061 -49.16 -57.12 23.87 -71.09
5.105 -13.09 34.84 11.85 9.903 -5.128 -21.04 -11.14 1.945 -31.12 -39.08 -3.006 -3.006 -47.04 -53.05 11.85 -63.13
5.11 -5.128 32.89 3.891 11.85 -9.019 -27.06 0.8842 5.836 -31.12 -43.15 -7.074 -1.061 -47.04 -49.16 0.8842 -57.12
5.115 -3.006 22.99 -5.128 5.836 -21.04 -37.14 3.891 7.958 -29 -41.03 -11.14 3.891 -43.15 -45.1 -13.09 -53.05
5.12 -11.14 2.83 -19.1 -5.128 -35.02 -47.04 3.891 7.958 -21.04 -35.02 -15.03 19.98 -37.14 -39.08 -13.09 -41.03
5.125 -27.06 -19.1 -27.06 -23.17 -49.16 -47.04 0.8842 5.836 -9.019 -25.11 -19.1 35.9 -23.17 -25.11 0.8842 -15.03
5.13 -45.1 -43.15 -27.06 -41.03 -57.12 -41.03 -7.074 3.891 -3.006 -15.03 -17.15 49.87 -7.074 -9.019 11.85 15.92
5.135 -53.05 -57.12 -25.11 -47.04 -53.05 -31.12 -9.019 1.945 -3.006 -7.074 -9.019 53.94 5.836 5.836 23.87 55.88
5.14 -53.05 -59.07 -29 -45.1 -45.1 -25.11 -7.074 0 -9.019 -3.006 -5.128 49.87 23.87 19.98 21.93 83.82
5.145 -47.04 -51.11 -41.03 -39.08 -35.02 -25.11 -5.128 -1.061 -17.15 -2.122 -7.074 37.84 35.9 26 5.836 93.9
5.15 -39.08 -39.08 -57.12 -35.02 -25.11 -25.11 -5.128 -9.019 -15.03 5.836 -19.1 19.98 43.86 27.94 -11.14 85.95
5.155 -31.12 -29 -65.08 -31.12 -15.03 -17.15 -13.09 -19.1 -1.061 15.92 -35.02 0 47.92 27.94 -27.06 67.91
5.16 -19.1 -25.11 -57.12 -25.11 0.8842 -1.061 -23.17 -25.11 15.92 27.94 -47.04 -11.14 49.87 29.89 -31.12 51.99
5.165 -3.006 -19.1 -35.02 -13.09 17.86 11.85 -27.06 -20.16 41.91 35.9 -43.15 -23.17 49.87 35.9 -25.11 39.97
5.17 9.903 -17.15 -11.14 0 37.84 26 -20.16 -4.067 55.88 35.9 -27.06 -29 45.98 37.84 -13.09 27.94
5.175 21.93 -15.03 -2.122 13.97 45.98 26 -5.128 11.85 57.83 26 -9.019 -33.07 31.83 31.83 -3.006 15.92
5.18 21.93 -17.15 0.8842 19.98 41.91 15.92 4.952 30.95 49.87 13.97 0 -36.08 11.85 19.98 0.8842 0
5.185 13.97 -21.04 -11.14 13.97 29.89 1.945 10.96 37.84 35.9 9.903 4.952 -40.14 -5.128 3.891 -2.122 -9.019
5.19 5.836 -25.11 -19.1 0 17.86 -2.122 7.958 31.83 26 17.86 0 -43.15 -21.04 -3.006 -2.122 -15.03
5.195 5.836 -21.04 -15.03 -4.067 17.86 1.945 -1.061 23.87 20.87 36.96 -2.122 -36.08 -22.11 -7.074 1.945 -13.09
5.2 13.97 -11.14 -5.128 -8.135 23.87 11.85 -1.061 16.98 16.98 48.99 -8.135 -20.16 -14.15 -5.128 5.836 -6.013
5.205 21.93 -3.006 0.8842 -9.019 29.89 15.92 -7.074 7.958 9.903 47.92 -9.019 -1.061 -3.006 -5.128 9.903 -7.074
5.21 23.87 -3.006 1.945 -6.013 29.89 11.85 -7.074 1.945 0.8842 36.96 -4.067 17.86 4.952 -7.074 9.903 -10.08
5.215 15.92 -11.14 -8.135 -6.013 23.87 1.945 -6.013 -9.019 -2.122 18.92 1.945 35.9 14.85 -6.013 11.85 -8.135
5.22 5.836 -15.03 -17.15 -5.128 19.98 1.945 -5.128 -17.15 0.8842 7.958 1.945 43.86 29.89 0.8842 15.92 1.945
5.225 1.945 -15.03 -12.03 3.891 26 8.842 -7.074 -15.03 16.98 17.86 7.958 50.93 53.94 12.91 21.93 34.84
5.23 1.945 -5.128 1.945 23.87 39.97 20.87 -8.135 0 47.92 37.84 9.903 52.88 77.99 34.84 27.94 73.92
5.235 7.958 6.897 9.903 45.98 47.92 27.94 -11.14 23.87 77.99 51.99 5.836 53.94 97.97 55.88 26 107.9
5.24 8.842 18.92 15.92 60.83 51.99 24.94 -8.135 58.89 101 56.94 3.891 58.89 108.9 68.97 17.86 127.9
5.245 0.8842 20.87 11.85 61.9 37.84 10.96 0.8842 83.82 107 47.92 2.83 63.84 99.92 69.85 1.945 127
5.25 -1.061 12.91 0 51.99 17.86 -1.061 27.94 101.9 93.9 31.83 7.958 67.91 81.88 57.83 -7.074 110
5.255 -7.074 2.83 -2.122 38.91 0 -14.15 62.96 107.9 74.98 21.93 26 72.86 60.83 43.86 -13.09 83.82
5.26 -10.08 -11.14 9.903 27.94 -7.074 -20.16 82.94 104 49.87 15.92 43.86 70.91 34.84 26 -8.135 52.88
5.265 -13.09 -17.15 27.94 20.87 -9.019 -21.04 82.94 94.97 24.94 14.85 61.9 63.84 8.842 4.952 -1.061 20.87
5.27 -16.09 -15.03 43.86 23.87 -5.128 -22.11 58.89 77.99 5.836 15.92 71.98 56.94 -8.135 -3.006 12.91 -2.122
5.275 -17.15 -5.128 49.87 18.92 -5.128 -20.16 26.88 61.9 -2.122 15.92 69.85 55 -26.17 -11.14 23.87 -23.17
5.28 -21.04 0.8842 41.91 7.958 -7.074 -19.1 1.945 33.95 -7.074 15.92 57.83 51.99 -33.07 -13.09 29.89 -35.02
5.285 -18.04 0.8842 26 -1.061 -13.09 -20.16 -4.067 9.903 0 21.93 40.85 47.92 -27.06 -5.128 31.83 -32.01
5.29 -20.16 -1.061 3.891 -16.09 -21.04 -20.16 -8.135 -10.08 0.8842 24.94 21.93 36.96 -12.03 1.945 23.87 -21.04
5.295 -27.06 -11.14 -11.14 -29 -29 -21.04 -17.15 -31.12 3.891 27.94 5.836 7.958 -1.061 1.945 11.85 -7.074
5.3 -41.03 -23.17 -14.15 -31.12 -31.12 -22.11 -26.17 -42.09 5.836 31.83 0.8842 -20.16 1.945 2.83 -1.061 1.945
5.305 -55.18 -25.11 -8.135 -19.1 -27.06 -22.11 -39.08 -41.03 -1.061 27.94 -7.074 -50.05 1.945 0.8842 -21.04 4.952
5.31 -55.18 -19.1 1.945 -3.006 -15.03 -15.03 -45.1 -27.06 -3.006 17.86 -19.1 -67.02 -5.128 -1.061 -39.08 7.958
5.315 -39.08 -9.019 18.92 10.96 -1.061 -7.074 -40.14 -5.128 -4.067 10.96 -30.06 -57.12 -10.08 0 -45.1 6.897
5.32 -15.03 -1.061 20.87 18.92 1.945 0.8842 -33.07 11.85 -6.013 2.83 -40.14 -35.02 -16.09 -3.006 -41.03 6.897
5.325 3.891 2.83 9.903 11.85 1.945 0 -29 21.93 -9.019 0.8842 -41.03 -7.074 -13.09 -5.128 -29 1.945
5.33 11.85 -1.061 -3.006 0 0.8842 -1.061 -27.06 24.94 -12.03 -2.122 -24.05 20.87 -8.135 -11.14 -13.09 -1.061
5.335 5.836 -3.006 -17.15 -12.03 -5.128 -9.019 -24.05 17.86 -18.04 -4.067 0 42.97 -4.067 -15.03 -1.061 0.8842
5.34 -3.006 -3.006 -11.14 -11.14 -7.074 -17.15 -11.14 5.836 -27.06 -9.019 23.87 57.83 -1.061 -17.15 3.891 -1.061
5.345 -15.03 0.8842 9.903 1.945 -3.006 -19.1 6.897 0.8842 -31.12 -13.09 44.92 62.96 -1.061 -15.03 11.85 -3.006
5.35 -19.1 10.96 43.86 26 0.8842 -15.03 28.83 -6.013 -31.12 -21.04 51.99 56.94 -11.14 -15.03 13.97 -7.074
5.355 -15.03 20.87 69.85 43.86 0 -7.074 35.9 -9.019 -25.11 -29 49.87 41.91 -25.11 -21.04 11.85 -13.09
5.36 -5.128 28.83 77.99 49.87 3.891 0.8842 28.83 -6.013 -17.15 -33.07 47.92 23.87 -37.14 -27.06 5.836 -19.1
5.365 -2.122 34.84 65.96 43.86 7.958 1.945 9.903 -2.122 -5.128 -29 45.98 7.958 -45.1 -35.02 -2.122 -25.11
5.37 7.958 34.84 43.86 33.95 11.85 5.836 0.8842 0.8842 0 -17.15 47.92 -2.122 -39.08 -35.02 -5.128 -25.11
5.375 15.92 30.95 26 27.94 15.92 5.836 -3.006 0 11.85 -1.061 45.98 -2.122 -23.17 -27.06 -11.14 -17.15
5.38 19.98 22.99 17.86 27.94 15.92 1.945 -2.122 1.945 21.93 3.891 35.9 9.903 -5.128 -15.03 -15.03 -9.019
5.385 19.98 18.92 15.92 33.95 11.85 -1.061 7.958 7.958 29.89 9.903 15.92 27.94 5.836 -7.074 -17.15 -1.061
5.39 15.92 16.98 17.86 41.91 5.836 -9.019 19.98 15.92 31.83 11.85 0.8842 49.87 11.85 -7.074 -17.15 -2.122
5.395 7.958 20.87 19.98 49.87 3.891 -11.14 27.94 26 29.89 13.97 -11.14 65.96 7.958 -9.019 -15.03 -1.061
5.4 1.945 26.88 23.87 55.88 7.958 -5.128 35.9 31.83 23.87 17.86 -11.14 75.87 0 -11.14 -15.03 -7.074
5.405 1.945 32.89 27.94 61.9 17.86 5.836 45.98 33.95 19.98 19.98 -2.122 73.92 -1.061 -9.019 -15.03 -7.074
5.41 7.958 36.96 33.95 63.84 29.89 21.93 53.94 27.94 15.92 15.92 13.97 61.9 -3.006 -5.128 -19.1 -3.006
5.415 17.86 38.91 37.84 61.9 39.97 29.89 53.94 19.98 15.92 7.958 26 43.86 0.8842 -1.061 -27.06 0
5.42 26 38.91 37.84 53.94 41.91 29.89 41.91 5.836 19.98 0 27.94 23.87 1.945 -1.061 -35.02 7.958
5.425 31.83 36.96 29.89 37.84 33.95 19.98 17.86 -5.128 19.98 -3.006 19.98 3.891 7.958 -3.006 -41.03 13.97
5.43 33.95 34.84 21.93 21.93 21.93 9.903 -9.019 -21.04 15.92 -7.074 7.958 -5.128 7.958 -7.074 -41.03 15.92
5.435 29.89 26.88 13.97 3.891 7.958 0 -37.14 -35.02 3.891 -13.09 0.8842 -17.15 1.945 -9.019 -33.07 15.92
5.44 19.98 16.98 7.958 -9.019 0.8842 -3.006 -50.05 -44.03 -8.135 -20.16 -8.135 -25.11 -4.067 -13.09 -19.1 15.92
5.445 1.945 0.8842 0 -25.11 -15.03 -11.14 -48.1 -44.03 -28.12 -34.13 -16.09 -32.01 -20.16 -19.1 -1.061 15.92
5.45 -17.15 -13.09 -7.074 -43.15 -31.12 -21.04 -37.14 -47.04 -49.16 -43.15 -19.1 -39.08 -39.08 -29 11.85 13.97
5.455 -37.14 -29 -22.11 -60.13 -47.04 -31.12 -30.06 -48.1 -62.07 -46.16 -18.04 -46.16 -52.17 -39.08 23.87 7.958
5.46 -44.03 -39.08 -32.01 -70.03 -57.12 -37.14 -28.12 -54.11 -68.09 -44.03 -12.03 -54.11 -68.09 -49.16 29.89 0.8842
5.465 -41.03 -43.15 -29 -73.04 -55.18 -31.12 -31.12 -65.08 -67.02 -35.02 0.8842 -61.01 -79.05 -55.18 29.89 -15.03
5.47 -24.05 -29 -8.135 -58 -38.02 -15.03 -21.04 -70.03 -53.05 -25.11 15.92 -60.13 -84 -55.18 23.87 -27.06
5.475 -4.067 -7.074 16.98 -32.01 -14.15 0 0 -63.13 -37.14 -19.1 35.9 -49.16 -81.17 -49.16 15.92 -39.08
5.48 5.836 16.98 39.97 -1.061 5.836 17.86 31.83 -45.1 -13.09 -11.14 49.87 -27.06 -71.09 -37.14 11.85 -45.1
5.485 16.98 44.92 51.99 23.87 26.88 24.94 64.9 -18.04 8.842 0 58.89 -1.061 -46.16 -27.06 9.903 -44.03
5.49 23.87 55 41.91 39.97 33.95 22.99 83.82 4.952 33.95 9.903 59.95 18.92 -18.04 -17.15 12.91 -44.03
5.495 23.87 52.88 29.89 47.92 29.89 17.86 79.93 26 51.99 29.89 51.99 33.95 7.958 -5.128 7.958 -39.08
5.5 27.94 42.97 20.87 48.99 26.88 11.85 68.97 42.97 66.85 50.93 41.91 39.97 34.84 3.891 2.83 -24.05
5.505 26.88 30.95 17.86 45.98 21.93 5.836 58.89 45.98 65.96 63.84 33.95 38.91 52.88 15.92 -3.006 -6.013
5.51 22.99 18.92 21.93 41.91 21.93 0 49.87 48.99 55.88 64.9 27.94 34.84 53.94 26 -10.08 11.85
5.515 16.98 12.91 21.93 33.95 13.97 0 42.97 41.91 37.84 51.99 21.93 28.83 40.85 27.94 -11.14 24.94
5.52 11.85 10.96 14.85 22.99 6.897 1.945 30.95 32.89 14.85 30.95 19.98 21.93 14.85 26 -4.067 35.9
5.525 7.958 10.96 7.958 13.97 1.945 0.8842 9.903 19.98 -7.074 5.836 17.86 13.97 -9.019 17.86 -1.061 33.95
5.53 9.903 14.85 3.891 7.958 0 2.83 -5.128 4.952 -29 -7.074 13.97 2.83 -28.12 9.903 1.945 32.89
5.535 10.96 22.99 3.891 7.958 1.945 10.96 -24.05 -4.067 -42.09 -14.15 -1.061 -11.14 -38.02 11.85 -11.14 34.84
5.54 17.86 30.95 5.836 9.903 0 15.92 -33.07 -17.15 -49.16 -9.019 -17.15 -33.07 -31.12 17.86 -27.06 31.83
5.545 26.88 36.96 12.91 20.87 8.842 26 -23.17 -17.15 -37.14 5.836 -39.08 -49.16 -13.09 29.89 -45.1 27.94
5.55 40.85 38.91 14.85 32.89 22.99 35.9 0.8842 -10.08 -7.074 35.9 -57.12 -58 2.83 35.9 -51.11 15.92
5.555 53.94 40.85 11.85 47.92 41.91 45.98 21.93 7.958 27.94 63.84 -63.13 -45.1 26 35.9 -43.15 0
5.56 62.96 42.97 12.91 64.9 59.95 51.99 44.92 42.97 72.86 86.83 -52.17 -14.15 44.92 31.83 -21.04 -7.074
5.565 59.95 44.92 8.842 70.91 69.85 47.92 48.99 70.91 104.9 90.9 -34.13 20.87 55 19.98 3.891 -9.019
5.57 45.98 40.85 3.891 57.83 61.9 33.95 37.84 77.99 113.9 75.87 -21.04 55.88 51.99 5.836 35.9 -1.061
5.575 26 26.88 0.8842 33.95 33.95 11.85 14.85 66.85 96.91 44.92 -14.15 74.98 40.85 0.8842 57.83 7.958
5.58 5.836 6.897 -9.019 5.836 1.945 -1.061 -2.122 36.96 56.94 0.8842 -20.16 75.87 16.98 -5.128 69.85 19.98
5.585 -5.128 -9.019 -17.15 -13.09 -17.15 -11.14 -19.1 5.836 13.97 -33.07 -31.12 61.9 -3.006 -7.074 65.96 19.98
5.59 -11.14 -21.04 -17.15 -21.04 -23.17 -11.14 -25.11 -9.019 -13.09 -57.12 -39.08 43.86 -25.11 -5.128 47.92 13.97
5.595 -11.14 -17.15 -13.09 -15.03 -9.019 -5.128 -23.17 -11.14 -27.06 -65.08 -43.15 23.87 -41.03 -3.006 21.93 0
5.6 -9.019 -3.006 -7.074 -3.006 7.958 -2.122 -21.04 -5.128 -25.11 -57.12 -39.08 5.836 -47.04 -1.061 0.8842 -13.09
5.605 -5.128 10.96 -3.006 1.945 23.87 3.891 -19.1 0.8842 -17.15 -41.03 -29 -3.006 -49.16 -5.128 -19.1 -29
5.61 -3.006 24.94 0.8842 7.958 29.89 5.836 -15.03 -2.122 -9.019 -25.11 -15.03 -11.14 -45.1 -9.019 -25.11 -45.1
5.615 0 34.84 1.945 13.97 27.94 9.903 -1.061 0.8842 -7.074 -13.09 -2.122 -9.019 -39.08 -15.03 -17.15 -59.07
5.62 9.903 40.85 11.85 19.98 27.94 13.97 15.92 0 -11.14 -5.128 13.97 0 -35.02 -21.04 -1.061 -69.15
5.625 23.87 46.86 29.89 31.83 31.83 19.98 37.84 9.903 -15.03 -1.061 27.94 19.98 -31.12 -25.11 7.958 -73.04
5.63 33.95 52.88 45.98 43.86 37.84 21.93 49.87 23.87 -21.04 -1.061 31.83 35.9 -31.12 -31.12 15.92 -73.04
5.635 37.84 56.94 53.94 47.92 39.97 19.98 41.91 29.89 -27.06 -7.074 27.94 39.97 -33.07 -39.08 13.97 -67.02
5.64 35.9 58.89 51.99 43.86 35.9 15.92 17.86 27.94 -37.14 -15.03 21.93 33.95 -39.08 -47.04 11.85 -57.12
5.645 31.83 58.89 41.91 35.9 27.94 11.85 -3.006 17.86 -43.15 -23.17 19.98 26 -41.03 -51.11 19.98 -43.15
5.65 29.89 60.83 33.95 29.89 21.93 11.85 -11.14 7.958 -41.03 -21.04 26 21.93 -33.07 -39.08 37.84 -25.11
5.655 29.89 64.9 29.89 31.83 19.98 11.85 -2.122 1.945 -27.06 -5.128 35.9 29.89 -13.09 -13.09 61.9 -5.128
5.66 27.94 66.85 29.89 37.84 21.93 11.85 23.87 1.945 -1.061 9.903 47.92 43.86 9.903 19.98 81.88 9.903
5.665 17.86 62.96 27.94 37.84 21.93 9.903 45.98 3.891 23.87 31.83 51.99 55.88 37.84 57.83 87.89 26
5.67 0 50.93 17.86 29.89 19.98 5.836 47.92 2.83 47.92 49.87 47.92 61.9 59.95 89.84 77.99 37.84
5.675 -9.019 34.84 3.891 16.98 17.86 7.958 27.94 -1.061 61.9 59.95 35.9 57.83 69.85 105.9 61.9 45.98
5.68 -11.14 24.94 -1.061 3.891 21.93 15.92 1.945 0.8842 63.84 65.96 19.98 47.92 71.98 107.9 43.86 49.87
5.685 0.8842 28.83 1.945 2.83 27.94 26 -11.14 2.83 63.84 73.92 3.891 37.84 71.98 95.85 27.94 41.91
5.69 15.92 40.85 6.897 8.842 35.9 29.89 -15.03 10.96 63.84 71.98 -5.128 23.87 63.84 74.98 11.85 26
5.695 31.83 50.93 15.92 17.86 35.9 26 -13.09 13.97 55.88 61.9 -15.03 9.903 49.87 47.92 -1.061 1.945
5.7 33.95 46.86 16.98 22.99 26 9.903 -12.03 10.96 39.97 31.83 -19.1 -5.128 23.87 18.92 -21.04 -23.17
5.705 21.93 30.95 4.952 18.92 9.903 0.8842 -20.16 1.945 5.836 -1.061 -15.03 -19.1 -9.019 -10.08 -35.02 -51.11
5.71 7.958 10.96 -7.074 7.958 1.945 -7.074 -29 -11.14 -27.06 -39.08 -3.006 -25.11 -55.18 -43.15 -41.03 -77.1
5.715 3.891 0.8842 -16.09 5.836 3.891 -5.128 -26.17 -15.03 -63.13 -63.13 3.891 -16.09 -89.13 -70.03 -26.17 -97.09
5.72 10.96 4.952 -11.14 5.836 13.97 1.945 -12.03 -12.03 -79.05 -64.02 13.97 1.945 -108.1 -80.11 -4.067 -109.1
5.725 17.86 16.98 -1.061 5.836 21.93 7.958 -2.122 -9.019 -77.1 -59.07 13.97 11.85 -107.2 -75.16 11.85 -115.1
5.73 18.92 28.83 0.8842 0 19.98 3.891 5.836 -11.14 -63.13 -46.16 5.836 20.87 -88.07 -55.18 24.94 -111.1
5.735 0.8842 18.92 -2.122 -14.15 6.897 -3.006 0 -18.04 -47.04 -36.08 -2.122 18.92 -60.13 -24.05 22.99 -97.09
5.74 -23.17 0.8842 -25.11 -37.14 -11.14 -21.04 -11.14 -23.17 -33.07 -31.12 -5.128 11.85 -29 -2.122 15.92 -71.09
5.745 -45.1 -23.17 -50.05 -47.04 -24.05 -29 -18.04 -18.04 -20.16 -13.09 -6.013 12.91 -2.122 23.87 12.91 -34.13
5.75 -47.04 -31.12 -62.07 -46.16 -25.11 -21.04 -17.15 -2.122 -3.006 8.842 -4.067 20.87 30.95 42.97 16.98 0.8842
5.755 -28.12 -31.12 -61.01 -32.01 -6.013 0.8842 -9.019 16.98 9.903 41.91 -5.128 32.89 59.95 57.83 24.94 21.93
5.76 0.8842 -21.04 -46.16 -18.04 9.903 17.86 -3.006 30.95 33.95 66.85 -12.03 38.91 74.98 66.85 28.83 35.9
5.765 19.98 -21.04 -32.01 -13.09 24.94 31.83 -8.135 32.89 48.99 67.91 -20.16 30.95 71.98 65.96 22.99 32.89
5.77 26 -25.11 -25.11 -23.17 27.94 29.89 -19.1 21.93 49.87 51.99 -27.06 11.85 57.83 51.99 5.836 21.93
5.775 18.92 -33.07 -28.12 -32.01 20.87 17.86 -23.17 6.897 41.91 26.88 -25.11 1.945 36.96 32.89 -6.013 3.891
5.78 6.897 -35.02 -28.12 -31.12 7.958 3.891 -11.14 -2.122 26 0.8842 -17.15 -10.08 20.87 13.97 -16.09 -3.006
5.785 1.945 -25.11 -25.11 -21.04 -2.122 0 0 -2.122 13.97 -5.128 -3.006 -9.019 15.92 3.891 -15.03 -5.128
5.79 2.83 -1.061 -9.019 -7.074 -2.122 3.891 20.87 0.8842 5.836 0 -2.122 0 18.92 2.83 0 0.8842
5.795 7.958 14.85 -1.061 0 5.836 13.97 28.83 3.891 5.836 1.945 0.8842 1.945 23.87 2.83 14.85 1.945
5.8 5.836 24.94 9.903 0 13.97 23.87 23.87 0 1.945 9.903 -7.074 0.8842 19.98 -1.061 31.83 5.836
5.805 0 24.94 14.85 -1.061 19.98 26 12.91 0.8842 0.8842 9.903 -11.14 -3.006 7.958 -10.08 41.91 1.945
5.81 -1.061 14.85 16.98 0.8842 23.87 23.87 2.83 0 -13.09 0 -7.074 -1.061 0.8842 -18.04 47.92 -3.006
5.815 -2.122 6.897 13.97 7.958 29.89 26 0 -2.122 -27.06 -7.074 3.891 5.836 -7.074 -21.04 45.98 -13.09
5.82 13.97 4.952 12.91 18.92 29.89 26 0 2.83 -39.08 -21.04 19.98 23.87 -15.03 -12.03 39.97 -19.1
5.825 29.89 4.952 6.897 20.87 27.94 26 3.891 2.83 -47.04 -37.14 26 33.95 -21.04 -1.061 26 -27.06
5.83 39.97 2.83 0 11.85 19.98 21.93 7.958 -3.006 -55.18 -49.16 15.92 31.83 -31.12 0 1.945 -39.08
5.835 33.95 0.8842 -5.128 0.8842 9.903 15.92 11.85 -18.04 -59.07 -53.05 0 19.98 -41.03 0.8842 -19.1 -51.11
5.84 19.98 0.8842 -5.128 -3.006 1.945 9.903 17.86 -26.17 -55.18 -45.1 -9.019 5.836 -41.03 -7.074 -43.15 -59.07
5.845 5.836 4.952 -1.061 -1.061 1.945 7.958 26 -23.17 -41.03 -21.04 -9.019 0 -21.04 -9.019 -53.05 -55.18
5.85 1.945 8.842 1.945 1.945 7.958 9.903 23.87 -9.019 -15.03 7.958 -1.061 1.945 7.958 -3.006 -49.16 -37.14
5.855 5.836 10.96 5.836 5.836 11.85 11.85 9.903 0.8842 7.958 33.95 0 1.945 41.91 5.836 -33.07 -11.14
5.86 11.85 4.952 0 -2.122 5.836 7.958 -15.03 -5.128 27.94 41.91 -2.122 -1.061 59.95 21.93 -13.09 9.903
5.865 7.958 -3.006 -9.019 -19.1 -7.074 -2.122 -51.11 -27.06 31.83 27.94 -7.074 -17.15 57.83 33.95 -2.122 29.89
5.87 -1.061 -13.09 -21.04 -43.15 -31.12 -13.09 -79.05 -55.18 19.98 1.945 -19.1 -35.02 41.91 39.97 7.958 39.97
5.875 -19.1 -15.03 -25.11 -55.18 -49.16 -25.11 -83.12 -71.09 0 -13.09 -23.17 -39.08 27.94 41.91 13.97 47.92
5.88 -31.12 -11.14 -15.03 -53.05 -53.05 -29 -63.13 -67.02 -7.074 -17.15 -19.1 -27.06 23.87 41.91 15.92 53.94
5.885 -33.07 -5.128 -2.122 -39.08 -45.1 -25.11 -27.06 -47.04 -9.019 -5.128 -11.14 -7.074 31.83 39.97 15.92 57.83
5.89 -27.06 -1.061 11.85 -23.17 -31.12 -17.15 1.945 -21.04 -3.006 5.836 -5.128 3.891 39.97 35.9 11.85 53.94
5.895 -23.17 -3.006 11.85 -13.09 -19.1 -11.14 15.92 -3.006 0.8842 13.97 -1.061 5.836 39.97 26 5.836 43.86
5.9 -25.11 -7.074 0 -17.15 -17.15 -11.14 3.891 -1.061 -1.061 7.958 -2.122 0.8842 29.89 15.92 -2.122 31.83
5.905 -33.07 -15.03 -11.14 -31.12 -23.17 -17.15 -19.1 -9.019 -11.14 -5.128 1.945 -11.14 13.97 9.903 -5.128 17.86
5.91 -41.03 -23.17 -27.06 -47.04 -35.02 -25.11 -39.08 -23.17 -27.06 -23.17 1.945 -19.1 0 7.958 -9.019 9.903
5.915 -45.1 -29 -33.07 -57.12 -45.1 -29 -43.15 -35.02 -38.02 -37.14 -2.122 -21.04 -5.128 9.903 -13.09 5.836
5.92 -41.03 -35.02 -29 -57.12 -45.1 -25.11 -33.07 -39.08 -44.03 -42.09 -3.006 -21.04 -9.019 11.85 -12.03 0
5.925 -33.07 -35.02 -21.04 -45.1 -35.02 -13.09 -21.04 -35.02 -41.03 -39.08 -5.128 -23.17 -13.09 9.903 -11.14 -5.128
5.93 -19.1 -25.11 -13.09 -23.17 -17.15 0.8842 -19.1 -21.04 -26.17 -32.01 0.8842 -23.17 -12.03 4.952 -4.067 -17.15
5.935 -9.019 -7.074 -9.019 -2.122 -2.122 9.903 -25.11 0.8842 -8.135 -22.11 1.945 -17.15 -14.15 -2.122 -1.061 -35.02
5.94 -2.122 10.96 -1.061 26 13.97 15.92 -27.06 21.93 3.891 -15.03 1.945 -3.006 -13.09 -17.15 3.891 -47.04
5.945 9.903 32.89 8.842 52.88 21.93 19.98 -7.074 51.99 22.99 -2.122 -7.074 11.85 -4.067 -24.05 4.952 -50.05
5.95 21.93 46.86 26.88 72.86 26 24.94 23.87 77.99 39.97 10.96 -31.12 26 4.952 -22.11 0.8842 -46.16
5.955 31.83 52.88 45.98 77.99 29.89 29.89 55.88 85.95 51.99 31.83 -45.1 26 21.93 -11.14 -5.128 -35.02
5.96 37.84 48.99 52.88 70.91 35.9 38.91 58.89 75.87 67.91 57.83 -45.1 16.98 43.86 11.85 -17.15 -12.03
5.965 35.9 36.96 40.85 48.99 39.97 42.97 22.99 51.99 82.94 75.87 -24.05 -4.067 61.9 37.84 -29 8.842
5.97 27.94 20.87 15.92 17.86 37.84 35.9 -25.11 17.86 89.84 81.88 0.8842 -29 71.98 59.95 -35.02 37.84
5.975 14.85 8.842 -5.128 -3.006 26 20.87 -58 -5.128 83.82 69.85 18.92 -44.03 74.98 66.85 -27.06 63.84
5.98 4.952 -1.061 -16.09 -17.15 5.836 0 -54.11 -18.04 63.84 38.91 28.83 -49.16 67.91 53.94 -16.09 76.93
5.985 0 0.8842 -7.074 -15.03 -7.074 -17.15 -17.15 -19.1 26 0.8842 27.94 -49.16 43.86 21.93 0.8842 67.91
5.99 0.8842 2.83 12.91 -2.122 -16.09 -21.04 18.92 -10.08 -12.03 -37.14 19.98 -40.14 7.958 -10.08 19.98 34.84
5.995 4.952 12.91 36.96 6.897 -14.15 -22.11 36.96 -3.006 -50.05 -66.14 7.958 -35.02 -27.06 -47.04 33.95 -6.013
6 4.952 22.99 44.92 12.91 -5.128 -16.09 26.88 1.945 -71.09 -76.04 0 -23.17 -63.13 -73.04 43.86 -56.06
6.005 4.952 22.99 28.83 8.842 -1.061 -12.03 2.83 0.8842 -76.04 -72.15 -13.09 -15.03 -85.06 -77.1 49.87 -86.12
6.01 6.897 14.85 4.952 1.945 6.897 -7.074 -4.067 1.945 -60.13 -53.05 -17.15 0 -83.12 -64.02 55.88 -94.08
6.015 3.891 0.8842 -9.019 -11.14 1.945 -5.128 -3.006 -1.061 -37.14 -29 -17.15 1.945 -57.12 -37.14 55.88 -79.05
6.02 6.897 -11.14 -14.15 -27.06 -1.061 -1.061 -1.061 -6.013 -9.019 1.945 -8.135 7.958 -13.09 -3.006 50.93 -50.05
6.025 6.897 -25.11 -9.019 -37.14 -13.09 0.8842 -2.122 -19.1 3.891 23.87 -1.061 0 20.87 28.83 41.91 -17.15
6.03 -2.122 -35.02 0.8842 -49.16 -25.11 3.891 -23.17 -37.14 13.97 35.9 5.836 -25.11 51.99 59.95 19.98 7.958
6.035 -7.074 -37.14 4.952 -54.11 -37.14 2.83 -40.14 -53.05 20.87 37.84 12.91 -46.16 65.96 77.99 0.8842 28.83
6.04 -21.04 -35.02 2.83 -54.11 -45.1 -2.122 -44.03 -57.12 15.92 26 11.85 -58 57.83 85.95 -21.04 38.91
6.045 -35.02 -37.14 0.8842 -53.05 -57.12 -17.15 -29 -51.11 9.903 0.8842 11.85 -61.01 29.89 71.98 -39.08 27.94
6.05 -45.1 -37.14 -4.067 -50.05 -65.08 -30.06 -5.128 -39.08 0.8842 -30.06 13.97 -49.16 -2.122 46.86 -50.05 4.952
6.055 -49.16 -37.14 -8.135 -52.17 -69.15 -41.03 5.836 -27.06 -24.05 -56.06 19.98 -35.02 -46.16 6.897 -52.17 -26.17
6.06 -47.04 -41.03 -7.074 -55.18 -73.04 -43.15 0 -27.06 -49.16 -67.02 23.87 -23.17 -81.17 -21.04 -53.05 -55.18
6.065 -39.08 -37.14 -7.074 -57.12 -69.15 -35.02 -13.09 -37.14 -64.02 -52.17 23.87 -21.04 -90.01 -36.08 -44.03 -63.13
6.07 -29 -31.12 -9.019 -53.05 -61.01 -19.1 -31.12 -49.16 -58 -20.16 9.903 -23.17 -70.03 -34.13 -42.09 -49.16
6.075 -15.03 -25.11 -17.15 -43.15 -45.1 -1.061 -37.14 -53.05 -31.12 15.92 -13.09 -31.12 -31.12 -21.04 -45.1 -21.04
6.08 -3.006 -23.17 -25.11 -25.11 -23.17 15.92 -27.06 -49.16 6.897 50.93 -51.11 -41.03 13.97 0 -56.06 3.891
6.085 3.891 -19.1 -29 -7.074 -2.122 31.83 -13.09 -35.02 44.92 67.91 -91.07 -51.11 47.92 17.86 -75.16 21.93
6.09 13.97 -13.09 -31.12 5.836 17.86 39.97 -1.061 -19.1 61.9 63.84 -117.1 -53.05 61.9 31.83 -87.01 27.94
6.095 17.86 -3.006 -27.06 19.98 29.89 41.91 0.8842 -3.006 57.83 45.98 -125 -43.15 49.87 39.97 -85.06 26
6.1 21.93 2.83 -21.04 23.87 33.95 35.9 -3.006 5.836 37.84 27.94 -115.1 -19.1 31.83 41.91 -67.02 29.89
6.105 19.98 10.96 -13.09 23.87 29.89 27.94 -7.074 21.93 23.87 19.98 -89.13 11.85 21.93 43.86 -33.07 41.91
6.11 17.86 10.96 -5.128 19.98 19.98 17.86 -5.128 39.97 21.93 26 -55.18 43.86 27.94 45.98 0 57.83
6.115 11.85 10.96 -2.122 17.86 5.836 9.903 0.8842 55.88 35.9 37.84 -19.1 61.9 43.86 45.98 37.84 67.91
6.12 3.891 10.96 7.958 15.92 -3.006 1.945 5.836 59.95 53.94 47.92 7.958 55.88 57.83 39.97 65.96 65.96
6.125 -1.061 14.85 13.97 13.97 -19.1 -3.006 15.92 45.98 59.95 43.86 27.94 29.89 57.83 27.94 81.88 51.99
6.13 -9.019 16.98 13.97 9.903 -33.07 -11.14 21.93 15.92 49.87 29.89 29.89 0.8842 41.91 11.85 81.88 33.95
6.135 -13.09 14.85 9.903 1.945 -41.03 -17.15 21.93 -15.03 27.94 7.958 13.97 -27.06 19.98 -2.122 67.91 17.86
6.14 -15.03 0.8842 -2.122 -5.128 -43.15 -19.1 15.92 -41.03 1.945 -5.128 -9.019 -41.03 0 -3.006 39.97 9.903
6.145 -15.03 -15.03 -13.09 -17.15 -41.03 -19.1 0 -49.16 -15.03 -13.09 -33.07 -43.15 -7.074 -1.061 11.85 9.903
6.15 -19.1 -37.14 -31.12 -29 -39.08 -19.1 -19.1 -39.08 -27.06 -11.14 -43.15 -33.07 -5.128 -2.122 -3.006 17.86
6.155 -27.06 -55.18 -47.04 -39.08 -39.08 -17.15 -43.15 -21.04 -25.11 -2.122 -37.14 -19.1 0 3.891 -3.006 27.94
6.16 -35.02 -61.01 -61.01 -41.03 -39.08 -15.03 -59.07 -3.006 -15.03 15.92 -19.1 -3.006 10.96 3.891 8.842 36.96
6.165 -39.08 -55.18 -62.07 -35.02 -36.08 -11.14 -59.07 0 -2.122 29.89 0.8842 5.836 16.98 0 30.95 40.85
6.17 -31.12 -37.14 -55.18 -19.1 -29 -3.006 -43.15 1.945 13.97 35.9 9.903 9.903 13.97 0.8842 37.84 35.9
6.175 -10.08 -15.03 -34.13 0 -12.03 4.952 -19.1 0.8842 21.93 27.94 12.91 1.945 6.897 1.945 30.95 24.94
6.18 6.897 0.8842 -12.03 12.91 -1.061 16.98 -1.061 -4.067 19.98 13.97 6.897 -13.09 1.945 0.8842 2.83 8.842
6.185 23.87 14.85 3.891 21.93 11.85 27.94 -2.122 -11.14 7.958 0 -5.128 -37.14 -9.019 1.945 -23.17 -5.128
6.19 34.84 18.92 22.99 32.89 24.94 40.85 -2.122 -10.08 -3.006 -1.061 -24.05 -54.11 -16.09 0.8842 -49.16 -17.15
6.195 44.92 28.83 43.86 48.99 40.85 55 7.958 0.8842 -7.074 1.945 -40.14 -58 -21.04 0 -71.09 -25.11
6.2 55.88 34.84 59.95 71.98 59.95 67.91 33.95 27.94 -5.128 5.836 -47.04 -43.15 -25.11 -5.128 -89.13 -31.12
6.205 71.98 48.99 75.87 102.9 79.93 72.86 67.91 66.85 5.836 10.96 -35.02 -12.03 -23.17 -3.006 -96.03 -30.06
6.21 79.93 64.9 80.99 125.9 83.82 71.98 94.97 104 26 10.96 -9.019 12.91 -18.04 -2.122 -92.14 -20.16
6.215 71.98 70.91 71.98 124 75.87 51.99 93.9 119.9 39.97 11.85 11.85 31.83 -3.006 13.97 -77.1 -3.006
6.22 50.93 60.83 49.87 99.92 51.99 28.83 70.91 115.8 51.99 18.92 32.89 45.98 15.92 28.83 -42.09 20.87
6.225 21.93 36.96 22.99 58.89 14.85 4.952 32.89 88.95 56.94 33.95 41.91 47.92 45.98 37.84 -2.122 49.87
6.23 -9.019 -1.061 -1.061 7.958 -15.03 -11.14 3.891 47.92 55.88 43.86 35.9 47.92 71.98 43.86 41.91 71.98
6.235 -31.12 -31.12 -22.11 -28.12 -39.08 -26.17 -7.074 5.836 42.97 47.92 29.89 44.92 84.89 41.91 76.93 83.82
6.24 -43.15 -61.01 -39.08 -54.11 -56.06 -35.02 -13.09 -25.11 23.87 32.89 26 35.9 76.93 40.85 91.96 80.99
6.245 -43.15 -81.17 -54.11 -65.08 -62.07 -38.02 -20.16 -48.1 0 8.842 19.98 17.86 47.92 36.96 95.85 59.95
6.25 -41.03 -81.17 -57.12 -68.09 -62.07 -41.03 -33.07 -61.01 -35.02 -10.08 7.958 0.8842 0.8842 26.88 87.89 24.94
6.255 -39.08 -69.15 -52.17 -62.07 -57.12 -34.13 -49.16 -63.13 -62.07 -25.11 -3.006 -20.16 -40.14 7.958 82.94 -5.128
6.26 -37.14 -49.16 -39.08 -49.16 -51.11 -29 -57.12 -63.13 -81.17 -33.07 -19.1 -29 -77.1 -11.14 73.92 -37.14
6.265 -33.07 -27.06 -18.04 -30.06 -38.02 -22.11 -56.06 -60.13 -84 -33.07 -27.06 -29 -95.14 -33.07 53.94 -63.13
6.27 -26.17 -11.14 -1.061 -9.019 -27.06 -20.16 -44.03 -57.12 -79.05 -38.02 -24.05 -25.11 -99.03 -48.1 24.94 -78.17
6.275 -17.15 -3.006 5.836 1.945 -19.1 -19.1 -33.07 -45.1 -63.13 -35.02 -13.09 -23.17 -83.12 -49.16 -11.14 -81.17
